title:Malem, start timestamp:1649446446.806331, stop timestamp:1649446490.471111, headset type:EPOCX, headset serial:E2020A4F, headset firmware:710, channels:168, sampling rate:eeg_128;mot_32;pm_0.1;pow_8, samples:5593      , version:2.1, 
Timestamp,OriginalTimestamp,EEG.Counter,EEG.Interpolated,EEG.AF3,EEG.F7,EEG.F3,EEG.FC5,EEG.T7,EEG.P7,EEG.O1,EEG.O2,EEG.P8,EEG.T8,EEG.FC6,EEG.F4,EEG.F8,EEG.AF4,EEG.RawCq,EEG.Battery,EEG.BatteryPercent,MarkerIndex,MarkerType,MarkerValueInt,EEG.MarkerHardware,CQ.AF3,CQ.F7,CQ.F3,CQ.FC5,CQ.T7,CQ.P7,CQ.O1,CQ.O2,CQ.P8,CQ.T8,CQ.FC6,CQ.F4,CQ.F8,CQ.AF4,CQ.Overall,EQ.SampleRateQuality,EQ.OVERALL,EQ.AF3,EQ.F7,EQ.F3,EQ.FC5,EQ.T7,EQ.P7,EQ.O1,EQ.O2,EQ.P8,EQ.T8,EQ.FC6,EQ.F4,EQ.F8,EQ.AF4,MOT.CounterMems,MOT.InterpolatedMems,MOT.Q0,MOT.Q1,MOT.Q2,MOT.Q3,MOT.AccX,MOT.AccY,MOT.AccZ,MOT.MagX,MOT.MagY,MOT.MagZ,PM.Engagement.IsActive,PM.Engagement.Scaled,PM.Engagement.Raw,PM.Engagement.Min,PM.Engagement.Max,PM.Excitement.IsActive,PM.Excitement.Scaled,PM.Excitement.Raw,PM.Excitement.Min,PM.Excitement.Max,PM.LongTermExcitement,PM.Stress.IsActive,PM.Stress.Scaled,PM.Stress.Raw,PM.Stress.Min,PM.Stress.Max,PM.Relaxation.IsActive,PM.Relaxation.Scaled,PM.Relaxation.Raw,PM.Relaxation.Min,PM.Relaxation.Max,PM.Interest.IsActive,PM.Interest.Scaled,PM.Interest.Raw,PM.Interest.Min,PM.Interest.Max,PM.Focus.IsActive,PM.Focus.Scaled,PM.Focus.Raw,PM.Focus.Min,PM.Focus.Max,POW.AF3.Theta,POW.AF3.Alpha,POW.AF3.BetaL,POW.AF3.BetaH,POW.AF3.Gamma,POW.F7.Theta,POW.F7.Alpha,POW.F7.BetaL,POW.F7.BetaH,POW.F7.Gamma,POW.F3.Theta,POW.F3.Alpha,POW.F3.BetaL,POW.F3.BetaH,POW.F3.Gamma,POW.FC5.Theta,POW.FC5.Alpha,POW.FC5.BetaL,POW.FC5.BetaH,POW.FC5.Gamma,POW.T7.Theta,POW.T7.Alpha,POW.T7.BetaL,POW.T7.BetaH,POW.T7.Gamma,POW.P7.Theta,POW.P7.Alpha,POW.P7.BetaL,POW.P7.BetaH,POW.P7.Gamma,POW.O1.Theta,POW.O1.Alpha,POW.O1.BetaL,POW.O1.BetaH,POW.O1.Gamma,POW.O2.Theta,POW.O2.Alpha,POW.O2.BetaL,POW.O2.BetaH,POW.O2.Gamma,POW.P8.Theta,POW.P8.Alpha,POW.P8.BetaL,POW.P8.BetaH,POW.P8.Gamma,POW.T8.Theta,POW.T8.Alpha,POW.T8.BetaL,POW.T8.BetaH,POW.T8.Gamma,POW.FC6.Theta,POW.FC6.Alpha,POW.FC6.BetaL,POW.FC6.BetaH,POW.FC6.Gamma,POW.F4.Theta,POW.F4.Alpha,POW.F4.BetaL,POW.F4.BetaH,POW.F4.Gamma,POW.F8.Theta,POW.F8.Alpha,POW.F8.BetaL,POW.F8.BetaH,POW.F8.Gamma,POW.AF4.Theta,POW.AF4.Alpha,POW.AF4.BetaL,POW.AF4.BetaH,POW.AF4.Gamma
1649446446.806331,1649446446.806983,8.000000,0.000000,4389.358887,4359.743652,4381.410156,4364.358887,4332.307617,4341.153809,4340.512695,4325.897461,4335.000000,4299.358887,4510.769043,4497.436035,4410.000000,4457.307617,1963.000000,4.000000,80.000000,,,,0.000000,4.000000,4.000000,4.000000,4.000000,4.000000,4.000000,4.000000,4.000000,4.000000,4.000000,4.000000,4.000000,4.000000,4.000000,100.000000,,,,,,,,,,,,,,,,,2.000000,0.000000,0.578071,0.441772,-0.553467,0.405396,1.002075,0.050787,0.000977,-32.705227,6.822419,35.916466,,,,,,,,,,,,,,,,,,,,,,,,,,,,,,,,,,,,,,,,,,,,,,,,,,,,,,,,,,,,,,,,,,,,,,,,,,,,,,,,,,,,,,,,,,,,,,,,,,,,,
1649446446.814139,1649446446.814692,9.000000,0.000000,4390.641113,4353.974121,4381.666504,4352.820313,4329.743652,4333.846191,4332.563965,4323.589844,4331.282227,4302.179688,4510.769043,4500.384766,4415.769043,4460.897461,2436.000000,4.000000,80.000000,,,,0.000000,4.000000,4.000000,4.000000,4.000000,4.000000,4.000000,4.000000,4.000000,4.000000,4.000000,4.000000,4.000000,4.000000,4.000000,100.000000,,,,,,,,,,,,,,,,,,,,,,,,,,,,,,,,,,,,,,,,,,,,,,,,,,,,,,,,,,,,,,,,,,,,,,,,,,,,,,,,,,,,,,,,,,,,,,,,,,,,,,,,,,,,,,,,,,,,,,,,,,,,,,,,,
1649446446.821947,1649446446.822500,10.000000,0.000000,4396.153809,4358.589844,4384.230957,4359.358887,4336.666504,4334.871582,4331.666504,4323.333496,4329.487305,4312.179688,4503.974121,4505.512695,4412.563965,4470.256348,2717.000000,4.000000,80.000000,,,,0.000000,4.000000,4.000000,4.000000,4.000000,4.000000,4.000000,4.000000,4.000000,4.000000,4.000000,4.000000,4.000000,4.000000,4.000000,100.000000,,,,,,,,,,,,,,,,,,,,,,,,,,,,,,,,,,,,,,,,,,,,,,,,,,,,,,,,,,,,,,,,,,,,,,,,,,,,,,,,,,,,,,,,,,,,,,,,,,,,,,,,,,,,,,,,,,,,,,,,,,,,,,,,,
1649446446.829756,1649446446.830408,11.000000,0.000000,4397.307617,4359.871582,4386.282227,4369.230957,4336.538574,4340.384766,4331.922852,4326.153809,4330.512695,4311.410156,4508.333496,4505.769043,4414.615234,4473.589844,2808.000000,4.000000,80.000000,,,,0.000000,4.000000,4.000000,4.000000,4.000000,4.000000,4.000000,4.000000,4.000000,4.000000,4.000000,4.000000,4.000000,4.000000,4.000000,100.000000,,,,,,,,,,,,,,,,,,,,,,,,,,,,,,,,,,,,,,,,,,,,,,,,,,,,,,,,,,,,1.188283,0.484459,0.777933,0.283117,0.204079,0.440545,0.449394,0.690765,0.165775,0.208462,0.696483,0.322763,0.471069,0.212499,0.147231,0.379497,0.327784,0.250442,0.257880,0.372705,0.448703,0.228729,0.216272,0.199280,0.132183,0.806789,0.130127,0.183173,0.165954,0.213004,1.082639,0.190576,0.132754,0.263110,0.268956,0.782091,0.112359,0.241433,0.182466,0.148282,1.229983,0.372230,0.211403,0.185952,0.150105,1.533240,0.607399,0.878159,0.455563,0.341170,1.398419,0.859627,1.068760,0.536853,0.360232,2.014327,0.373115,0.922601,0.326063,0.208139,1.492679,1.077432,1.354086,0.356661,0.457145,1.836493,0.390119,0.628565,0.293193,0.185605
1649446446.837564,1649446446.838217,12.000000,0.000000,4394.871582,4358.589844,4385.128418,4370.128418,4332.820313,4338.974121,4325.769043,4327.051270,4327.179688,4307.948730,4509.487305,4499.487305,4414.358887,4467.051270,3064.000000,4.000000,80.000000,,,,0.000000,4.000000,4.000000,4.000000,4.000000,4.000000,4.000000,4.000000,4.000000,4.000000,4.000000,4.000000,4.000000,4.000000,4.000000,100.000000,,,,,,,,,,,,,,,,,3.000000,0.000000,0.578083,0.441833,-0.553406,0.405396,0.984007,0.041021,-0.004395,-32.901371,6.840177,35.841484,,,,,,,,,,,,,,,,,,,,,,,,,,,,,,,,,,,,,,,,,,,,,,,,,,,,,,,,,,,,,,,,,,,,,,,,,,,,,,,,,,,,,,,,,,,,,,,,,,,,,
1649446446.845373,1649446446.845925,13.000000,0.000000,4389.230957,4357.563965,4377.692383,4358.461426,4337.051270,4339.615234,4326.025879,4322.179688,4326.025879,4312.179688,4503.205078,4499.615234,4406.538574,4458.846191,2949.000000,4.000000,80.000000,,,,0.000000,4.000000,4.000000,4.000000,4.000000,4.000000,4.000000,4.000000,4.000000,4.000000,4.000000,4.000000,4.000000,4.000000,4.000000,100.000000,,,,,,,,,,,,,,,,,,,,,,,,,,,,,,,,,,,,,,,,,,,,,,,,,,,,,,,,,,,,,,,,,,,,,,,,,,,,,,,,,,,,,,,,,,,,,,,,,,,,,,,,,,,,,,,,,,,,,,,,,,,,,,,,,
1649446446.853181,1649446446.853734,14.000000,0.000000,4381.794922,4351.410156,4372.692383,4351.794922,4341.410156,4344.230957,4334.230957,4323.589844,4336.025879,4310.897461,4502.948730,4507.563965,4406.666504,4458.717773,2717.000000,4.000000,80.000000,,,,0.000000,4.000000,4.000000,4.000000,4.000000,4.000000,4.000000,4.000000,4.000000,4.000000,4.000000,4.000000,4.000000,4.000000,4.000000,100.000000,,,,,,,,,,,,,,,,,,,,,,,,,,,,,,,,,,,,,,,,,,,,,,,,,,,,,,,,,,,,,,,,,,,,,,,,,,,,,,,,,,,,,,,,,,,,,,,,,,,,,,,,,,,,,,,,,,,,,,,,,,,,,,,,,
1649446446.860990,1649446446.861442,15.000000,0.000000,4385.000000,4350.769043,4380.384766,4363.589844,4336.410156,4338.974121,4337.436035,4328.846191,4339.487305,4311.794922,4509.358887,4506.282227,4414.871582,4465.512695,2808.000000,4.000000,80.000000,,,,0.000000,4.000000,4.000000,4.000000,4.000000,4.000000,4.000000,4.000000,4.000000,4.000000,4.000000,4.000000,4.000000,4.000000,4.000000,100.000000,,,,,,,,,,,,,,,,,,,,,,,,,,,,,,,,,,,,,,,,,,,,,,,,,,,,,,,,,,,,,,,,,,,,,,,,,,,,,,,,,,,,,,,,,,,,,,,,,,,,,,,,,,,,,,,,,,,,,,,,,,,,,,,,,
1649446446.868798,1649446446.869351,16.000000,0.000000,4390.128418,4358.205078,4384.358887,4364.743652,4325.128418,4328.717773,4327.820313,4318.974121,4327.820313,4305.384766,4511.410156,4492.179688,4419.487305,4466.922852,0.000000,4.000000,80.000000,,,,0.000000,4.000000,4.000000,4.000000,4.000000,4.000000,4.000000,4.000000,4.000000,4.000000,4.000000,4.000000,4.000000,4.000000,4.000000,100.000000,,,,,,,,,,,,,,,,,4.000000,0.000000,0.578052,0.441895,-0.553345,0.405457,0.994750,0.048834,0.002442,-32.977901,6.889493,36.007336,,,,,,,,,,,,,,,,,,,,,,,,,,,,,,,,,,,,,,,,,,,,,,,,,,,,,,,,,,,,,,,,,,,,,,,,,,,,,,,,,,,,,,,,,,,,,,,,,,,,,
1649446446.876606,1649446446.877159,17.000000,0.000000,4383.974121,4356.794922,4376.538574,4351.282227,4321.666504,4335.128418,4320.512695,4310.641113,4322.179688,4292.692383,4503.205078,4485.512695,4408.333496,4460.769043,0.000000,4.000000,80.000000,,,,0.000000,4.000000,4.000000,4.000000,4.000000,4.000000,4.000000,4.000000,4.000000,4.000000,4.000000,4.000000,4.000000,4.000000,4.000000,100.000000,,,,,,,,,,,,,,,,,,,,,,,,,,,,,,,,,,,,,,,,,,,,,,,,,,,,,,,,,,,,,,,,,,,,,,,,,,,,,,,,,,,,,,,,,,,,,,,,,,,,,,,,,,,,,,,,,,,,,,,,,,,,,,,,,
1649446446.884415,1649446446.885068,18.000000,0.000000,4379.615234,4347.692383,4371.538574,4353.205078,4329.871582,4345.128418,4326.025879,4316.153809,4324.871582,4297.563965,4492.692383,4490.897461,4393.717773,4451.922852,0.000000,4.000000,80.000000,,,,0.000000,4.000000,4.000000,4.000000,4.000000,4.000000,4.000000,4.000000,4.000000,4.000000,4.000000,4.000000,4.000000,4.000000,4.000000,100.000000,,,,,,,,,,,,,,,,,,,,,,,,,,,,,,,,,,,,,,,,,,,,,,,,,,,,,,,,,,,,,,,,,,,,,,,,,,,,,,,,,,,,,,,,,,,,,,,,,,,,,,,,,,,,,,,,,,,,,,,,,,,,,,,,,
1649446446.892223,1649446446.892876,19.000000,0.000000,4381.282227,4344.871582,4373.205078,4356.282227,4333.974121,4336.282227,4329.102539,4315.384766,4319.487305,4301.794922,4486.538574,4488.333496,4392.563965,4444.230957,0.000000,4.000000,80.000000,,,,0.000000,4.000000,4.000000,4.000000,4.000000,4.000000,4.000000,4.000000,4.000000,4.000000,4.000000,4.000000,4.000000,4.000000,4.000000,100.000000,,,,,,,,,,,,,,,,,,,,,,,,,,,,,,,,,,,,,,,,,,,,,,,,,,,,,,,,,,,,,,,,,,,,,,,,,,,,,,,,,,,,,,,,,,,,,,,,,,,,,,,,,,,,,,,,,,,,,,,,,,,,,,,,,
1649446446.900032,1649446446.900784,20.000000,0.000000,4382.051270,4351.025879,4374.615234,4348.333496,4333.974121,4332.692383,4325.256348,4310.000000,4317.307617,4293.974121,4492.563965,4482.179688,4399.102539,4445.769043,0.000000,4.000000,80.000000,,,,0.000000,4.000000,4.000000,4.000000,4.000000,4.000000,4.000000,4.000000,4.000000,4.000000,4.000000,4.000000,4.000000,4.000000,4.000000,100.000000,,,,,,,,,,,,,,,,,5.000000,0.000000,0.578091,0.441956,-0.553345,0.405334,0.987425,0.049322,0.000000,-32.913445,6.883877,36.023270,,,,,,,,,,,,,,,,,,,,,,,,,,,,,,,,,,,,,,,,,,,,,,,,,,,,,,,,,,,,,,,,,,,,,,,,,,,,,,,,,,,,,,,,,,,,,,,,,,,,,
1649446446.907840,1649446446.908593,21.000000,0.000000,4387.307617,4360.641113,4379.743652,4355.256348,4338.974121,4342.307617,4327.436035,4318.333496,4330.384766,4302.051270,4498.333496,4490.512695,4403.846191,4454.743652,0.000000,4.000000,80.000000,,,,0.000000,4.000000,4.000000,4.000000,4.000000,4.000000,4.000000,4.000000,4.000000,4.000000,4.000000,4.000000,4.000000,4.000000,4.000000,100.000000,,,,,,,,,,,,,,,,,,,,,,,,,,,,,,,,,,,,,,,,,,,,,,,,,,,,,,,,,,,,,,,,,,,,,,,,,,,,,,,,,,,,,,,,,,,,,,,,,,,,,,,,,,,,,,,,,,,,,,,,,,,,,,,,,
1649446446.915649,1649446446.916501,22.000000,0.000000,4397.307617,4367.692383,4386.153809,4374.487305,4342.563965,4343.077148,4338.846191,4330.128418,4336.282227,4321.153809,4504.230957,4507.051270,4408.589844,4462.051270,0.000000,4.000000,80.000000,,,,0.000000,4.000000,4.000000,4.000000,4.000000,4.000000,4.000000,4.000000,4.000000,4.000000,4.000000,4.000000,4.000000,4.000000,4.000000,100.000000,,,,,,,,,,,,,,,,,,,,,,,,,,,,,,,,,,,,,,,,,,,,,,,,,,,,,,,,,,,,,,,,,,,,,,,,,,,,,,,,,,,,,,,,,,,,,,,,,,,,,,,,,,,,,,,,,,,,,,,,,,,,,,,,,
1649446446.923457,1649446446.924310,23.000000,0.000000,4402.179688,4367.307617,4388.461426,4381.153809,4342.563965,4345.641113,4349.487305,4334.358887,4334.871582,4325.769043,4520.384766,4518.205078,4422.948730,4472.436035,0.000000,4.000000,80.000000,,,,0.000000,4.000000,4.000000,4.000000,4.000000,4.000000,4.000000,4.000000,4.000000,4.000000,4.000000,4.000000,4.000000,4.000000,4.000000,100.000000,,,,,,,,,,,,,,,,,,,,,,,,,,,,,,,,,,,,,,,,,,,,,,,,,,,,,,,,,,,,,,,,,,,,,,,,,,,,,,,,,,,,,,,,,,,,,,,,,,,,,,,,,,,,,,,,,,,,,,,,,,,,,,,,,
1649446446.931265,1649446446.932218,24.000000,0.000000,4399.230957,4359.615234,4388.205078,4366.538574,4339.743652,4352.051270,4345.000000,4331.538574,4337.692383,4318.974121,4517.692383,4516.922852,4423.589844,4478.205078,0.000000,4.000000,80.000000,,,,0.000000,4.000000,4.000000,4.000000,4.000000,4.000000,4.000000,4.000000,4.000000,4.000000,4.000000,4.000000,4.000000,4.000000,4.000000,100.000000,,,,,,,,,,,,,,,,,6.000000,0.000000,0.578133,0.441895,-0.553528,0.405090,0.991820,0.051276,-0.003907,-32.855434,6.878822,35.887608,,,,,,,,,,,,,,,,,,,,,,,,,,,,,,,,,,,,,,,,,,,,,,,,,,,,,,,,,,,,,,,,,,,,,,,,,,,,,,,,,,,,,,,,,,,,,,,,,,,,,
1649446446.939074,1649446446.940026,25.000000,0.000000,4397.051270,4355.384766,4385.769043,4357.179688,4334.230957,4346.538574,4332.820313,4326.666504,4333.717773,4307.179688,4502.436035,4509.230957,4408.589844,4470.512695,0.000000,4.000000,80.000000,,,,0.000000,4.000000,4.000000,4.000000,4.000000,4.000000,4.000000,4.000000,4.000000,4.000000,4.000000,4.000000,4.000000,4.000000,4.000000,100.000000,,,,,,,,,,,,,,,,,,,,,,,,,,,,,,,,,,,,,,,,,,,,,,,,,,,,,,,,,,,,,,,,,,,,,,,,,,,,,,,,,,,,,,,,,,,,,,,,,,,,,,,,,,,,,,,,,,,,,,,,,,,,,,,,,
1649446446.946882,1649446446.947935,26.000000,0.000000,4400.000000,4360.000000,4388.589844,4368.205078,4336.538574,4343.461426,4337.436035,4328.333496,4327.563965,4305.384766,4515.512695,4512.948730,4413.589844,4474.102539,0.000000,4.000000,80.000000,,,,0.000000,4.000000,4.000000,4.000000,4.000000,4.000000,4.000000,4.000000,4.000000,4.000000,4.000000,4.000000,4.000000,4.000000,4.000000,100.000000,,,,,,,,,,,,,,,,,,,,,,,,,,,,,,,,,,,,,,,,,,,,,,,,,,,,,,,,,,,,,,,,,,,,,,,,,,,,,,,,,,,,,,,,,,,,,,,,,,,,,,,,,,,,,,,,,,,,,,,,,,,,,,,,,
1649446446.954691,1649446446.955743,27.000000,0.000000,4397.307617,4360.769043,4390.000000,4373.077148,4341.794922,4349.743652,4346.410156,4329.487305,4327.436035,4312.436035,4526.922852,4513.589844,4423.974121,4477.820313,0.000000,4.000000,80.000000,,,,0.000000,4.000000,4.000000,4.000000,4.000000,4.000000,4.000000,4.000000,4.000000,4.000000,4.000000,4.000000,4.000000,4.000000,4.000000,100.000000,,,,,,,,,,,,,,,,,,,,,,,,,,,,,,,,,,,,,,,,,,,,,,,,,,,,,,,,,,,,0.894061,0.456896,0.779703,0.299272,0.213866,0.392821,0.446008,0.697030,0.147000,0.211279,0.699340,0.344334,0.514002,0.186541,0.149726,0.371635,0.312801,0.240149,0.259655,0.408946,0.485692,0.247292,0.195668,0.162600,0.136522,0.768341,0.144731,0.167545,0.165962,0.233540,0.989426,0.217915,0.136484,0.235014,0.262761,0.824460,0.104459,0.267620,0.167856,0.152646,1.209267,0.303233,0.226550,0.182518,0.163252,1.533612,0.606888,0.835467,0.422293,0.340669,1.403763,0.897789,1.098650,0.531356,0.368927,1.817237,0.446367,0.971476,0.305302,0.231923,1.524460,1.192317,1.387331,0.346869,0.458107,1.371980,0.461924,0.697022,0.245737,0.189023
1649446446.962499,1649446446.963452,28.000000,0.000000,4390.512695,4357.563965,4385.256348,4365.128418,4336.922852,4346.153809,4337.179688,4325.769043,4326.282227,4310.897461,4508.461426,4501.025879,4413.461426,4461.794922,0.000000,4.000000,80.000000,,,,0.000000,4.000000,4.000000,4.000000,4.000000,4.000000,4.000000,4.000000,4.000000,4.000000,4.000000,4.000000,4.000000,4.000000,4.000000,100.000000,,,,,,,,,,,,,,,,,7.000000,0.000000,0.578320,0.441895,-0.553467,0.404907,0.995727,0.057624,0.007813,-32.936558,6.840940,35.848846,,,,,,,,,,,,,,,,,,,,,,,,,,,,,,,,,,,,,,,,,,,,,,,,,,,,,,,,,,,,,,,,,,,,,,,,,,,,,,,,,,,,,,,,,,,,,,,,,,,,,
1649446446.970308,1649446446.971260,29.000000,0.000000,4394.230957,4357.436035,4385.641113,4364.615234,4337.307617,4340.000000,4331.153809,4326.153809,4324.871582,4310.256348,4503.205078,4499.615234,4407.436035,4458.589844,0.000000,4.000000,80.000000,,,,0.000000,4.000000,4.000000,4.000000,4.000000,4.000000,4.000000,4.000000,4.000000,4.000000,4.000000,4.000000,4.000000,4.000000,4.000000,100.000000,,,,,,,,,,,,,,,,,,,,,,,,,,,,,,,,,,,,,,,,,,,,,,,,,,,,,,,,,,,,,,,,,,,,,,,,,,,,,,,,,,,,,,,,,,,,,,,,,,,,,,,,,,,,,,,,,,,,,,,,,,,,,,,,,
1649446446.978116,1649446446.978969,30.000000,0.000000,4400.256348,4357.307617,4389.487305,4367.307617,4342.948730,4341.410156,4340.384766,4326.025879,4326.410156,4310.897461,4511.025879,4506.282227,4414.358887,4470.000000,0.000000,4.000000,80.000000,,,,0.000000,4.000000,4.000000,4.000000,4.000000,4.000000,4.000000,4.000000,4.000000,4.000000,4.000000,4.000000,4.000000,4.000000,4.000000,100.000000,,,,,,,,,,,,,,,,,,,,,,,,,,,,,,,,,,,,,,,,,,,,,,,,,,,,,,,,,,,,,,,,,,,,,,,,,,,,,,,,,,,,,,,,,,,,,,,,,,,,,,,,,,,,,,,,,,,,,,,,,,,,,,,,,
1649446446.985925,1649446446.986777,31.000000,0.000000,4401.153809,4360.512695,4391.922852,4365.512695,4339.102539,4339.871582,4345.769043,4327.692383,4326.410156,4306.922852,4507.051270,4508.589844,4411.538574,4474.102539,0.000000,4.000000,80.000000,,,,0.000000,4.000000,4.000000,4.000000,4.000000,4.000000,4.000000,4.000000,4.000000,4.000000,4.000000,4.000000,4.000000,4.000000,4.000000,100.000000,,,,,,,,,,,,,,,,,,,,,,,,,,,,,,,,,,,,,,,,,,,,,,,,,,,,,,,,,,,,,,,,,,,,,,,,,,,,,,,,,,,,,,,,,,,,,,,,,,,,,,,,,,,,,,,,,,,,,,,,,,,,,,,,,
1649446446.993733,1649446446.994486,32.000000,0.000000,4402.820313,4365.000000,4390.512695,4365.769043,4338.461426,4341.410156,4342.820313,4332.692383,4327.307617,4310.512695,4511.666504,4510.897461,4412.436035,4476.025879,0.000000,4.000000,80.000000,,,,0.000000,4.000000,4.000000,4.000000,4.000000,4.000000,4.000000,4.000000,4.000000,4.000000,4.000000,4.000000,4.000000,4.000000,4.000000,100.000000,,,,,,,,,,,,,,,,,8.000000,0.000000,0.578394,0.441833,-0.553528,0.404785,0.999634,0.057624,-0.009767,-33.026234,6.856846,35.830631,,,,,,,,,,,,,,,,,,,,,,,,,,,,,,,,,,,,,,,,,,,,,,,,,,,,,,,,,,,,,,,,,,,,,,,,,,,,,,,,,,,,,,,,,,,,,,,,,,,,,
1649446447.001542,1649446447.002394,33.000000,0.000000,4396.922852,4357.051270,4381.538574,4357.179688,4340.384766,4343.333496,4338.077148,4332.179688,4326.025879,4313.077148,4514.487305,4508.333496,4413.205078,4469.743652,0.000000,4.000000,80.000000,,,,0.000000,4.000000,4.000000,4.000000,4.000000,4.000000,4.000000,4.000000,4.000000,4.000000,4.000000,4.000000,4.000000,4.000000,4.000000,100.000000,,,,,,,,,,,,,,,,,,,,,,,,,,,,,,,,,,,,,,,,,,,,,,,,,,,,,,,,,,,,,,,,,,,,,,,,,,,,,,,,,,,,,,,,,,,,,,,,,,,,,,,,,,,,,,,,,,,,,,,,,,,,,,,,,
1649446447.009350,1649446447.010202,34.000000,0.000000,4394.615234,4349.358887,4377.051270,4353.461426,4340.384766,4335.897461,4338.461426,4331.410156,4326.153809,4307.692383,4509.615234,4505.769043,4402.051270,4463.846191,0.000000,4.000000,80.000000,,,,0.000000,4.000000,4.000000,4.000000,4.000000,4.000000,4.000000,4.000000,4.000000,4.000000,4.000000,4.000000,4.000000,4.000000,4.000000,100.000000,,,,,,,,,,,,,,,,,,,,,,,,,,,,,,,,,,,,,,,,,,,,,,,,,,,,,,,,,,,,,,,,,,,,,,,,,,,,,,,,,,,,,,,,,,,,,,,,,,,,,,,,,,,,,,,,,,,,,,,,,,,,,,,,,
1649446447.017158,1649446447.018111,35.000000,0.000000,4405.384766,4358.974121,4388.589844,4371.666504,4345.384766,4339.102539,4348.461426,4339.871582,4337.820313,4314.487305,4520.000000,4519.743652,4411.794922,4477.436035,0.000000,4.000000,80.000000,,,,0.000000,4.000000,4.000000,4.000000,4.000000,4.000000,4.000000,4.000000,4.000000,4.000000,4.000000,4.000000,4.000000,4.000000,4.000000,100.000000,,,,,,,,,,,,,,,,,,,,,,,,,,,,,,,,,,,,,,,,,,,,,,,,,,,,,,,,,,,,,,,,,,,,,,,,,,,,,,,,,,,,,,,,,,,,,,,,,,,,,,,,,,,,,,,,,,,,,,,,,,,,,,,,,
1649446447.024967,1649446447.025919,36.000000,0.000000,4402.307617,4369.230957,4391.538574,4381.025879,4346.025879,4350.769043,4351.025879,4341.153809,4341.922852,4320.897461,4528.333496,4526.922852,4428.974121,4485.769043,0.000000,4.000000,80.000000,,,,0.000000,4.000000,4.000000,4.000000,4.000000,4.000000,4.000000,4.000000,4.000000,4.000000,4.000000,4.000000,4.000000,4.000000,4.000000,100.000000,,,,,,,,,,,,,,,,,9.000000,0.000000,0.578444,0.441956,-0.553467,0.404663,0.972775,0.059089,0.004883,-33.090279,6.771162,35.997566,,,,,,,,,,,,,,,,,,,,,,,,,,,,,,,,,,,,,,,,,,,,,,,,,,,,,,,,,,,,,,,,,,,,,,,,,,,,,,,,,,,,,,,,,,,,,,,,,,,,,
1649446447.032775,1649446447.033728,37.000000,0.000000,4391.282227,4365.384766,4377.948730,4375.000000,4339.743652,4347.307617,4341.666504,4327.820313,4328.333496,4311.538574,4519.102539,4509.358887,4420.000000,4472.051270,0.000000,4.000000,80.000000,,,,0.000000,4.000000,4.000000,4.000000,4.000000,4.000000,4.000000,4.000000,4.000000,4.000000,4.000000,4.000000,4.000000,4.000000,4.000000,100.000000,,,,,,,,,,,,,,,,,,,,,,,,,,,,,,,,,,,,,,,,,,,,,,,,,,,,,,,,,,,,,,,,,,,,,,,,,,,,,,,,,,,,,,,,,,,,,,,,,,,,,,,,,,,,,,,,,,,,,,,,,,,,,,,,,
1649446447.040584,1649446447.041436,38.000000,0.000000,4396.922852,4360.128418,4378.205078,4370.512695,4341.538574,4338.846191,4337.563965,4321.538574,4322.179688,4309.743652,4518.205078,4502.692383,4410.256348,4468.974121,0.000000,4.000000,80.000000,,,,0.000000,4.000000,4.000000,4.000000,4.000000,4.000000,4.000000,4.000000,4.000000,4.000000,4.000000,4.000000,4.000000,4.000000,4.000000,100.000000,,,,,,,,,,,,,,,,,,,,,,,,,,,,,,,,,,,,,,,,,,,,,,,,,,,,,,,,,,,,,,,,,,,,,,,,,,,,,,,,,,,,,,,,,,,,,,,,,,,,,,,,,,,,,,,,,,,,,,,,,,,,,,,,,
1649446447.048392,1649446447.049245,39.000000,0.000000,4403.974121,4362.563965,4386.025879,4368.974121,4344.743652,4345.256348,4335.384766,4328.589844,4327.948730,4317.051270,4523.333496,4511.282227,4416.794922,4475.000000,0.000000,4.000000,80.000000,,,,0.000000,4.000000,4.000000,4.000000,4.000000,4.000000,4.000000,4.000000,4.000000,4.000000,4.000000,4.000000,4.000000,4.000000,4.000000,100.000000,,,,,,,,,,,,,,,,,,,,,,,,,,,,,,,,,,,,,,,,,,,,,,,,,,,,,,,,,,,,,,,,,,,,,,,,,,,,,,,,,,,,,,,,,,,,,,,,,,,,,,,,,,,,,,,,,,,,,,,,,,,,,,,,,
1649446447.056201,1649446447.056953,40.000000,0.000000,4399.743652,4359.743652,4381.666504,4369.743652,4342.179688,4351.025879,4337.563965,4330.256348,4328.846191,4312.820313,4510.384766,4506.666504,4416.410156,4466.025879,0.000000,4.000000,80.000000,,,,0.000000,4.000000,4.000000,4.000000,4.000000,4.000000,4.000000,4.000000,4.000000,4.000000,4.000000,4.000000,4.000000,4.000000,4.000000,100.000000,,,,,,,,,,,,,,,,,10.000000,0.000000,0.578394,0.442078,-0.553467,0.404602,0.982053,0.056159,-0.008302,-33.081249,6.727379,35.797810,,,,,,,,,,,,,,,,,,,,,,,,,,,,,,,,,,,,,,,,,,,,,,,,,,,,,,,,,,,,,,,,,,,,,,,,,,,,,,,,,,,,,,,,,,,,,,,,,,,,,
1649446447.064009,1649446447.064762,41.000000,0.000000,4387.948730,4346.538574,4372.436035,4361.794922,4342.948730,4342.563965,4344.102539,4322.692383,4321.153809,4302.820313,4491.025879,4491.538574,4399.615234,4449.487305,0.000000,4.000000,80.000000,,,,0.000000,4.000000,4.000000,4.000000,4.000000,4.000000,4.000000,4.000000,4.000000,4.000000,4.000000,4.000000,4.000000,4.000000,4.000000,100.000000,,,,,,,,,,,,,,,,,,,,,,,,,,,,,,,,,,,,,,,,,,,,,,,,,,,,,,,,,,,,,,,,,,,,,,,,,,,,,,,,,,,,,,,,,,,,,,,,,,,,,,,,,,,,,,,,,,,,,,,,,,,,,,,,,
1649446447.071817,1649446447.072470,42.000000,0.000000,4376.282227,4339.230957,4369.230957,4347.436035,4338.846191,4334.743652,4336.025879,4314.358887,4312.307617,4296.282227,4486.153809,4479.871582,4386.666504,4441.282227,0.000000,4.000000,80.000000,,,,0.000000,4.000000,4.000000,4.000000,4.000000,4.000000,4.000000,4.000000,4.000000,4.000000,4.000000,4.000000,4.000000,4.000000,4.000000,100.000000,,,,,,,,,,,,,,,,,,,,,,,,,,,,,,,,,,,,,,,,,,,,,,,,,,,,,,,,,,,,,,,,,,,,,,,,,,,,,,,,,,,,,,,,,,,,,,,,,,,,,,,,,,,,,,,,,,,,,,,,,,,,,,,,,
1649446447.079626,1649446447.080279,43.000000,0.000000,4377.436035,4342.820313,4369.743652,4354.230957,4332.179688,4333.846191,4325.384766,4312.436035,4311.794922,4290.769043,4491.922852,4478.461426,4389.615234,4443.077148,0.000000,4.000000,80.000000,,,,0.000000,4.000000,4.000000,4.000000,4.000000,4.000000,4.000000,4.000000,4.000000,4.000000,4.000000,4.000000,4.000000,4.000000,4.000000,100.000000,,,,,,,,,,,,,,,,,,,,,,,,,,,,,,,,,,,,,,,,,,,,,,,,,,,,,,,,,,,,0.692652,0.462660,0.766148,0.310878,0.223220,0.379877,0.437140,0.657949,0.139397,0.207737,0.731896,0.380171,0.535494,0.163057,0.146756,0.395200,0.323104,0.215326,0.266461,0.450394,0.519599,0.291574,0.181180,0.135614,0.142799,0.676213,0.169404,0.164530,0.165136,0.250216,0.858674,0.273393,0.159683,0.203409,0.269957,0.808824,0.110467,0.299194,0.163437,0.155753,1.077408,0.273186,0.246280,0.178452,0.171948,1.417064,0.590841,0.773250,0.385999,0.333286,1.347363,0.905898,1.073881,0.544802,0.366785,1.557372,0.534296,0.949159,0.274776,0.262056,1.477182,1.219458,1.306784,0.361090,0.427724,1.042375,0.533163,0.734518,0.212134,0.198756
1649446447.087434,1649446447.087987,44.000000,0.000000,4383.974121,4342.179688,4367.563965,4366.922852,4333.461426,4333.717773,4331.922852,4318.205078,4320.897461,4294.358887,4492.179688,4486.410156,4400.128418,4444.102539,0.000000,4.000000,80.000000,,,,0.000000,4.000000,4.000000,4.000000,4.000000,4.000000,4.000000,4.000000,4.000000,4.000000,4.000000,4.000000,4.000000,4.000000,4.000000,100.000000,,,,,,,,,,,,,,,,,11.000000,0.000000,0.578436,0.442078,-0.553467,0.404541,0.991820,0.046392,-0.002442,-32.989792,6.754641,35.868031,,,,,,,,,,,,,,,,,,,,,,,,,,,,,,,,,,,,,,,,,,,,,,,,,,,,,,,,,,,,,,,,,,,,,,,,,,,,,,,,,,,,,,,,,,,,,,,,,,,,,
1649446447.095243,1649446447.095796,45.000000,0.000000,4378.333496,4333.077148,4364.230957,4355.256348,4333.846191,4336.410156,4343.461426,4327.179688,4327.051270,4307.307617,4490.000000,4492.948730,4398.205078,4445.641113,0.000000,4.000000,80.000000,,,,0.000000,4.000000,4.000000,4.000000,4.000000,4.000000,4.000000,4.000000,4.000000,4.000000,4.000000,4.000000,4.000000,4.000000,4.000000,100.000000,,,,,,,,,,,,,,,,,,,,,,,,,,,,,,,,,,,,,,,,,,,,,,,,,,,,,,,,,,,,,,,,,,,,,,,,,,,,,,,,,,,,,,,,,,,,,,,,,,,,,,,,,,,,,,,,,,,,,,,,,,,,,,,,,
1649446447.103051,1649446447.103504,46.000000,0.000000,4378.717773,4330.512695,4367.692383,4347.820313,4331.794922,4342.563965,4343.974121,4328.717773,4328.077148,4312.436035,4496.025879,4494.358887,4392.179688,4456.153809,0.000000,4.000000,80.000000,,,,0.000000,4.000000,4.000000,4.000000,4.000000,4.000000,4.000000,4.000000,4.000000,4.000000,4.000000,4.000000,4.000000,4.000000,4.000000,100.000000,,,,,,,,,,,,,,,,,,,,,,,,,,,,,,,,,,,,,,,,,,,,,,,,,,,,,,,,,,,,,,,,,,,,,,,,,,,,,,,,,,,,,,,,,,,,,,,,,,,,,,,,,,,,,,,,,,,,,,,,,,,,,,,,,
1649446447.110860,1649446447.111413,47.000000,0.000000,4391.538574,4341.666504,4373.461426,4360.769043,4332.307617,4339.230957,4332.948730,4321.282227,4325.897461,4303.589844,4504.487305,4499.230957,4401.794922,4465.769043,0.000000,4.000000,80.000000,,,,0.000000,4.000000,4.000000,4.000000,4.000000,4.000000,4.000000,4.000000,4.000000,4.000000,4.000000,4.000000,4.000000,4.000000,4.000000,100.000000,,,,,,,,,,,,,,,,,,,,,,,,,,,,,,,,,,,,,,,,,,,,,,,,,,,,,,,,,,,,,,,,,,,,,,,,,,,,,,,,,,,,,,,,,,,,,,,,,,,,,,,,,,,,,,,,,,,,,,,,,,,,,,,,,
1649446447.118668,1649446447.119221,48.000000,0.000000,4397.692383,4350.641113,4376.410156,4362.563965,4335.256348,4332.051270,4326.538574,4321.282227,4323.205078,4300.000000,4509.487305,4506.153809,4413.589844,4461.410156,0.000000,4.000000,80.000000,,,,0.000000,4.000000,4.000000,4.000000,4.000000,4.000000,4.000000,4.000000,4.000000,4.000000,4.000000,4.000000,4.000000,4.000000,4.000000,100.000000,,,,,,,,,,,,,,,,,12.000000,0.000000,0.578553,0.442078,-0.553345,0.404541,0.995727,0.043462,0.002442,-33.124146,6.779177,35.881226,,,,,,,,,,,,,,,,,,,,,,,,,,,,,,,,,,,,,,,,,,,,,,,,,,,,,,,,,,,,,,,,,,,,,,,,,,,,,,,,,,,,,,,,,,,,,,,,,,,,,
1649446447.126476,1649446447.127129,49.000000,0.000000,4398.077148,4350.512695,4380.000000,4355.512695,4334.743652,4337.307617,4338.846191,4328.333496,4324.615234,4309.230957,4510.897461,4508.974121,4411.922852,4461.025879,0.000000,4.000000,80.000000,,,,0.000000,4.000000,4.000000,4.000000,4.000000,4.000000,4.000000,4.000000,4.000000,4.000000,4.000000,4.000000,4.000000,4.000000,4.000000,100.000000,,,,,,,,,,,,,,,,,,,,,,,,,,,,,,,,,,,,,,,,,,,,,,,,,,,,,,,,,,,,,,,,,,,,,,,,,,,,,,,,,,,,,,,,,,,,,,,,,,,,,,,,,,,,,,,,,,,,,,,,,,,,,,,,,
1649446447.134285,1649446447.134938,50.000000,0.000000,4399.743652,4346.666504,4382.179688,4361.025879,4333.974121,4342.692383,4345.641113,4327.307617,4325.641113,4309.230957,4509.487305,4514.102539,4408.205078,4472.307617,0.000000,4.000000,80.000000,,,,0.000000,4.000000,4.000000,4.000000,4.000000,4.000000,4.000000,4.000000,4.000000,4.000000,4.000000,4.000000,4.000000,4.000000,4.000000,100.000000,,,,,,,,,,,,,,,,,,,,,,,,,,,,,,,,,,,,,,,,,,,,,,,,,,,,,,,,,,,,,,,,,,,,,,,,,,,,,,,,,,,,,,,,,,,,,,,,,,,,,,,,,,,,,,,,,,,,,,,,,,,,,,,,,
1649446447.142093,1649446447.142846,51.000000,0.000000,4401.153809,4343.717773,4381.282227,4367.051270,4336.922852,4336.282227,4330.000000,4322.563965,4323.717773,4297.692383,4510.641113,4518.333496,4413.974121,4480.512695,0.000000,4.000000,80.000000,,,,0.000000,4.000000,4.000000,4.000000,4.000000,4.000000,4.000000,4.000000,4.000000,4.000000,4.000000,4.000000,4.000000,4.000000,4.000000,100.000000,,,,,,,,,,,,,,,,,,,,,,,,,,,,,,,,,,,,,,,,,,,,,,,,,,,,,,,,,,,,,,,,,,,,,,,,,,,,,,,,,,,,,,,,,,,,,,,,,,,,,,,,,,,,,,,,,,,,,,,,,,,,,,,,,
1649446447.149902,1649446447.150655,52.000000,0.000000,4400.128418,4343.205078,4381.538574,4363.974121,4338.461426,4332.307617,4327.563965,4322.563965,4323.461426,4291.410156,4510.256348,4511.538574,4408.077148,4476.922852,0.000000,4.000000,80.000000,,,,0.000000,4.000000,4.000000,4.000000,4.000000,4.000000,4.000000,4.000000,4.000000,4.000000,4.000000,4.000000,4.000000,4.000000,4.000000,100.000000,,,,,,,,,,,,,,,,,13.000000,0.000000,0.578553,0.442078,-0.553345,0.404541,0.999634,0.052741,-0.004395,-33.178398,6.751259,35.993103,,,,,,,,,,,,,,,,,,,,,,,,,,,,,,,,,,,,,,,,,,,,,,,,,,,,,,,,,,,,,,,,,,,,,,,,,,,,,,,,,,,,,,,,,,,,,,,,,,,,,
1649446447.157710,1649446447.158563,53.000000,0.000000,4398.589844,4350.000000,4382.051270,4363.333496,4337.436035,4334.871582,4340.256348,4323.077148,4324.615234,4298.846191,4505.512695,4501.153809,4398.077148,4467.563965,0.000000,4.000000,80.000000,,,,0.000000,4.000000,4.000000,4.000000,4.000000,4.000000,4.000000,4.000000,4.000000,4.000000,4.000000,4.000000,4.000000,4.000000,4.000000,100.000000,,,,,,,,,,,,,,,,,,,,,,,,,,,,,,,,,,,,,,,,,,,,,,,,,,,,,,,,,,,,,,,,,,,,,,,,,,,,,,,,,,,,,,,,,,,,,,,,,,,,,,,,,,,,,,,,,,,,,,,,,,,,,,,,,
1649446447.165519,1649446447.166371,54.000000,0.000000,4398.333496,4358.077148,4381.922852,4370.000000,4337.692383,4335.000000,4334.102539,4320.641113,4323.717773,4307.051270,4503.333496,4500.384766,4405.256348,4468.589844,0.000000,4.000000,80.000000,,,,0.000000,4.000000,4.000000,4.000000,4.000000,4.000000,4.000000,4.000000,4.000000,4.000000,4.000000,4.000000,4.000000,4.000000,4.000000,100.000000,,,,,,,,,,,,,,,,,,,,,,,,,,,,,,,,,,,,,,,,,,,,,,,,,,,,,,,,,,,,,,,,,,,,,,,,,,,,,,,,,,,,,,,,,,,,,,,,,,,,,,,,,,,,,,,,,,,,,,,,,,,,,,,,,
1649446447.173327,1649446447.174080,55.000000,0.000000,4398.077148,4351.282227,4385.641113,4367.436035,4341.794922,4334.358887,4322.307617,4327.307617,4327.563965,4307.820313,4507.051270,4509.230957,4406.794922,4473.717773,0.000000,4.000000,80.000000,,,,0.000000,4.000000,4.000000,4.000000,4.000000,4.000000,4.000000,4.000000,4.000000,4.000000,4.000000,4.000000,4.000000,4.000000,4.000000,100.000000,,,,,,,,,,,,,,,,,,,,,,,,,,,,,,,,,,,,,,,,,,,,,,,,,,,,,,,,,,,,,,,,,,,,,,,,,,,,,,,,,,,,,,,,,,,,,,,,,,,,,,,,,,,,,,,,,,,,,,,,,,,,,,,,,
1649446447.181136,1649446447.181888,56.000000,0.000000,4397.563965,4340.512695,4383.589844,4356.282227,4340.641113,4331.922852,4324.230957,4328.717773,4329.230957,4303.846191,4507.563965,4511.666504,4396.153809,4468.717773,0.000000,4.000000,80.000000,,,,0.000000,4.000000,4.000000,4.000000,4.000000,4.000000,4.000000,4.000000,4.000000,4.000000,4.000000,4.000000,4.000000,4.000000,4.000000,100.000000,,,,,,,,,,,,,,,,,14.000000,0.000000,0.578533,0.442139,-0.553406,0.404419,0.984495,0.056159,0.007325,-33.243893,6.826133,36.160461,,,,,,,,,,,,,,,,,,,,,,,,,,,,,,,,,,,,,,,,,,,,,,,,,,,,,,,,,,,,,,,,,,,,,,,,,,,,,,,,,,,,,,,,,,,,,,,,,,,,,
1649446447.188944,1649446447.189597,57.000000,0.000000,4393.077148,4343.589844,4372.948730,4358.846191,4335.769043,4325.641113,4326.538574,4313.077148,4318.974121,4296.794922,4500.000000,4502.051270,4395.769043,4460.128418,0.000000,4.000000,80.000000,,,,0.000000,4.000000,4.000000,4.000000,4.000000,4.000000,4.000000,4.000000,4.000000,4.000000,4.000000,4.000000,4.000000,4.000000,4.000000,100.000000,,,,,,,,,,,,,,,,,,,,,,,,,,,,,,,,,,,,,,,,,,,,,,,,,,,,,,,,,,,,,,,,,,,,,,,,,,,,,,,,,,,,,,,,,,,,,,,,,,,,,,,,,,,,,,,,,,,,,,,,,,,,,,,,,
1649446447.196752,1649446447.197405,58.000000,0.000000,4385.256348,4352.051270,4368.077148,4367.820313,4336.794922,4327.820313,4325.641113,4308.333496,4312.563965,4293.717773,4499.358887,4493.461426,4402.948730,4459.102539,0.000000,4.000000,80.000000,,,,0.000000,4.000000,4.000000,4.000000,4.000000,4.000000,4.000000,4.000000,4.000000,4.000000,4.000000,4.000000,4.000000,4.000000,4.000000,100.000000,,,,,,,,,,,,,,,,,,,,,,,,,,,,,,,,,,,,,,,,,,,,,,,,,,,,,,,,,,,,,,,,,,,,,,,,,,,,,,,,,,,,,,,,,,,,,,,,,,,,,,,,,,,,,,,,,,,,,,,,,,,,,,,,,
1649446447.204561,1649446447.205114,59.000000,0.000000,4380.641113,4350.641113,4369.358887,4362.692383,4338.974121,4332.692383,4328.333496,4318.846191,4317.820313,4294.487305,4503.333496,4494.615234,4398.589844,4461.153809,0.000000,4.000000,80.000000,,,,0.000000,4.000000,4.000000,4.000000,4.000000,4.000000,4.000000,4.000000,4.000000,4.000000,4.000000,4.000000,4.000000,4.000000,4.000000,100.000000,1.000000,100.000000,4.000000,4.000000,4.000000,4.000000,4.000000,4.000000,4.000000,4.000000,4.000000,4.000000,4.000000,4.000000,4.000000,4.000000,,,,,,,,,,,,,,,,,,,,,,,,,,,,,,,,,,,,,,,,,,,,0.561704,0.479555,0.725126,0.309055,0.231804,0.393519,0.419299,0.577641,0.144679,0.204583,0.794609,0.414055,0.521191,0.145842,0.139340,0.434081,0.349116,0.180156,0.276734,0.492346,0.539203,0.352570,0.178026,0.122583,0.147301,0.552570,0.199034,0.161605,0.164619,0.258826,0.729015,0.348100,0.191908,0.180245,0.288976,0.740946,0.136150,0.329638,0.168477,0.157199,0.869133,0.294191,0.265511,0.174867,0.174334,1.206632,0.575665,0.702807,0.355944,0.320542,1.202909,0.880730,0.995056,0.567664,0.356644,1.255395,0.640406,0.851543,0.243334,0.293122,1.318482,1.146308,1.127678,0.389478,0.373645,0.785814,0.598419,0.723536,0.195822,0.212462
1649446447.212369,1649446447.212922,60.000000,0.000000,4383.333496,4349.743652,4368.717773,4353.589844,4338.077148,4328.589844,4328.589844,4318.077148,4321.922852,4293.333496,4498.205078,4495.256348,4395.384766,4457.179688,0.000000,4.000000,80.000000,,,,0.000000,4.000000,4.000000,4.000000,4.000000,4.000000,4.000000,4.000000,4.000000,4.000000,4.000000,4.000000,4.000000,4.000000,4.000000,100.000000,,,,,,,,,,,,,,,,,15.000000,0.000000,0.578662,0.442200,-0.553223,0.404419,1.000122,0.042974,-0.005860,-33.019501,6.893520,36.144413,,,,,,,,,,,,,,,,,,,,,,,,,,,,,,,,,,,,,,,,,,,,,,,,,,,,,,,,,,,,,,,,,,,,,,,,,,,,,,,,,,,,,,,,,,,,,,,,,,,,,
1649446447.220178,1649446447.220631,61.000000,0.000000,4384.358887,4350.897461,4367.307617,4356.410156,4334.743652,4325.384766,4325.384766,4310.128418,4317.820313,4292.563965,4489.743652,4489.871582,4394.743652,4451.538574,0.000000,4.000000,80.000000,,,,0.000000,4.000000,4.000000,4.000000,4.000000,4.000000,4.000000,4.000000,4.000000,4.000000,4.000000,4.000000,4.000000,4.000000,4.000000,100.000000,,,,,,,,,,,,,,,,,,,,,,,,,,,,,,,,,,,,,,,,,,,,,,,,,,,,,,,,,,,,,,,,,,,,,,,,,,,,,,,,,,,,,,,,,,,,,,,,,,,,,,,,,,,,,,,,,,,,,,,,,,,,,,,,,
1649446447.227986,1649446447.228439,62.000000,0.000000,4376.922852,4345.897461,4366.282227,4362.051270,4336.153809,4327.051270,4325.897461,4313.333496,4313.974121,4295.128418,4486.410156,4484.615234,4385.897461,4447.948730,0.000000,4.000000,80.000000,,,,0.000000,4.000000,4.000000,4.000000,4.000000,4.000000,4.000000,4.000000,4.000000,4.000000,4.000000,4.000000,4.000000,4.000000,4.000000,100.000000,,,,,,,,,,,,,,,,,,,,,,,,,,,,,,,,,,,,,,,,,,,,,,,,,,,,,,,,,,,,,,,,,,,,,,,,,,,,,,,,,,,,,,,,,,,,,,,,,,,,,,,,,,,,,,,,,,,,,,,,,,,,,,,,,
1649446447.235795,1649446447.236148,63.000000,0.000000,4366.922852,4342.692383,4358.461426,4356.153809,4341.025879,4325.256348,4326.153809,4313.205078,4312.692383,4290.641113,4479.230957,4477.307617,4371.538574,4442.051270,0.000000,4.000000,80.000000,,,,0.000000,4.000000,4.000000,4.000000,4.000000,4.000000,4.000000,4.000000,4.000000,4.000000,4.000000,4.000000,4.000000,4.000000,4.000000,100.000000,,,,,,,,,,,,,,,,,,,,,,,,,,,,,,,,,,,,,,,,,,,,,,,,,,,,,,,,,,,,,,,,,,,,,,,,,,,,,,,,,,,,,,,,,,,,,,,,,,,,,,,,,,,,,,,,,,,,,,,,,,,,,,,,,
1649446447.243603,1649446447.244056,64.000000,0.000000,4363.333496,4338.333496,4347.692383,4340.897461,4335.000000,4322.179688,4325.128418,4311.153809,4312.179688,4281.666504,4466.153809,4465.769043,4364.230957,4430.384766,2289.000000,4.000000,80.000000,,,,0.000000,4.000000,4.000000,4.000000,4.000000,4.000000,4.000000,4.000000,4.000000,4.000000,4.000000,4.000000,4.000000,4.000000,4.000000,100.000000,,,,,,,,,,,,,,,,,16.000000,0.000000,0.578666,0.442139,-0.553223,0.404480,0.988890,0.041021,0.002442,-33.150887,6.870834,36.096638,,,,,,,,,,,,,,,,,,,,,,,,,,,,,,,,,,,,,,,,,,,,,,,,,,,,,,,,,,,,,,,,,,,,,,,,,,,,,,,,,,,,,,,,,,,,,,,,,,,,,
1649446447.251411,1649446447.251865,65.000000,0.000000,4365.897461,4333.974121,4346.794922,4334.230957,4324.230957,4324.487305,4324.230957,4318.333496,4314.615234,4281.922852,4471.025879,4466.025879,4370.256348,4422.436035,2461.000000,4.000000,80.000000,,,,0.000000,4.000000,4.000000,4.000000,4.000000,4.000000,4.000000,4.000000,4.000000,4.000000,4.000000,4.000000,4.000000,4.000000,4.000000,100.000000,,,,,,,,,,,,,,,,,,,,,,,,,,,,,,,,,,,,,,,,,,,,,,,,,,,,,,,,,,,,,,,,,,,,,,,,,,,,,,,,,,,,,,,,,,,,,,,,,,,,,,,,,,,,,,,,,,,,,,,,,,,,,,,,,
1649446447.259220,1649446447.259673,66.000000,0.000000,4366.666504,4339.358887,4347.307617,4341.282227,4328.077148,4324.358887,4324.615234,4322.436035,4318.974121,4280.384766,4482.948730,4474.487305,4369.615234,4428.077148,2424.000000,4.000000,80.000000,,,,0.000000,4.000000,4.000000,4.000000,4.000000,4.000000,4.000000,4.000000,4.000000,4.000000,4.000000,4.000000,4.000000,4.000000,4.000000,100.000000,,,,,,,,,,,,,,,,,,,,,,,,,,,,,,,,,,,,,,,,,,,,,,,,,,,,,,,,,,,,,,,,,,,,,,,,,,,,,,,,,,,,,,,,,,,,,,,,,,,,,,,,,,,,,,,,,,,,,,,,,,,,,,,,,
1649446447.267028,1649446447.267382,67.000000,0.000000,4365.641113,4342.692383,4345.000000,4346.025879,4334.743652,4319.871582,4329.102539,4320.769043,4319.615234,4281.282227,4477.051270,4474.230957,4364.487305,4432.563965,2419.000000,4.000000,80.000000,,,,0.000000,4.000000,4.000000,4.000000,4.000000,4.000000,4.000000,4.000000,4.000000,4.000000,4.000000,4.000000,4.000000,4.000000,4.000000,100.000000,,,,,,,,,,,,,,,,,,,,,,,,,,,,,,,,,,,,,,,,,,,,,,,,,,,,,,,,,,,,,,,,,,,,,,,,,,,,,,,,,,,,,,,,,,,,,,,,,,,,,,,,,,,,,,,,,,,,,,,,,,,,,,,,,
1649446447.274837,1649446447.275290,68.000000,0.000000,4362.692383,4339.358887,4348.846191,4345.897461,4327.820313,4320.384766,4334.230957,4320.897461,4314.615234,4294.487305,4471.666504,4471.153809,4376.666504,4429.743652,2423.000000,4.000000,80.000000,,,,0.000000,4.000000,4.000000,4.000000,4.000000,4.000000,4.000000,4.000000,4.000000,4.000000,4.000000,4.000000,4.000000,4.000000,4.000000,100.000000,,,,,,,,,,,,,,,,,17.000000,0.000000,0.578510,0.442078,-0.553345,0.404602,0.978635,0.048834,0.002930,-33.052464,6.817084,36.170307,,,,,,,,,,,,,,,,,,,,,,,,,,,,,,,,,,,,,,,,,,,,,,,,,,,,,,,,,,,,,,,,,,,,,,,,,,,,,,,,,,,,,,,,,,,,,,,,,,,,,
1649446447.282645,1649446447.283099,69.000000,0.000000,4355.128418,4340.897461,4354.230957,4350.897461,4324.871582,4325.000000,4334.230957,4322.051270,4314.487305,4296.538574,4479.230957,4474.615234,4385.641113,4433.205078,2155.000000,4.000000,80.000000,,,,0.000000,4.000000,4.000000,4.000000,4.000000,4.000000,4.000000,4.000000,4.000000,4.000000,4.000000,4.000000,4.000000,4.000000,4.000000,100.000000,,,,,,,,,,,,,,,,,,,,,,,,,,,,,,,,,,,,,,,,,,,,,,,,,,,,,,,,,,,,,,,,,,,,,,,,,,,,,,,,,,,,,,,,,,,,,,,,,,,,,,,,,,,,,,,,,,,,,,,,,,,,,,,,,
1649446447.290454,1649446447.291007,70.000000,0.000000,4353.974121,4343.461426,4349.102539,4356.922852,4329.230957,4326.282227,4334.230957,4324.743652,4322.179688,4286.025879,4475.641113,4477.563965,4371.666504,4441.666504,2242.000000,4.000000,80.000000,,,,0.000000,4.000000,4.000000,4.000000,4.000000,4.000000,4.000000,4.000000,4.000000,4.000000,4.000000,4.000000,4.000000,4.000000,4.000000,100.000000,,,,,,,,,,,,,,,,,,,,,,,,,,,,,,,,,,,,,,,,,,,,,,,,,,,,,,,,,,,,,,,,,,,,,,,,,,,,,,,,,,,,,,,,,,,,,,,,,,,,,,,,,,,,,,,,,,,,,,,,,,,,,,,,,
1649446447.298262,1649446447.298815,71.000000,0.000000,4363.205078,4340.769043,4344.615234,4355.641113,4328.717773,4327.948730,4338.205078,4330.512695,4326.153809,4282.692383,4474.615234,4476.153809,4369.615234,4443.846191,2034.000000,4.000000,80.000000,,,,0.000000,4.000000,4.000000,4.000000,4.000000,4.000000,4.000000,4.000000,4.000000,4.000000,4.000000,4.000000,4.000000,4.000000,4.000000,100.000000,,,,,,,,,,,,,,,,,,,,,,,,,,,,,,,,,,,,,,,,,,,,,,,,,,,,,,,,,,,,,,,,,,,,,,,,,,,,,,,,,,,,,,,,,,,,,,,,,,,,,,,,,,,,,,,,,,,,,,,,,,,,,,,,,
1649446447.306070,1649446447.306724,72.000000,0.000000,4370.897461,4342.948730,4348.589844,4351.025879,4326.153809,4330.512695,4336.410156,4330.256348,4323.205078,4287.436035,4490.512695,4477.692383,4387.820313,4440.128418,1960.000000,4.000000,80.000000,,,,0.000000,4.000000,4.000000,4.000000,4.000000,4.000000,4.000000,4.000000,4.000000,4.000000,4.000000,4.000000,4.000000,4.000000,4.000000,100.000000,,,,,,,,,,,,,,,,,18.000000,0.000000,0.578526,0.441772,-0.553528,0.404663,0.992797,0.034672,-0.010255,-33.213882,6.835376,36.236610,,,,,,,,,,,,,,,,,,,,,,,,,,,,,,,,,,,,,,,,,,,,,,,,,,,,,,,,,,,,,,,,,,,,,,,,,,,,,,,,,,,,,,,,,,,,,,,,,,,,,
1649446447.313879,1649446447.314532,73.000000,0.000000,4365.384766,4343.974121,4347.307617,4349.102539,4325.384766,4326.538574,4327.307617,4323.717773,4322.179688,4286.025879,4486.538574,4478.333496,4382.563965,4440.769043,2439.000000,4.000000,80.000000,,,,0.000000,4.000000,4.000000,4.000000,4.000000,4.000000,4.000000,4.000000,4.000000,4.000000,4.000000,4.000000,4.000000,4.000000,4.000000,100.000000,,,,,,,,,,,,,,,,,,,,,,,,,,,,,,,,,,,,,,,,,,,,,,,,,,,,,,,,,,,,,,,,,,,,,,,,,,,,,,,,,,,,,,,,,,,,,,,,,,,,,,,,,,,,,,,,,,,,,,,,,,,,,,,,,
1649446447.321687,1649446447.322440,74.000000,0.000000,4358.461426,4341.153809,4342.948730,4351.410156,4325.897461,4321.538574,4325.641113,4322.307617,4322.179688,4284.743652,4473.205078,4474.358887,4370.256348,4445.000000,2728.000000,4.000000,80.000000,,,,0.000000,4.000000,4.000000,4.000000,4.000000,4.000000,4.000000,4.000000,4.000000,4.000000,4.000000,4.000000,4.000000,4.000000,4.000000,100.000000,,,,,,,,,,,,,,,,,,,,,,,,,,,,,,,,,,,,,,,,,,,,,,,,,,,,,,,,,,,,,,,,,,,,,,,,,,,,,,,,,,,,,,,,,,,,,,,,,,,,,,,,,,,,,,,,,,,,,,,,,,,,,,,,,
1649446447.329496,1649446447.330249,75.000000,0.000000,4361.410156,4344.487305,4348.846191,4351.282227,4328.077148,4324.358887,4328.205078,4324.743652,4319.743652,4289.743652,4487.563965,4479.871582,4382.179688,4445.384766,2803.000000,4.000000,80.000000,,,,0.000000,4.000000,4.000000,4.000000,4.000000,4.000000,4.000000,4.000000,4.000000,4.000000,4.000000,4.000000,4.000000,4.000000,4.000000,100.000000,,,,,,,,,,,,,,,,,,,,,,,,,,,,,,,,,,,,,,,,,,,,,,,,,,,,,,,,,,,,0.491568,0.504146,0.652549,0.292011,0.238750,0.416632,0.407319,0.479046,0.162441,0.207671,0.859513,0.440382,0.468807,0.137839,0.131394,0.476373,0.390901,0.147299,0.291305,0.527227,0.535421,0.418311,0.189756,0.122389,0.147516,0.407186,0.233644,0.151844,0.164023,0.257928,0.609337,0.425914,0.224525,0.173999,0.316382,0.639705,0.187101,0.353575,0.178861,0.157747,0.626123,0.360719,0.279809,0.175677,0.171255,0.945892,0.587226,0.641827,0.342391,0.304865,1.029038,0.860074,0.872056,0.586474,0.344051,1.005933,0.806996,0.707588,0.220226,0.320396,1.087885,1.019067,0.895218,0.420344,0.313356,0.645469,0.689681,0.660649,0.199970,0.227544
1649446447.337304,1649446447.338157,76.000000,0.000000,4366.538574,4350.641113,4358.461426,4354.102539,4329.230957,4327.307617,4325.769043,4326.025879,4318.717773,4291.025879,4497.948730,4495.000000,4392.307617,4447.436035,3064.000000,4.000000,80.000000,,,,0.000000,4.000000,4.000000,4.000000,4.000000,4.000000,4.000000,4.000000,4.000000,4.000000,4.000000,4.000000,4.000000,4.000000,4.000000,100.000000,,,,,,,,,,,,,,,,,19.000000,0.000000,0.578684,0.441467,-0.553650,0.404602,0.998169,0.057624,-0.004395,-33.209164,6.885172,36.162949,,,,,,,,,,,,,,,,,,,,,,,,,,,,,,,,,,,,,,,,,,,,,,,,,,,,,,,,,,,,,,,,,,,,,,,,,,,,,,,,,,,,,,,,,,,,,,,,,,,,,
1649446447.345113,1649446447.345966,77.000000,0.000000,4368.461426,4353.205078,4356.538574,4363.589844,4329.230957,4325.769043,4323.461426,4325.769043,4323.333496,4291.410156,4484.102539,4497.692383,4385.000000,4455.256348,2947.000000,4.000000,80.000000,,,,0.000000,4.000000,4.000000,4.000000,4.000000,4.000000,4.000000,4.000000,4.000000,4.000000,4.000000,4.000000,4.000000,4.000000,4.000000,100.000000,,,,,,,,,,,,,,,,,,,,,,,,,,,,,,,,,,,,,,,,,,,,,,,,,,,,,,,,,,,,,,,,,,,,,,,,,,,,,,,,,,,,,,,,,,,,,,,,,,,,,,,,,,,,,,,,,,,,,,,,,,,,,,,,,
1649446447.352921,1649446447.353674,78.000000,0.000000,4366.794922,4351.153809,4348.846191,4361.410156,4328.333496,4323.333496,4326.410156,4326.282227,4326.410156,4294.102539,4482.563965,4487.692383,4386.025879,4462.307617,2728.000000,4.000000,80.000000,,,,0.000000,4.000000,4.000000,4.000000,4.000000,4.000000,4.000000,4.000000,4.000000,4.000000,4.000000,4.000000,4.000000,4.000000,4.000000,100.000000,,,,,,,,,,,,,,,,,,,,,,,,,,,,,,,,,,,,,,,,,,,,,,,,,,,,,,,,,,,,,,,,,,,,,,,,,,,,,,,,,,,,,,,,,,,,,,,,,,,,,,,,,,,,,,,,,,,,,,,,,,,,,,,,,
1649446447.360730,1649446447.361483,79.000000,0.000000,4362.948730,4343.589844,4345.769043,4351.538574,4325.769043,4323.974121,4325.641113,4324.487305,4322.051270,4295.128418,4495.384766,4486.794922,4395.512695,4457.820313,2803.000000,4.000000,80.000000,,,,0.000000,4.000000,4.000000,4.000000,4.000000,4.000000,4.000000,4.000000,4.000000,4.000000,4.000000,4.000000,4.000000,4.000000,4.000000,100.000000,,,,,,,,,,,,,,,,,,,,,,,,,,,,,,,,,,,,,,,,,,,,,,,,,,,,,,,,,,,,,,,,,,,,,,,,,,,,,,,,,,,,,,,,,,,,,,,,,,,,,,,,,,,,,,,,,,,,,,,,,,,,,,,,,
1649446447.368538,1649446447.369191,80.000000,0.000000,4361.538574,4338.846191,4345.512695,4353.589844,4323.205078,4326.282227,4319.358887,4321.794922,4317.820313,4293.077148,4488.205078,4490.000000,4388.589844,4448.974121,3064.000000,4.000000,80.000000,,,,0.000000,4.000000,4.000000,4.000000,4.000000,4.000000,4.000000,4.000000,4.000000,4.000000,4.000000,4.000000,4.000000,4.000000,4.000000,100.000000,,,,,,,,,,,,,,,,,20.000000,0.000000,0.578695,0.441223,-0.553833,0.404602,1.005005,0.051764,0.005372,-33.071579,6.746655,36.113323,,,,,,,,,,,,,,,,,,,,,,,,,,,,,,,,,,,,,,,,,,,,,,,,,,,,,,,,,,,,,,,,,,,,,,,,,,,,,,,,,,,,,,,,,,,,,,,,,,,,,
1649446447.376346,1649446447.377000,81.000000,0.000000,4367.307617,4347.051270,4348.717773,4359.230957,4326.282227,4325.641113,4320.384766,4323.974121,4320.641113,4293.205078,4477.436035,4490.000000,4388.974121,4452.051270,2947.000000,4.000000,80.000000,,,,0.000000,4.000000,4.000000,4.000000,4.000000,4.000000,4.000000,4.000000,4.000000,4.000000,4.000000,4.000000,4.000000,4.000000,4.000000,100.000000,,,,,,,,,,,,,,,,,,,,,,,,,,,,,,,,,,,,,,,,,,,,,,,,,,,,,,,,,,,,,,,,,,,,,,,,,,,,,,,,,,,,,,,,,,,,,,,,,,,,,,,,,,,,,,,,,,,,,,,,,,,,,,,,,
1649446447.384155,1649446447.384708,82.000000,0.000000,4372.307617,4352.948730,4355.769043,4357.307617,4336.666504,4328.077148,4331.538574,4332.563965,4328.205078,4298.589844,4493.974121,4502.051270,4404.615234,4461.538574,2728.000000,4.000000,80.000000,,,,0.000000,4.000000,4.000000,4.000000,4.000000,4.000000,4.000000,4.000000,4.000000,4.000000,4.000000,4.000000,4.000000,4.000000,4.000000,100.000000,,,,,,,,,,,,,,,,,,,,,,,,,,,,,,,,,,,,,,,,,,,,,,,,,,,,,,,,,,,,,,,,,,,,,,,,,,,,,,,,,,,,,,,,,,,,,,,,,,,,,,,,,,,,,,,,,,,,,,,,,,,,,,,,,
1649446447.391963,1649446447.392517,83.000000,0.000000,4367.051270,4344.743652,4357.692383,4361.922852,4342.307617,4334.615234,4335.897461,4336.410156,4327.948730,4299.615234,4509.230957,4510.256348,4401.410156,4464.358887,2803.000000,4.000000,80.000000,,,,0.000000,4.000000,4.000000,4.000000,4.000000,4.000000,4.000000,4.000000,4.000000,4.000000,4.000000,4.000000,4.000000,4.000000,4.000000,100.000000,,,,,,,,,,,,,,,,,,,,,,,,,,,,,,,,,,,,,,,,,,,,,,,,,,,,,,,,,,,,,,,,,,,,,,,,,,,,,,,,,,,,,,,,,,,,,,,,,,,,,,,,,,,,,,,,,,,,,,,,,,,,,,,,,
1649446447.399772,1649446447.400225,84.000000,0.000000,4361.282227,4342.820313,4353.077148,4367.692383,4334.230957,4332.563965,4328.589844,4329.358887,4318.589844,4295.128418,4495.128418,4497.179688,4390.641113,4457.820313,3064.000000,4.000000,80.000000,,,,0.000000,4.000000,4.000000,4.000000,4.000000,4.000000,4.000000,4.000000,4.000000,4.000000,4.000000,4.000000,4.000000,4.000000,4.000000,100.000000,,,,,,,,,,,,,,,,,21.000000,0.000000,0.578407,0.440918,-0.554199,0.404846,0.980100,0.044439,-0.005860,-33.031090,6.905323,36.235321,,,,,,,,,,,,,,,,,,,,,,,,,,,,,,,,,,,,,,,,,,,,,,,,,,,,,,,,,,,,,,,,,,,,,,,,,,,,,,,,,,,,,,,,,,,,,,,,,,,,,
1649446447.407580,1649446447.408034,85.000000,0.000000,4356.666504,4352.051270,4345.769043,4362.563965,4327.436035,4326.666504,4324.102539,4326.282227,4316.922852,4288.205078,4487.051270,4484.615234,4398.077148,4449.102539,2947.000000,4.000000,80.000000,,,,0.000000,4.000000,4.000000,4.000000,4.000000,4.000000,4.000000,4.000000,4.000000,4.000000,4.000000,4.000000,4.000000,4.000000,4.000000,100.000000,,,,,,,,,,,,,,,,,,,,,,,,,,,,,,,,,,,,,,,,,,,,,,,,,,,,,,,,,,,,,,,,,,,,,,,,,,,,,,,,,,,,,,,,,,,,,,,,,,,,,,,,,,,,,,,,,,,,,,,,,,,,,,,,,
1649446447.415389,1649446447.415742,86.000000,0.000000,4346.666504,4351.922852,4338.846191,4355.512695,4332.179688,4325.000000,4323.846191,4326.922852,4321.922852,4286.410156,4492.436035,4483.333496,4401.666504,4441.538574,2728.000000,4.000000,80.000000,,,,0.000000,4.000000,4.000000,4.000000,4.000000,4.000000,4.000000,4.000000,4.000000,4.000000,4.000000,4.000000,4.000000,4.000000,4.000000,100.000000,,,,,,,,,,,,,,,,,,,,,,,,,,,,,,,,,,,,,,,,,,,,,,,,,,,,,,,,,,,,,,,,,,,,,,,,,,,,,,,,,,,,,,,,,,,,,,,,,,,,,,,,,,,,,,,,,,,,,,,,,,,,,,,,,
1649446447.423197,1649446447.423651,87.000000,0.000000,4330.897461,4336.794922,4327.692383,4347.948730,4329.230957,4320.256348,4320.897461,4318.461426,4316.282227,4283.461426,4476.922852,4467.051270,4383.717773,4423.461426,2803.000000,4.000000,80.000000,,,,0.000000,4.000000,4.000000,4.000000,4.000000,4.000000,4.000000,4.000000,4.000000,4.000000,4.000000,4.000000,4.000000,4.000000,4.000000,100.000000,,,,,,,,,,,,,,,,,,,,,,,,,,,,,,,,,,,,,,,,,,,,,,,,,,,,,,,,,,,,,,,,,,,,,,,,,,,,,,,,,,,,,,,,,,,,,,,,,,,,,,,,,,,,,,,,,,,,,,,,,,,,,,,,,
1649446447.431006,1649446447.431459,88.000000,0.000000,4316.794922,4327.307617,4315.512695,4338.077148,4315.769043,4311.666504,4314.487305,4308.205078,4303.077148,4279.487305,4456.666504,4441.794922,4370.897461,4397.179688,3064.000000,4.000000,80.000000,,,,0.000000,4.000000,4.000000,4.000000,4.000000,4.000000,4.000000,4.000000,4.000000,4.000000,4.000000,4.000000,4.000000,4.000000,4.000000,100.000000,,,,,,,,,,,,,,,,,22.000000,0.000000,0.577907,0.440735,-0.554688,0.405090,0.995727,0.046881,-0.002442,-33.161312,6.881457,36.178455,,,,,,,,,,,,,,,,,,,,,,,,,,,,,,,,,,,,,,,,,,,,,,,,,,,,,,,,,,,,,,,,,,,,,,,,,,,,,,,,,,,,,,,,,,,,,,,,,,,,,
1649446447.438814,1649446447.439267,89.000000,0.000000,4304.871582,4328.461426,4311.153809,4328.717773,4314.487305,4309.871582,4303.717773,4308.717773,4302.051270,4281.282227,4452.436035,4432.563965,4367.563965,4383.205078,2947.000000,4.000000,80.000000,,,,0.000000,4.000000,4.000000,4.000000,4.000000,4.000000,4.000000,4.000000,4.000000,4.000000,4.000000,4.000000,4.000000,4.000000,4.000000,100.000000,,,,,,,,,,,,,,,,,,,,,,,,,,,,,,,,,,,,,,,,,,,,,,,,,,,,,,,,,,,,,,,,,,,,,,,,,,,,,,,,,,,,,,,,,,,,,,,,,,,,,,,,,,,,,,,,,,,,,,,,,,,,,,,,,
1649446447.446622,1649446447.446976,90.000000,0.000000,4294.871582,4321.410156,4309.871582,4327.436035,4321.794922,4311.794922,4300.769043,4311.538574,4305.384766,4281.922852,4451.282227,4436.282227,4366.410156,4383.461426,2728.000000,4.000000,80.000000,,,,0.000000,4.000000,4.000000,4.000000,4.000000,4.000000,4.000000,4.000000,4.000000,4.000000,4.000000,4.000000,4.000000,4.000000,4.000000,100.000000,,,,,,,,,,,,,,,,,,,,,,,,,,,,,,,,,,,,,,,,,,,,,,,,,,,,,,,,,,,,,,,,,,,,,,,,,,,,,,,,,,,,,,,,,,,,,,,,,,,,,,,,,,,,,,,,,,,,,,,,,,,,,,,,,
1649446447.454431,1649446447.454884,91.000000,0.000000,4289.230957,4308.333496,4301.794922,4323.846191,4318.974121,4310.128418,4309.487305,4309.230957,4301.922852,4277.563965,4447.820313,4437.179688,4366.666504,4377.692383,2803.000000,4.000000,80.000000,,,,0.000000,4.000000,4.000000,4.000000,4.000000,4.000000,4.000000,4.000000,4.000000,4.000000,4.000000,4.000000,4.000000,4.000000,4.000000,100.000000,,,,,,,,,,,,,,,,,,,,,,,,,,,,,,,,,,,,,,,,,,,,,,,,,,,,,,,,,,,,0.570368,0.533384,0.554175,0.264891,0.242684,0.472459,0.412658,0.388415,0.190919,0.218302,0.966268,0.450479,0.386280,0.138987,0.127162,0.525197,0.449935,0.130145,0.311013,0.548025,0.515934,0.471499,0.213132,0.129177,0.142871,0.273095,0.271083,0.133355,0.160480,0.248849,0.504487,0.486198,0.246579,0.184286,0.347759,0.534881,0.265492,0.364629,0.189665,0.159100,0.406975,0.453673,0.285738,0.184886,0.165577,0.689036,0.644624,0.605345,0.349892,0.288569,0.900938,0.901392,0.720855,0.588075,0.334527,0.925132,1.067768,0.551014,0.210457,0.340321,0.871735,0.913778,0.664154,0.443168,0.266618,0.730017,0.836606,0.552425,0.225653,0.242292
1649446447.462239,1649446447.462693,92.000000,0.000000,4283.589844,4308.461426,4296.666504,4314.615234,4316.025879,4311.922852,4311.794922,4307.307617,4300.897461,4274.230957,4446.410156,4433.717773,4361.025879,4370.769043,3064.000000,4.000000,80.000000,,,,0.000000,4.000000,4.000000,4.000000,4.000000,4.000000,4.000000,4.000000,4.000000,4.000000,4.000000,4.000000,4.000000,4.000000,4.000000,100.000000,,,,,,,,,,,,,,,,,23.000000,0.000000,0.577536,0.440613,-0.554993,0.405334,0.988890,0.043462,0.003907,-33.111847,6.776645,36.077278,,,,,,,,,,,,,,,,,,,,,,,,,,,,,,,,,,,,,,,,,,,,,,,,,,,,,,,,,,,,,,,,,,,,,,,,,,,,,,,,,,,,,,,,,,,,,,,,,,,,,
1649446447.470048,1649446447.470601,93.000000,0.000000,4276.025879,4310.897461,4300.000000,4313.077148,4320.128418,4312.307617,4307.820313,4308.717773,4302.307617,4280.256348,4447.307617,4433.333496,4356.666504,4369.743652,2947.000000,4.000000,80.000000,,,,0.000000,4.000000,4.000000,4.000000,4.000000,4.000000,4.000000,4.000000,4.000000,4.000000,4.000000,4.000000,4.000000,4.000000,4.000000,100.000000,,,,,,,,,,,,,,,,,,,,,,,,,,,,,,,,,,,,,,,,,,,,,,,,,,,,,,,,,,,,,,,,,,,,,,,,,,,,,,,,,,,,,,,,,,,,,,,,,,,,,,,,,,,,,,,,,,,,,,,,,,,,,,,,,
1649446447.477856,1649446447.478410,94.000000,0.000000,4263.461426,4301.282227,4297.051270,4314.230957,4316.666504,4306.153809,4310.897461,4310.256348,4299.358887,4281.153809,4444.871582,4435.128418,4356.538574,4362.436035,2728.000000,4.000000,80.000000,,,,0.000000,4.000000,4.000000,4.000000,4.000000,4.000000,4.000000,4.000000,4.000000,4.000000,4.000000,4.000000,4.000000,4.000000,4.000000,100.000000,,,,,,,,,,,,,,,,,,,,,,,,,,,,,,,,,,,,,,,,,,,,,,,,,,,,,,,,,,,,,,,,,,,,,,,,,,,,,,,,,,,,,,,,,,,,,,,,,,,,,,,,,,,,,,,,,,,,,,,,,,,,,,,,,
1649446447.485664,1649446447.486318,95.000000,0.000000,4249.743652,4292.563965,4286.666504,4308.205078,4307.948730,4304.102539,4312.179688,4306.538574,4294.871582,4267.692383,4440.256348,4423.974121,4347.820313,4348.205078,2803.000000,4.000000,80.000000,,,,0.000000,4.000000,4.000000,4.000000,4.000000,4.000000,4.000000,4.000000,4.000000,4.000000,4.000000,4.000000,4.000000,4.000000,4.000000,100.000000,,,,,,,,,,,,,,,,,,,,,,,,,,,,,,,,,,,,,,,,,,,,,,,,,,,,,,,,,,,,,,,,,,,,,,,,,,,,,,,,,,,,,,,,,,,,,,,,,,,,,,,,,,,,,,,,,,,,,,,,,,,,,,,,,
1649446447.493473,1649446447.494126,96.000000,0.000000,4249.743652,4294.743652,4284.230957,4304.871582,4313.717773,4310.897461,4307.436035,4302.563965,4298.717773,4263.717773,4441.153809,4409.871582,4340.641113,4341.666504,3064.000000,4.000000,80.000000,,,,0.000000,4.000000,4.000000,4.000000,4.000000,4.000000,4.000000,4.000000,4.000000,4.000000,4.000000,4.000000,4.000000,4.000000,4.000000,100.000000,,,,,,,,,,,,,,,,,24.000000,0.000000,0.577509,0.440613,-0.554932,0.405457,1.003052,0.037114,-0.002442,-33.217331,6.698980,36.019550,,,,,,,,,,,,,,,,,,,,,,,,,,,,,,,,,,,,,,,,,,,,,,,,,,,,,,,,,,,,,,,,,,,,,,,,,,,,,,,,,,,,,,,,,,,,,,,,,,,,,
1649446447.501281,1649446447.502035,97.000000,0.000000,4258.333496,4301.794922,4291.666504,4313.846191,4325.769043,4313.589844,4311.794922,4308.205078,4306.153809,4278.846191,4446.666504,4415.897461,4344.743652,4348.077148,2947.000000,4.000000,80.000000,,,,0.000000,4.000000,4.000000,4.000000,4.000000,4.000000,4.000000,4.000000,4.000000,4.000000,4.000000,4.000000,4.000000,4.000000,4.000000,100.000000,,,,,,,,,,,,,,,,,,,,,,,,,,,,,,,,,,,,,,,,,,,,,,,,,,,,,,,,,,,,,,,,,,,,,,,,,,,,,,,,,,,,,,,,,,,,,,,,,,,,,,,,,,,,,,,,,,,,,,,,,,,,,,,,,
1649446447.509090,1649446447.509843,98.000000,0.000000,4262.948730,4303.205078,4292.692383,4321.282227,4322.563965,4310.512695,4319.102539,4311.666504,4304.615234,4285.897461,4445.128418,4423.461426,4345.256348,4350.897461,2728.000000,4.000000,80.000000,,,,0.000000,4.000000,4.000000,4.000000,4.000000,4.000000,4.000000,4.000000,4.000000,4.000000,4.000000,4.000000,4.000000,4.000000,4.000000,100.000000,,,,,,,,,,,,,,,,,,,,,,,,,,,,,,,,,,,,,,,,,,,,,,,,,,,,,,,,,,,,,,,,,,,,,,,,,,,,,,,,,,,,,,,,,,,,,,,,,,,,,,,,,,,,,,,,,,,,,,,,,,,,,,,,,
1649446447.516898,1649446447.517752,99.000000,0.000000,4261.666504,4298.205078,4282.179688,4317.563965,4316.410156,4312.179688,4312.948730,4309.230957,4304.743652,4278.589844,4442.307617,4418.589844,4346.282227,4343.461426,2803.000000,4.000000,80.000000,,,,0.000000,4.000000,4.000000,4.000000,4.000000,4.000000,4.000000,4.000000,4.000000,4.000000,4.000000,4.000000,4.000000,4.000000,4.000000,100.000000,,,,,,,,,,,,,,,,,,,,,,,,,,,,,,,,,,,,,,,,,,,,,,,,,,,,,,,,,,,,,,,,,,,,,,,,,,,,,,,,,,,,,,,,,,,,,,,,,,,,,,,,,,,,,,,,,,,,,,,,,,,,,,,,,
1649446447.524707,1649446447.525560,100.000000,0.000000,4254.230957,4295.256348,4276.666504,4310.897461,4320.769043,4306.153809,4302.179688,4309.487305,4310.000000,4280.641113,4446.922852,4414.487305,4351.666504,4341.153809,3064.000000,4.000000,80.000000,,,,0.000000,4.000000,4.000000,4.000000,4.000000,4.000000,4.000000,4.000000,4.000000,4.000000,4.000000,4.000000,4.000000,4.000000,4.000000,100.000000,,,,,,,,,,,,,,,,,25.000000,0.000000,0.577430,0.440491,-0.554932,0.405701,0.996215,0.061531,0.001953,-33.262264,6.679082,35.917595,,,,,,,,,,,,,,,,,,,,,,,,,,,,,,,,,,,,,,,,,,,,,,,,,,,,,,,,,,,,,,,,,,,,,,,,,,,,,,,,,,,,,,,,,,,,,,,,,,,,,
1649446447.532515,1649446447.533468,101.000000,0.000000,4245.128418,4289.358887,4277.307617,4308.077148,4316.538574,4297.436035,4300.384766,4309.358887,4304.743652,4281.025879,4439.615234,4410.128418,4343.205078,4340.641113,2947.000000,4.000000,80.000000,,,,0.000000,4.000000,4.000000,4.000000,4.000000,4.000000,4.000000,4.000000,4.000000,4.000000,4.000000,4.000000,4.000000,4.000000,4.000000,100.000000,,,,,,,,,,,,,,,,,,,,,,,,,,,,,,,,,,,,,,,,,,,,,,,,,,,,,,,,,,,,,,,,,,,,,,,,,,,,,,,,,,,,,,,,,,,,,,,,,,,,,,,,,,,,,,,,,,,,,,,,,,,,,,,,,
1649446447.540324,1649446447.541277,102.000000,0.000000,4245.512695,4281.538574,4277.948730,4307.692383,4308.461426,4305.384766,4307.820313,4306.794922,4298.846191,4268.077148,4428.461426,4409.487305,4332.179688,4334.230957,2728.000000,4.000000,80.000000,,,,0.000000,4.000000,4.000000,4.000000,4.000000,4.000000,4.000000,4.000000,4.000000,4.000000,4.000000,4.000000,4.000000,4.000000,4.000000,100.000000,,,,,,,,,,,,,,,,,,,,,,,,,,,,,,,,,,,,,,,,,,,,,,,,,,,,,,,,,,,,,,,,,,,,,,,,,,,,,,,,,,,,,,,,,,,,,,,,,,,,,,,,,,,,,,,,,,,,,,,,,,,,,,,,,
1649446447.548132,1649446447.549185,103.000000,0.000000,4250.000000,4283.077148,4280.000000,4296.153809,4315.897461,4314.871582,4316.922852,4312.051270,4306.922852,4268.333496,4437.563965,4417.051270,4340.256348,4335.512695,2803.000000,4.000000,80.000000,,,,0.000000,4.000000,4.000000,4.000000,4.000000,4.000000,4.000000,4.000000,4.000000,4.000000,4.000000,4.000000,4.000000,4.000000,4.000000,100.000000,,,,,,,,,,,,,,,,,,,,,,,,,,,,,,,,,,,,,,,,,,,,,,,,,,,,,,,,,,,,,,,,,,,,,,,,,,,,,,,,,,,,,,,,,,,,,,,,,,,,,,,,,,,,,,,,,,,,,,,,,,,,,,,,,
1649446447.555941,1649446447.556994,104.000000,0.000000,4246.922852,4286.025879,4280.512695,4290.641113,4318.077148,4309.358887,4317.948730,4317.563965,4307.307617,4286.025879,4445.897461,4417.820313,4347.436035,4344.230957,3064.000000,4.000000,80.000000,,,,0.000000,4.000000,4.000000,4.000000,4.000000,4.000000,4.000000,4.000000,4.000000,4.000000,4.000000,4.000000,4.000000,4.000000,4.000000,100.000000,,,,,,,,,,,,,,,,,26.000000,0.000000,0.577246,0.440369,-0.555176,0.405762,0.989867,0.044439,-0.001953,-33.286037,6.677841,35.975838,,,,,,,,,,,,,,,,,,,,,,,,,,,,,,,,,,,,,,,,,,,,,,,,,,,,,,,,,,,,,,,,,,,,,,,,,,,,,,,,,,,,,,,,,,,,,,,,,,,,,
1649446447.563749,1649446447.564702,105.000000,0.000000,4243.461426,4279.230957,4274.487305,4300.512695,4309.615234,4304.743652,4313.974121,4314.358887,4296.153809,4290.384766,4431.282227,4408.846191,4334.743652,4341.538574,2947.000000,4.000000,80.000000,,,,0.000000,4.000000,4.000000,4.000000,4.000000,4.000000,4.000000,4.000000,4.000000,4.000000,4.000000,4.000000,4.000000,4.000000,4.000000,100.000000,,,,,,,,,,,,,,,,,,,,,,,,,,,,,,,,,,,,,,,,,,,,,,,,,,,,,,,,,,,,,,,,,,,,,,,,,,,,,,,,,,,,,,,,,,,,,,,,,,,,,,,,,,,,,,,,,,,,,,,,,,,,,,,,,
1649446447.571557,1649446447.572511,106.000000,0.000000,4248.205078,4282.307617,4270.256348,4309.615234,4312.820313,4309.871582,4313.077148,4314.743652,4299.871582,4278.589844,4427.179688,4409.743652,4328.461426,4338.205078,2728.000000,4.000000,80.000000,,,,0.000000,4.000000,4.000000,4.000000,4.000000,4.000000,4.000000,4.000000,4.000000,4.000000,4.000000,4.000000,4.000000,4.000000,4.000000,100.000000,,,,,,,,,,,,,,,,,,,,,,,,,,,,,,,,,,,,,,,,,,,,,,,,,,,,,,,,,,,,,,,,,,,,,,,,,,,,,,,,,,,,,,,,,,,,,,,,,,,,,,,,,,,,,,,,,,,,,,,,,,,,,,,,,
1649446447.579366,1649446447.580219,107.000000,0.000000,4254.102539,4295.256348,4272.692383,4307.051270,4318.205078,4310.256348,4316.025879,4316.410156,4308.589844,4276.666504,4446.410156,4414.487305,4340.384766,4345.128418,2803.000000,4.000000,80.000000,,,,0.000000,4.000000,4.000000,4.000000,4.000000,4.000000,4.000000,4.000000,4.000000,4.000000,4.000000,4.000000,4.000000,4.000000,4.000000,100.000000,,,,,,,,,,,,,,,,,,,,,,,,,,,,,,,,,,,,,,,,,,,,,,,,,,,,,,,,,,,,0.779102,0.573675,0.444651,0.236292,0.242020,0.547021,0.443322,0.323605,0.225313,0.232312,1.116186,0.443791,0.290957,0.148474,0.128289,0.589049,0.528447,0.135370,0.333895,0.550391,0.487995,0.497416,0.240551,0.135986,0.134781,0.173943,0.309095,0.108676,0.151860,0.234330,0.419829,0.521078,0.253388,0.202608,0.376362,0.465242,0.363402,0.359096,0.198169,0.162357,0.256007,0.547075,0.282505,0.203300,0.160205,0.499359,0.739953,0.594023,0.373581,0.273678,0.954836,1.049050,0.565735,0.564549,0.331436,1.132873,1.416349,0.415831,0.217317,0.350092,0.801333,0.901204,0.479859,0.449912,0.247355,1.117418,1.053000,0.418129,0.267765,0.255352
1649446447.587174,1649446447.588028,108.000000,0.000000,4249.230957,4295.384766,4273.077148,4298.205078,4312.563965,4304.871582,4313.846191,4310.384766,4301.794922,4277.051270,4447.820313,4412.051270,4341.410156,4346.666504,3064.000000,4.000000,80.000000,,,,0.000000,4.000000,4.000000,4.000000,4.000000,4.000000,4.000000,4.000000,4.000000,4.000000,4.000000,4.000000,4.000000,4.000000,4.000000,100.000000,,,,,,,,,,,,,,,,,27.000000,0.000000,0.577206,0.440247,-0.555359,0.405701,0.981077,0.041997,-0.001953,-33.240768,6.610056,36.128254,,,,,,,,,,,,,,,,,,,,,,,,,,,,,,,,,,,,,,,,,,,,,,,,,,,,,,,,,,,,,,,,,,,,,,,,,,,,,,,,,,,,,,,,,,,,,,,,,,,,,
1649446447.594983,1649446447.595736,109.000000,0.000000,4248.461426,4288.461426,4272.051270,4303.846191,4310.256348,4307.692383,4302.820313,4308.333496,4298.205078,4274.615234,4433.589844,4412.179688,4334.871582,4346.282227,2947.000000,4.000000,80.000000,,,,0.000000,4.000000,4.000000,4.000000,4.000000,4.000000,4.000000,4.000000,4.000000,4.000000,4.000000,4.000000,4.000000,4.000000,4.000000,100.000000,,,,,,,,,,,,,,,,,,,,,,,,,,,,,,,,,,,,,,,,,,,,,,,,,,,,,,,,,,,,,,,,,,,,,,,,,,,,,,,,,,,,,,,,,,,,,,,,,,,,,,,,,,,,,,,,,,,,,,,,,,,,,,,,,
1649446447.602791,1649446447.603644,110.000000,0.000000,4258.333496,4285.000000,4273.205078,4310.384766,4313.461426,4310.641113,4304.487305,4312.307617,4306.922852,4276.794922,4433.461426,4414.230957,4341.538574,4349.615234,2728.000000,4.000000,80.000000,,,,0.000000,4.000000,4.000000,4.000000,4.000000,4.000000,4.000000,4.000000,4.000000,4.000000,4.000000,4.000000,4.000000,4.000000,4.000000,100.000000,,,,,,,,,,,,,,,,,,,,,,,,,,,,,,,,,,,,,,,,,,,,,,,,,,,,,,,,,,,,,,,,,,,,,,,,,,,,,,,,,,,,,,,,,,,,,,,,,,,,,,,,,,,,,,,,,,,,,,,,,,,,,,,,,
1649446447.610600,1649446447.611453,111.000000,0.000000,4257.179688,4280.128418,4269.871582,4295.897461,4310.769043,4300.641113,4314.743652,4307.436035,4305.769043,4270.769043,4432.948730,4407.307617,4341.282227,4345.512695,2803.000000,4.000000,80.000000,,,,0.000000,4.000000,4.000000,4.000000,4.000000,4.000000,4.000000,4.000000,4.000000,4.000000,4.000000,4.000000,4.000000,4.000000,4.000000,100.000000,,,,,,,,,,,,,,,,,,,,,,,,,,,,,,,,,,,,,,,,,,,,,,,,,,,,,,,,,,,,,,,,,,,,,,,,,,,,,,,,,,,,,,,,,,,,,,,,,,,,,,,,,,,,,,,,,,,,,,,,,,,,,,,,,
1649446447.618408,1649446447.619261,112.000000,0.000000,4247.436035,4276.538574,4265.384766,4283.333496,4307.307617,4297.179688,4305.256348,4297.692383,4293.333496,4259.871582,4419.102539,4401.282227,4325.128418,4339.230957,3064.000000,4.000000,80.000000,,,,0.000000,4.000000,4.000000,4.000000,4.000000,4.000000,4.000000,4.000000,4.000000,4.000000,4.000000,4.000000,4.000000,4.000000,4.000000,100.000000,,,,,,,,,,,,,,,,,28.000000,0.000000,0.577083,0.440063,-0.555542,0.405823,0.984007,0.042486,-0.003418,-33.183357,6.532384,36.082092,,,,,,,,,,,,,,,,,,,,,,,,,,,,,,,,,,,,,,,,,,,,,,,,,,,,,,,,,,,,,,,,,,,,,,,,,,,,,,,,,,,,,,,,,,,,,,,,,,,,,
1649446447.626217,1649446447.626970,113.000000,0.000000,4244.871582,4280.512695,4269.615234,4289.871582,4309.102539,4307.051270,4290.512695,4298.846191,4295.000000,4266.153809,4411.922852,4406.282227,4321.666504,4345.512695,2947.000000,4.000000,80.000000,,,,0.000000,4.000000,4.000000,4.000000,4.000000,4.000000,4.000000,4.000000,4.000000,4.000000,4.000000,4.000000,4.000000,4.000000,4.000000,100.000000,,,,,,,,,,,,,,,,,,,,,,,,,,,,,,,,,,,,,,,,,,,,,,,,,,,,,,,,,,,,,,,,,,,,,,,,,,,,,,,,,,,,,,,,,,,,,,,,,,,,,,,,,,,,,,,,,,,,,,,,,,,,,,,,,
1649446447.634025,1649446447.634778,114.000000,0.000000,4251.538574,4283.077148,4277.820313,4297.563965,4311.153809,4311.794922,4301.153809,4305.000000,4303.974121,4275.512695,4421.794922,4416.153809,4327.948730,4354.230957,2728.000000,4.000000,80.000000,,,,0.000000,4.000000,4.000000,4.000000,4.000000,4.000000,4.000000,4.000000,4.000000,4.000000,4.000000,4.000000,4.000000,4.000000,4.000000,100.000000,,,,,,,,,,,,,,,,,,,,,,,,,,,,,,,,,,,,,,,,,,,,,,,,,,,,,,,,,,,,,,,,,,,,,,,,,,,,,,,,,,,,,,,,,,,,,,,,,,,,,,,,,,,,,,,,,,,,,,,,,,,,,,,,,
1649446447.641833,1649446447.642487,115.000000,0.000000,4261.153809,4279.743652,4278.205078,4301.282227,4311.794922,4309.102539,4315.641113,4304.102539,4298.846191,4269.487305,4437.307617,4416.794922,4327.051270,4353.717773,2803.000000,4.000000,80.000000,,,,0.000000,4.000000,4.000000,4.000000,4.000000,4.000000,4.000000,4.000000,4.000000,4.000000,4.000000,4.000000,4.000000,4.000000,4.000000,100.000000,,,,,,,,,,,,,,,,,,,,,,,,,,,,,,,,,,,,,,,,,,,,,,,,,,,,,,,,,,,,,,,,,,,,,,,,,,,,,,,,,,,,,,,,,,,,,,,,,,,,,,,,,,,,,,,,,,,,,,,,,,,,,,,,,
1649446447.649642,1649446447.650395,116.000000,0.000000,4270.256348,4283.717773,4281.282227,4313.717773,4315.256348,4306.410156,4313.077148,4304.871582,4295.641113,4270.256348,4445.641113,4421.538574,4332.948730,4362.692383,3064.000000,4.000000,80.000000,,,,0.000000,4.000000,4.000000,4.000000,4.000000,4.000000,4.000000,4.000000,4.000000,4.000000,4.000000,4.000000,4.000000,4.000000,4.000000,100.000000,,,,,,,,,,,,,,,,,29.000000,0.000000,0.576918,0.439880,-0.555725,0.406006,0.996704,0.047857,-0.013674,-33.248356,6.579146,36.073883,,,,,,,,,,,,,,,,,,,,,,,,,,,,,,,,,,,,,,,,,,,,,,,,,,,,,,,,,,,,,,,,,,,,,,,,,,,,,,,,,,,,,,,,,,,,,,,,,,,,,
1649446447.657450,1649446447.658204,117.000000,0.000000,4274.871582,4291.794922,4291.153809,4316.153809,4319.743652,4305.897461,4308.077148,4310.256348,4302.051270,4282.820313,4444.358887,4434.743652,4342.563965,4376.922852,2947.000000,4.000000,80.000000,,,,0.000000,4.000000,4.000000,4.000000,4.000000,4.000000,4.000000,4.000000,4.000000,4.000000,4.000000,4.000000,4.000000,4.000000,4.000000,100.000000,,,,,,,,,,,,,,,,,,,,,,,,,,,,,,,,,,,,,,,,,,,,,,,,,,,,,,,,,,,,,,,,,,,,,,,,,,,,,,,,,,,,,,,,,,,,,,,,,,,,,,,,,,,,,,,,,,,,,,,,,,,,,,,,,
1649446447.665259,1649446447.666112,118.000000,0.000000,4273.974121,4293.974121,4293.333496,4308.461426,4321.153809,4308.589844,4307.051270,4309.871582,4303.846191,4282.307617,4447.179688,4436.666504,4343.717773,4377.179688,2728.000000,4.000000,80.000000,,,,0.000000,4.000000,4.000000,4.000000,4.000000,4.000000,4.000000,4.000000,4.000000,4.000000,4.000000,4.000000,4.000000,4.000000,4.000000,100.000000,,,,,,,,,,,,,,,,,,,,,,,,,,,,,,,,,,,,,,,,,,,,,,,,,,,,,,,,,,,,,,,,,,,,,,,,,,,,,,,,,,,,,,,,,,,,,,,,,,,,,,,,,,,,,,,,,,,,,,,,,,,,,,,,,
1649446447.673067,1649446447.673920,119.000000,0.000000,4271.025879,4294.230957,4290.256348,4307.948730,4321.666504,4310.128418,4311.410156,4308.461426,4301.025879,4271.794922,4448.717773,4426.025879,4342.179688,4370.769043,2803.000000,4.000000,80.000000,,,,0.000000,4.000000,4.000000,4.000000,4.000000,4.000000,4.000000,4.000000,4.000000,4.000000,4.000000,4.000000,4.000000,4.000000,4.000000,100.000000,,,,,,,,,,,,,,,,,,,,,,,,,,,,,,,,,,,,,,,,,,,,,,,,,,,,,,,,,,,,,,,,,,,,,,,,,,,,,,,,,,,,,,,,,,,,,,,,,,,,,,,,,,,,,,,,,,,,,,,,,,,,,,,,,
1649446447.680875,1649446447.681829,120.000000,0.000000,4272.563965,4293.333496,4286.153809,4310.128418,4319.615234,4305.769043,4311.666504,4309.871582,4302.179688,4272.436035,4437.692383,4425.256348,4341.153809,4371.410156,3064.000000,4.000000,80.000000,,,,0.000000,4.000000,4.000000,4.000000,4.000000,4.000000,4.000000,4.000000,4.000000,4.000000,4.000000,4.000000,4.000000,4.000000,4.000000,100.000000,,,,,,,,,,,,,,,,,30.000000,0.000000,0.576872,0.439575,-0.555969,0.406067,0.996215,0.046392,-0.011720,-33.373520,6.521231,36.016495,,,,,,,,,,,,,,,,,,,,,,,,,,,,,,,,,,,,,,,,,,,,,,,,,,,,,,,,,,,,,,,,,,,,,,,,,,,,,,,,,,,,,,,,,,,,,,,,,,,,,
1649446447.688684,1649446447.689637,121.000000,0.000000,4279.871582,4290.897461,4291.538574,4308.589844,4316.538574,4302.692383,4306.794922,4310.384766,4305.769043,4279.102539,4441.794922,4441.794922,4341.282227,4376.538574,2947.000000,4.000000,80.000000,,,,0.000000,4.000000,4.000000,4.000000,4.000000,4.000000,4.000000,4.000000,4.000000,4.000000,4.000000,4.000000,4.000000,4.000000,4.000000,100.000000,,,,,,,,,,,,,,,,,,,,,,,,,,,,,,,,,,,,,,,,,,,,,,,,,,,,,,,,,,,,,,,,,,,,,,,,,,,,,,,,,,,,,,,,,,,,,,,,,,,,,,,,,,,,,,,,,,,,,,,,,,,,,,,,,
1649446447.696492,1649446447.697546,122.000000,0.000000,4281.922852,4295.128418,4302.820313,4309.615234,4321.153809,4306.410156,4318.717773,4313.461426,4305.384766,4280.256348,4461.794922,4448.461426,4344.102539,4381.538574,2728.000000,4.000000,80.000000,,,,0.000000,4.000000,4.000000,4.000000,4.000000,4.000000,4.000000,4.000000,4.000000,4.000000,4.000000,4.000000,4.000000,4.000000,4.000000,100.000000,,,,,,,,,,,,,,,,,,,,,,,,,,,,,,,,,,,,,,,,,,,,,,,,,,,,,,,,,,,,,,,,,,,,,,,,,,,,,,,,,,,,,,,,,,,,,,,,,,,,,,,,,,,,,,,,,,,,,,,,,,,,,,,,,
1649446447.704301,1649446447.705354,123.000000,0.000000,4287.051270,4306.794922,4308.205078,4318.205078,4325.512695,4315.000000,4330.128418,4317.563965,4303.717773,4281.282227,4464.102539,4441.794922,4353.077148,4390.512695,2803.000000,4.000000,80.000000,,,,0.000000,4.000000,4.000000,4.000000,4.000000,4.000000,4.000000,4.000000,4.000000,4.000000,4.000000,4.000000,4.000000,4.000000,4.000000,100.000000,1.000000,100.000000,4.000000,4.000000,4.000000,4.000000,4.000000,4.000000,4.000000,4.000000,4.000000,4.000000,4.000000,4.000000,4.000000,4.000000,,,,,,,,,,,,,,,,,,,,,,,,,,,,,,,,,,,,,,,,,,,,1.285494,0.643253,0.344408,0.215899,0.234836,0.680755,0.500628,0.287266,0.260217,0.242876,1.394920,0.436046,0.203263,0.166001,0.132719,0.719457,0.633746,0.161353,0.357022,0.533787,0.472576,0.489736,0.258776,0.139025,0.125868,0.130824,0.347294,0.082330,0.138439,0.216832,0.364631,0.537064,0.243924,0.217791,0.394130,0.456219,0.466659,0.336311,0.203690,0.166721,0.205414,0.617746,0.268495,0.226827,0.156610,0.407162,0.843367,0.588152,0.401754,0.260698,1.294726,1.303986,0.434793,0.516849,0.335808,1.788261,1.810397,0.325241,0.243072,0.348293,1.014202,1.006926,0.362699,0.437459,0.259158,2.073859,1.330532,0.285108,0.318034,0.265052
1649446447.712109,1649446447.713262,124.000000,0.000000,4295.641113,4311.025879,4305.897461,4324.487305,4320.256348,4317.820313,4318.333496,4312.051270,4304.871582,4281.794922,4455.256348,4442.436035,4361.025879,4396.153809,3064.000000,4.000000,80.000000,,,,0.000000,4.000000,4.000000,4.000000,4.000000,4.000000,4.000000,4.000000,4.000000,4.000000,4.000000,4.000000,4.000000,4.000000,4.000000,100.000000,,,,,,,,,,,,,,,,,31.000000,0.000000,0.576749,0.439392,-0.556152,0.406189,0.989867,0.031254,-0.000488,-33.352833,6.469108,35.998180,,,,,,,,,,,,,,,,,,,,,,,,,,,,,,,,,,,,,,,,,,,,,,,,,,,,,,,,,,,,,,,,,,,,,,,,,,,,,,,,,,,,,,,,,,,,,,,,,,,,,
1649446447.719918,1649446447.721171,125.000000,0.000000,4296.794922,4306.025879,4306.282227,4321.666504,4316.666504,4311.282227,4309.615234,4308.205078,4307.436035,4281.025879,4456.922852,4448.974121,4360.512695,4395.256348,2947.000000,4.000000,80.000000,,,,0.000000,4.000000,4.000000,4.000000,4.000000,4.000000,4.000000,4.000000,4.000000,4.000000,4.000000,4.000000,4.000000,4.000000,4.000000,100.000000,,,,,,,,,,,,,,,,,,,,,,,,,,,,,,,,,,,,,,,,,,,,,,,,,,,,,,,,,,,,,,,,,,,,,,,,,,,,,,,,,,,,,,,,,,,,,,,,,,,,,,,,,,,,,,,,,,,,,,,,,,,,,,,,,
1649446447.727726,1649446447.728979,126.000000,0.000000,4296.794922,4302.563965,4312.436035,4320.000000,4321.410156,4309.230957,4313.589844,4312.692383,4304.871582,4280.641113,4459.871582,4450.256348,4358.205078,4397.179688,2728.000000,4.000000,80.000000,,,,0.000000,4.000000,4.000000,4.000000,4.000000,4.000000,4.000000,4.000000,4.000000,4.000000,4.000000,4.000000,4.000000,4.000000,4.000000,100.000000,,,,,,,,,,,,,,,,,,,,,,,,,,,,,,,,,,,,,,,,,,,,,,,,,,,,,,,,,,,,,,,,,,,,,,,,,,,,,,,,,,,,,,,,,,,,,,,,,,,,,,,,,,,,,,,,,,,,,,,,,,,,,,,,,
1649446447.735535,1649446447.736788,127.000000,0.000000,4299.358887,4304.358887,4311.922852,4327.563965,4327.948730,4312.436035,4310.384766,4311.538574,4302.179688,4279.871582,4460.384766,4450.256348,4360.641113,4398.589844,80.000000,4.000000,80.000000,,,,0.000000,4.000000,4.000000,4.000000,4.000000,4.000000,4.000000,4.000000,4.000000,4.000000,4.000000,4.000000,4.000000,4.000000,4.000000,100.000000,,,,,,,,,,,,,,,,,,,,,,,,,,,,,,,,,,,,,,,,,,,,,,,,,,,,,,,,,,,,,,,,,,,,,,,,,,,,,,,,,,,,,,,,,,,,,,,,,,,,,,,,,,,,,,,,,,,,,,,,,,,,,,,,,
1649446447.743343,1649446447.744496,0.000000,0.000000,4296.538574,4304.230957,4304.487305,4324.102539,4327.436035,4312.692383,4307.436035,4308.974121,4306.153809,4283.589844,4461.922852,4454.358887,4356.922852,4395.897461,2289.000000,4.000000,80.000000,,,,0.000000,4.000000,4.000000,4.000000,4.000000,4.000000,4.000000,4.000000,4.000000,4.000000,4.000000,4.000000,4.000000,4.000000,4.000000,100.000000,,,,,,,,,,,,,,,,,0.000000,0.000000,0.576542,0.439087,-0.556519,0.406311,0.996215,0.033207,0.004395,-33.384216,6.338864,35.948360,,,,,,,,,,,,,,,,,,,,,,,,,,,,,,,,,,,,,,,,,,,,,,,,,,,,,,,,,,,,,,,,,,,,,,,,,,,,,,,,,,,,,,,,,,,,,,,,,,,,,
1649446447.751151,1649446447.752305,1.000000,0.000000,4291.922852,4299.102539,4303.077148,4301.794922,4320.769043,4310.641113,4313.846191,4315.256348,4309.102539,4290.512695,4459.102539,4453.974121,4348.846191,4397.948730,2461.000000,4.000000,80.000000,,,,0.000000,4.000000,4.000000,4.000000,4.000000,4.000000,4.000000,4.000000,4.000000,4.000000,4.000000,4.000000,4.000000,4.000000,4.000000,100.000000,,,,,,,,,,,,,,,,,,,,,,,,,,,,,,,,,,,,,,,,,,,,,,,,,,,,,,,,,,,,,,,,,,,,,,,,,,,,,,,,,,,,,,,,,,,,,,,,,,,,,,,,,,,,,,,,,,,,,,,,,,,,,,,,,
1649446447.758960,1649446447.760013,2.000000,0.000000,4297.307617,4296.922852,4306.794922,4304.871582,4319.487305,4311.282227,4315.769043,4318.589844,4311.282227,4287.692383,4460.769043,4450.128418,4351.922852,4401.153809,2436.000000,4.000000,80.000000,,,,0.000000,4.000000,4.000000,4.000000,4.000000,4.000000,4.000000,4.000000,4.000000,4.000000,4.000000,4.000000,4.000000,4.000000,4.000000,100.000000,,,,,,,,,,,,,,,,,,,,,,,,,,,,,,,,,,,,,,,,,,,,,,,,,,,,,,,,,,,,,,,,,,,,,,,,,,,,,,,,,,,,,,,,,,,,,,,,,,,,,,,,,,,,,,,,,,,,,,,,,,,,,,,,,
1649446447.766768,1649446447.767822,3.000000,0.000000,4300.128418,4295.384766,4304.358887,4327.307617,4317.307617,4310.256348,4306.538574,4313.333496,4309.358887,4279.615234,4462.820313,4449.871582,4351.538574,4398.589844,2423.000000,4.000000,80.000000,,,,0.000000,4.000000,4.000000,4.000000,4.000000,4.000000,4.000000,4.000000,4.000000,4.000000,4.000000,4.000000,4.000000,4.000000,4.000000,100.000000,,,,,,,,,,,,,,,,,,,,,,,,,,,,,,,,,,,,,,,,,,,,,,,,,,,,,,,,,,,,,,,,,,,,,,,,,,,,,,,,,,,,,,,,,,,,,,,,,,,,,,,,,,,,,,,,,,,,,,,,,,,,,,,,,
1649446447.774577,1649446447.775530,4.000000,0.000000,4292.436035,4293.589844,4302.820313,4322.948730,4309.743652,4303.589844,4304.230957,4308.974121,4302.051270,4278.589844,4455.769043,4447.948730,4348.077148,4403.205078,2428.000000,4.000000,80.000000,,,,0.000000,4.000000,4.000000,4.000000,4.000000,4.000000,4.000000,4.000000,4.000000,4.000000,4.000000,4.000000,4.000000,4.000000,4.000000,100.000000,,,,,,,,,,,,,,,,,1.000000,0.000000,0.576385,0.439026,-0.556641,0.406433,0.994750,0.051764,0.009767,-33.312462,6.404977,36.003525,,,,,,,,,,,,,,,,,,,,,,,,,,,,,,,,,,,,,,,,,,,,,,,,,,,,,,,,,,,,,,,,,,,,,,,,,,,,,,,,,,,,,,,,,,,,,,,,,,,,,
1649446447.782385,1649446447.783339,5.000000,0.000000,4299.487305,4300.641113,4316.410156,4314.615234,4313.589844,4305.000000,4317.179688,4316.282227,4306.025879,4283.846191,4459.358887,4449.743652,4360.769043,4415.256348,2150.000000,4.000000,80.000000,,,,0.000000,4.000000,4.000000,4.000000,4.000000,4.000000,4.000000,4.000000,4.000000,4.000000,4.000000,4.000000,4.000000,4.000000,4.000000,100.000000,,,,,,,,,,,,,,,,,,,,,,,,,,,,,,,,,,,,,,,,,,,,,,,,,,,,,,,,,,,,,,,,,,,,,,,,,,,,,,,,,,,,,,,,,,,,,,,,,,,,,,,,,,,,,,,,,,,,,,,,,,,,,,,,,
1649446447.790194,1649446447.791047,6.000000,0.000000,4321.922852,4309.102539,4328.205078,4324.615234,4327.820313,4317.820313,4324.230957,4322.307617,4316.025879,4291.666504,4473.589844,4457.692383,4368.205078,4418.077148,2234.000000,4.000000,80.000000,,,,0.000000,4.000000,4.000000,4.000000,4.000000,4.000000,4.000000,4.000000,4.000000,4.000000,4.000000,4.000000,4.000000,4.000000,4.000000,100.000000,,,,,,,,,,,,,,,,,,,,,,,,,,,,,,,,,,,,,,,,,,,,,,,,,,,,,,,,,,,,,,,,,,,,,,,,,,,,,,,,,,,,,,,,,,,,,,,,,,,,,,,,,,,,,,,,,,,,,,,,,,,,,,,,,
1649446447.798002,1649446447.798856,7.000000,0.000000,4328.974121,4312.179688,4328.333496,4330.384766,4329.743652,4323.077148,4318.333496,4315.769043,4313.974121,4297.436035,4476.410156,4465.384766,4360.128418,4417.692383,2035.000000,4.000000,80.000000,,,,0.000000,4.000000,4.000000,4.000000,4.000000,4.000000,4.000000,4.000000,4.000000,4.000000,4.000000,4.000000,4.000000,4.000000,4.000000,100.000000,,,,,,,,,,,,,,,,,,,,,,,,,,,,,,,,,,,,,,,,,,,,,,,,,,,,,,,,,,,,,,,,,,,,,,,,,,,,,,,,,,,,,,,,,,,,,,,,,,,,,,,,,,,,,,,,,,,,,,,,,,,,,,,,,
1649446447.805811,1649446447.806564,8.000000,0.000000,4323.077148,4314.487305,4326.282227,4329.871582,4322.179688,4315.769043,4314.871582,4313.717773,4308.333496,4293.846191,4470.128418,4467.692383,4360.641113,4425.000000,1957.000000,4.000000,80.000000,,,,0.000000,4.000000,4.000000,4.000000,4.000000,4.000000,4.000000,4.000000,4.000000,4.000000,4.000000,4.000000,4.000000,4.000000,4.000000,100.000000,,,,,,,,,,,,,,,,,2.000000,0.000000,0.576354,0.439087,-0.556580,0.406494,0.998169,0.045416,0.005860,-33.431217,6.414480,36.103172,,,,,,,,,,,,,,,,,,,,,,,,,,,,,,,,,,,,,,,,,,,,,,,,,,,,,,,,,,,,,,,,,,,,,,,,,,,,,,,,,,,,,,,,,,,,,,,,,,,,,
1649446447.813619,1649446447.814373,9.000000,0.000000,4324.358887,4307.563965,4321.666504,4326.794922,4319.871582,4312.692383,4316.025879,4324.102539,4312.307617,4290.384766,4470.384766,4465.512695,4368.461426,4427.436035,2429.000000,4.000000,80.000000,,,,0.000000,4.000000,4.000000,4.000000,4.000000,4.000000,4.000000,4.000000,4.000000,4.000000,4.000000,4.000000,4.000000,4.000000,4.000000,100.000000,,,,,,,,,,,,,,,,,,,,,,,,,,,,,,,,,,,,,,,,,,,,,,,,,,,,,,,,,,,,,,,,,,,,,,,,,,,,,,,,,,,,,,,,,,,,,,,,,,,,,,,,,,,,,,,,,,,,,,,,,,,,,,,,,
1649446447.821427,1649446447.822081,10.000000,0.000000,4324.743652,4298.333496,4317.692383,4320.897461,4318.333496,4311.410156,4312.436035,4325.384766,4313.333496,4289.102539,4475.769043,4463.589844,4367.179688,4424.102539,2708.000000,4.000000,80.000000,,,,0.000000,4.000000,4.000000,4.000000,4.000000,4.000000,4.000000,4.000000,4.000000,4.000000,4.000000,4.000000,4.000000,4.000000,4.000000,100.000000,,,,,,,,,,,,,,,,,,,,,,,,,,,,,,,,,,,,,,,,,,,,,,,,,,,,,,,,,,,,,,,,,,,,,,,,,,,,,,,,,,,,,,,,,,,,,,,,,,,,,,,,,,,,,,,,,,,,,,,,,,,,,,,,,
1649446447.829236,1649446447.829890,11.000000,0.000000,4321.153809,4306.922852,4319.743652,4327.179688,4320.384766,4308.717773,4308.717773,4316.410156,4307.820313,4279.871582,4477.436035,4462.692383,4366.922852,4423.974121,2803.000000,4.000000,80.000000,,,,0.000000,4.000000,4.000000,4.000000,4.000000,4.000000,4.000000,4.000000,4.000000,4.000000,4.000000,4.000000,4.000000,4.000000,4.000000,100.000000,,,,,,,,,,,,,,,,,,,,,,,,,,,,,,,,,,,,,,,,,,,,,,,,,,,,,,,,,,,,2.251546,0.743129,0.273039,0.212407,0.220044,0.922633,0.571402,0.274140,0.289526,0.244500,1.874027,0.444366,0.139834,0.190669,0.136417,0.985895,0.763265,0.204523,0.378628,0.501531,0.489115,0.454967,0.259067,0.138675,0.119175,0.142724,0.384925,0.059597,0.124466,0.198078,0.343616,0.548652,0.221458,0.222719,0.395211,0.520412,0.554151,0.299576,0.206046,0.169430,0.259656,0.652586,0.244915,0.247444,0.154604,0.429705,0.912397,0.563728,0.424258,0.248709,1.967252,1.603123,0.352493,0.454089,0.346672,2.949870,2.164860,0.291464,0.287395,0.335917,1.548495,1.181450,0.314335,0.408327,0.294556,3.750563,1.620252,0.180263,0.367991,0.268970
1649446447.837044,1649446447.837598,12.000000,0.000000,4323.717773,4317.820313,4328.461426,4337.436035,4327.179688,4316.282227,4312.563965,4317.820313,4308.717773,4280.384766,4473.717773,4464.230957,4364.358887,4423.461426,3056.000000,4.000000,80.000000,,,,0.000000,4.000000,4.000000,4.000000,4.000000,4.000000,4.000000,4.000000,4.000000,4.000000,4.000000,4.000000,4.000000,4.000000,4.000000,100.000000,,,,,,,,,,,,,,,,,3.000000,0.000000,0.576222,0.439148,-0.556580,0.406616,0.998657,0.028812,-0.010743,-33.521427,6.473032,36.176189,,,,,,,,,,,,,,,,,,,,,,,,,,,,,,,,,,,,,,,,,,,,,,,,,,,,,,,,,,,,,,,,,,,,,,,,,,,,,,,,,,,,,,,,,,,,,,,,,,,,,
1649446447.844853,1649446447.845407,13.000000,0.000000,4328.205078,4312.563965,4332.820313,4332.948730,4325.769043,4318.589844,4315.384766,4321.666504,4310.641113,4288.077148,4472.820313,4464.487305,4355.641113,4424.102539,2950.000000,4.000000,80.000000,,,,0.000000,4.000000,4.000000,4.000000,4.000000,4.000000,4.000000,4.000000,4.000000,4.000000,4.000000,4.000000,4.000000,4.000000,4.000000,100.000000,,,,,,,,,,,,,,,,,,,,,,,,,,,,,,,,,,,,,,,,,,,,,,,,,,,,,,,,,,,,,,,,,,,,,,,,,,,,,,,,,,,,,,,,,,,,,,,,,,,,,,,,,,,,,,,,,,,,,,,,,,,,,,,,,
1649446447.852661,1649446447.853115,14.000000,0.000000,4342.179688,4316.410156,4335.384766,4334.230957,4319.615234,4312.179688,4315.897461,4317.179688,4308.846191,4281.922852,4482.179688,4469.743652,4365.897461,4441.153809,2708.000000,4.000000,80.000000,,,,0.000000,4.000000,4.000000,4.000000,4.000000,4.000000,4.000000,4.000000,4.000000,4.000000,4.000000,4.000000,4.000000,4.000000,4.000000,100.000000,,,,,,,,,,,,,,,,,,,,,,,,,,,,,,,,,,,,,,,,,,,,,,,,,,,,,,,,,,,,,,,,,,,,,,,,,,,,,,,,,,,,,,,,,,,,,,,,,,,,,,,,,,,,,,,,,,,,,,,,,,,,,,,,,
1649446447.860469,1649446447.861023,15.000000,0.000000,4374.230957,4336.410156,4347.563965,4349.102539,4326.922852,4318.974121,4320.256348,4317.948730,4308.846191,4282.563965,4491.025879,4487.692383,4389.743652,4474.487305,2803.000000,4.000000,80.000000,,,,0.000000,4.000000,4.000000,4.000000,4.000000,4.000000,4.000000,4.000000,4.000000,4.000000,4.000000,4.000000,4.000000,4.000000,4.000000,100.000000,,,,,,,,,,,,,,,,,,,,,,,,,,,,,,,,,,,,,,,,,,,,,,,,,,,,,,,,,,,,,,,,,,,,,,,,,,,,,,,,,,,,,,,,,,,,,,,,,,,,,,,,,,,,,,,,,,,,,,,,,,,,,,,,,
1649446447.868278,1649446447.868832,16.000000,0.000000,4406.282227,4350.512695,4363.974121,4357.436035,4337.307617,4329.615234,4325.769043,4326.025879,4309.743652,4301.794922,4499.871582,4508.333496,4404.102539,4507.563965,0.000000,4.000000,80.000000,,,,0.000000,4.000000,4.000000,4.000000,4.000000,4.000000,4.000000,4.000000,4.000000,4.000000,4.000000,4.000000,4.000000,4.000000,4.000000,100.000000,,,,,,,,,,,,,,,,,4.000000,0.000000,0.576240,0.439392,-0.556458,0.406494,0.987914,0.045416,-0.009767,-33.452618,6.509062,36.175236,,,,,,,,,,,,,,,,,,,,,,,,,,,,,,,,,,,,,,,,,,,,,,,,,,,,,,,,,,,,,,,,,,,,,,,,,,,,,,,,,,,,,,,,,,,,,,,,,,,,,
1649446447.876086,1649446447.876640,17.000000,0.000000,4432.563965,4359.487305,4379.743652,4364.230957,4334.615234,4324.743652,4327.179688,4328.846191,4311.153809,4306.794922,4515.128418,4529.743652,4415.384766,4545.512695,0.000000,4.000000,80.000000,,,,0.000000,4.000000,4.000000,4.000000,4.000000,4.000000,4.000000,4.000000,4.000000,4.000000,4.000000,4.000000,4.000000,4.000000,4.000000,100.000000,,,,,,,,,,,,,,,,,,,,,,,,,,,,,,,,,,,,,,,,,,,,,,,,,,,,,,,,,,,,,,,,,,,,,,,,,,,,,,,,,,,,,,,,,,,,,,,,,,,,,,,,,,,,,,,,,,,,,,,,,,,,,,,,,
1649446447.883895,1649446447.884349,18.000000,0.000000,4471.794922,4376.153809,4401.282227,4386.538574,4335.641113,4325.256348,4334.743652,4327.563965,4317.948730,4302.563965,4536.025879,4559.743652,4444.358887,4591.794922,0.000000,4.000000,80.000000,,,,0.000000,4.000000,4.000000,4.000000,4.000000,4.000000,4.000000,4.000000,4.000000,4.000000,4.000000,4.000000,4.000000,4.000000,4.000000,100.000000,,,,,,,,,,,,,,,,,,,,,,,,,,,,,,,,,,,,,,,,,,,,,,,,,,,,,,,,,,,,,,,,,,,,,,,,,,,,,,,,,,,,,,,,,,,,,,,,,,,,,,,,,,,,,,,,,,,,,,,,,,,,,,,,,
1649446447.891703,1649446447.892257,19.000000,0.000000,4518.205078,4393.589844,4422.820313,4406.282227,4349.102539,4336.922852,4347.051270,4333.589844,4328.333496,4317.820313,4560.256348,4585.769043,4476.666504,4629.743652,0.000000,4.000000,80.000000,,,,0.000000,4.000000,4.000000,4.000000,4.000000,4.000000,4.000000,4.000000,4.000000,4.000000,4.000000,4.000000,4.000000,4.000000,4.000000,100.000000,,,,,,,,,,,,,,,,,,,,,,,,,,,,,,,,,,,,,,,,,,,,,,,,,,,,,,,,,,,,,,,,,,,,,,,,,,,,,,,,,,,,,,,,,,,,,,,,,,,,,,,,,,,,,,,,,,,,,,,,,,,,,,,,,
1649446447.899512,1649446447.900066,20.000000,0.000000,4540.641113,4404.615234,4433.974121,4396.538574,4356.410156,4336.282227,4345.256348,4341.794922,4329.358887,4329.615234,4573.589844,4597.179688,4481.922852,4654.871582,0.000000,4.000000,80.000000,,,,0.000000,4.000000,4.000000,4.000000,4.000000,4.000000,4.000000,4.000000,4.000000,4.000000,4.000000,4.000000,4.000000,4.000000,4.000000,100.000000,,,,,,,,,,,,,,,,,5.000000,0.000000,0.576427,0.439758,-0.556152,0.406250,1.001099,0.041997,-0.002442,-33.390690,6.541489,36.174381,,,,,,,,,,,,,,,,,,,,,,,,,,,,,,,,,,,,,,,,,,,,,,,,,,,,,,,,,,,,,,,,,,,,,,,,,,,,,,,,,,,,,,,,,,,,,,,,,,,,,
1649446447.907320,1649446447.907974,21.000000,0.000000,4553.205078,4419.230957,4447.563965,4395.128418,4356.025879,4335.512695,4343.461426,4345.512695,4326.153809,4327.820313,4575.128418,4613.077148,4479.358887,4678.974121,0.000000,4.000000,80.000000,,,,0.000000,4.000000,4.000000,4.000000,4.000000,4.000000,4.000000,4.000000,4.000000,4.000000,4.000000,4.000000,4.000000,4.000000,4.000000,100.000000,,,,,,,,,,,,,,,,,,,,,,,,,,,,,,,,,,,,,,,,,,,,,,,,,,,,,,,,,,,,,,,,,,,,,,,,,,,,,,,,,,,,,,,,,,,,,,,,,,,,,,,,,,,,,,,,,,,,,,,,,,,,,,,,,
1649446447.915129,1649446447.915783,22.000000,0.000000,4583.846191,4437.563965,4462.948730,4436.025879,4354.487305,4343.589844,4355.000000,4349.871582,4332.692383,4330.512695,4585.128418,4636.410156,4497.563965,4709.615234,0.000000,4.000000,80.000000,,,,0.000000,4.000000,4.000000,4.000000,4.000000,4.000000,4.000000,4.000000,4.000000,4.000000,4.000000,4.000000,4.000000,4.000000,4.000000,100.000000,,,,,,,,,,,,,,,,,,,,,,,,,,,,,,,,,,,,,,,,,,,,,,,,,,,,,,,,,,,,,,,,,,,,,,,,,,,,,,,,,,,,,,,,,,,,,,,,,,,,,,,,,,,,,,,,,,,,,,,,,,,,,,,,,
1649446447.922937,1649446447.923691,23.000000,0.000000,4601.410156,4438.717773,4466.922852,4451.666504,4354.230957,4339.871582,4356.922852,4350.512695,4335.128418,4326.794922,4596.282227,4642.563965,4514.358887,4725.384766,0.000000,4.000000,80.000000,,,,0.000000,4.000000,4.000000,4.000000,4.000000,4.000000,4.000000,4.000000,4.000000,4.000000,4.000000,4.000000,4.000000,4.000000,4.000000,100.000000,,,,,,,,,,,,,,,,,,,,,,,,,,,,,,,,,,,,,,,,,,,,,,,,,,,,,,,,,,,,,,,,,,,,,,,,,,,,,,,,,,,,,,,,,,,,,,,,,,,,,,,,,,,,,,,,,,,,,,,,,,,,,,,,,
1649446447.930745,1649446447.931499,24.000000,0.000000,4585.256348,4423.589844,4462.051270,4417.563965,4357.436035,4332.307617,4342.563965,4345.000000,4326.666504,4317.563965,4591.025879,4630.384766,4504.615234,4712.179688,0.000000,4.000000,80.000000,,,,0.000000,4.000000,4.000000,4.000000,4.000000,4.000000,4.000000,4.000000,4.000000,4.000000,4.000000,4.000000,4.000000,4.000000,4.000000,100.000000,,,,,,,,,,,,,,,,,6.000000,0.000000,0.576695,0.439941,-0.555908,0.406006,0.984984,0.047857,-0.002930,-33.351620,6.554007,36.006943,,,,,,,,,,,,,,,,,,,,,,,,,,,,,,,,,,,,,,,,,,,,,,,,,,,,,,,,,,,,,,,,,,,,,,,,,,,,,,,,,,,,,,,,,,,,,,,,,,,,,
1649446447.938554,1649446447.939208,25.000000,0.000000,4567.948730,4418.846191,4455.512695,4407.820313,4357.436035,4340.000000,4338.589844,4345.641113,4327.820313,4322.179688,4587.307617,4622.436035,4495.384766,4693.974121,0.000000,4.000000,80.000000,,,,0.000000,4.000000,4.000000,4.000000,4.000000,4.000000,4.000000,4.000000,4.000000,4.000000,4.000000,4.000000,4.000000,4.000000,4.000000,100.000000,,,,,,,,,,,,,,,,,,,,,,,,,,,,,,,,,,,,,,,,,,,,,,,,,,,,,,,,,,,,,,,,,,,,,,,,,,,,,,,,,,,,,,,,,,,,,,,,,,,,,,,,,,,,,,,,,,,,,,,,,,,,,,,,,
1649446447.946362,1649446447.947016,26.000000,0.000000,4559.358887,4418.974121,4448.461426,4426.153809,4350.384766,4342.820313,4349.102539,4348.077148,4334.871582,4327.436035,4586.538574,4615.128418,4494.230957,4683.077148,0.000000,4.000000,80.000000,,,,0.000000,4.000000,4.000000,4.000000,4.000000,4.000000,4.000000,4.000000,4.000000,4.000000,4.000000,4.000000,4.000000,4.000000,4.000000,100.000000,,,,,,,,,,,,,,,,,,,,,,,,,,,,,,,,,,,,,,,,,,,,,,,,,,,,,,,,,,,,,,,,,,,,,,,,,,,,,,,,,,,,,,,,,,,,,,,,,,,,,,,,,,,,,,,,,,,,,,,,,,,,,,,,,
1649446447.954171,1649446447.954725,27.000000,0.000000,4544.487305,4408.333496,4443.974121,4419.871582,4347.563965,4332.948730,4353.461426,4346.666504,4330.000000,4322.307617,4570.641113,4604.358887,4479.743652,4665.641113,0.000000,4.000000,80.000000,,,,0.000000,4.000000,4.000000,4.000000,4.000000,4.000000,4.000000,4.000000,4.000000,4.000000,4.000000,4.000000,4.000000,4.000000,4.000000,100.000000,,,,,,,,,,,,,,,,,,,,,,,,,,,,,,,,,,,,,,,,,,,,,,,,,,,,,,,,,,,,3.664972,0.850065,0.247921,0.229730,0.198781,1.226333,0.634067,0.281962,0.307913,0.236331,2.477726,0.470979,0.116539,0.220249,0.136270,1.371972,0.895390,0.272576,0.396093,0.458818,0.534029,0.405756,0.241955,0.137356,0.116920,0.196533,0.416561,0.046703,0.115988,0.178978,0.357717,0.569393,0.195284,0.218665,0.379460,0.646880,0.605118,0.253452,0.205573,0.167502,0.396210,0.645950,0.214913,0.256504,0.153377,0.539955,0.908707,0.504226,0.436771,0.237570,2.833736,1.847803,0.332240,0.392856,0.362086,4.439458,2.385503,0.309009,0.345524,0.315947,2.295100,1.334193,0.324364,0.369042,0.337959,6.006341,1.853487,0.126977,0.412433,0.265175
1649446447.961979,1649446447.962533,28.000000,0.000000,4538.333496,4407.179688,4445.128418,4404.615234,4352.051270,4333.077148,4349.871582,4349.487305,4323.589844,4319.871582,4556.794922,4600.769043,4470.641113,4646.666504,0.000000,4.000000,80.000000,,,,0.000000,4.000000,4.000000,4.000000,4.000000,4.000000,4.000000,4.000000,4.000000,4.000000,4.000000,4.000000,4.000000,4.000000,4.000000,100.000000,,,,,,,,,,,,,,,,,7.000000,0.000000,0.576691,0.440002,-0.555908,0.405945,0.989867,0.030277,0.003907,-33.433125,6.415273,35.906246,,,,,,,,,,,,,,,,,,,,,,,,,,,,,,,,,,,,,,,,,,,,,,,,,,,,,,,,,,,,,,,,,,,,,,,,,,,,,,,,,,,,,,,,,,,,,,,,,,,,,
1649446447.969788,1649446447.970242,29.000000,0.000000,4537.820313,4416.282227,4446.922852,4413.205078,4351.282227,4342.436035,4345.512695,4350.384766,4328.974121,4318.589844,4558.333496,4602.563965,4475.256348,4640.384766,0.000000,4.000000,80.000000,,,,0.000000,4.000000,4.000000,4.000000,4.000000,4.000000,4.000000,4.000000,4.000000,4.000000,4.000000,4.000000,4.000000,4.000000,4.000000,100.000000,,,,,,,,,,,,,,,,,,,,,,,,,,,,,,,,,,,,,,,,,,,,,,,,,,,,,,,,,,,,,,,,,,,,,,,,,,,,,,,,,,,,,,,,,,,,,,,,,,,,,,,,,,,,,,,,,,,,,,,,,,,,,,,,,
1649446447.977596,1649446447.978050,30.000000,0.000000,4513.461426,4402.179688,4439.102539,4417.948730,4344.102539,4339.358887,4338.717773,4343.589844,4329.230957,4316.025879,4556.025879,4587.948730,4458.461426,4623.333496,0.000000,4.000000,80.000000,,,,0.000000,4.000000,4.000000,4.000000,4.000000,4.000000,4.000000,4.000000,4.000000,4.000000,4.000000,4.000000,4.000000,4.000000,4.000000,100.000000,,,,,,,,,,,,,,,,,,,,,,,,,,,,,,,,,,,,,,,,,,,,,,,,,,,,,,,,,,,,,,,,,,,,,,,,,,,,,,,,,,,,,,,,,,,,,,,,,,,,,,,,,,,,,,,,,,,,,,,,,,,,,,,,,
1649446447.985405,1649446447.985759,31.000000,0.000000,4486.794922,4373.717773,4427.307617,4399.487305,4340.769043,4327.692383,4335.897461,4338.974121,4320.256348,4307.948730,4542.307617,4568.333496,4424.102539,4595.256348,0.000000,4.000000,80.000000,,,,0.000000,4.000000,4.000000,4.000000,4.000000,4.000000,4.000000,4.000000,4.000000,4.000000,4.000000,4.000000,4.000000,4.000000,4.000000,100.000000,,,,,,,,,,,,,,,,,,,,,,,,,,,,,,,,,,,,,,,,,,,,,,,,,,,,,,,,,,,,,,,,,,,,,,,,,,,,,,,,,,,,,,,,,,,,,,,,,,,,,,,,,,,,,,,,,,,,,,,,,,,,,,,,,
1649446447.993213,1649446447.993567,32.000000,0.000000,4483.077148,4367.307617,4425.769043,4380.384766,4340.769043,4329.615234,4338.589844,4340.000000,4318.589844,4295.769043,4529.487305,4566.922852,4415.000000,4583.333496,0.000000,4.000000,80.000000,,,,0.000000,4.000000,4.000000,4.000000,4.000000,4.000000,4.000000,4.000000,4.000000,4.000000,4.000000,4.000000,4.000000,4.000000,4.000000,100.000000,,,,,,,,,,,,,,,,,8.000000,0.000000,0.576925,0.439941,-0.555847,0.405762,0.986449,0.047857,0.005860,-33.389812,6.523746,35.965622,,,,,,,,,,,,,,,,,,,,,,,,,,,,,,,,,,,,,,,,,,,,,,,,,,,,,,,,,,,,,,,,,,,,,,,,,,,,,,,,,,,,,,,,,,,,,,,,,,,,,
1649446448.001022,1649446448.001276,33.000000,0.000000,4475.512695,4374.871582,4426.410156,4386.153809,4341.538574,4341.153809,4340.128418,4341.666504,4325.384766,4301.153809,4532.179688,4571.025879,4435.641113,4578.846191,0.000000,4.000000,80.000000,,,,0.000000,4.000000,4.000000,4.000000,4.000000,4.000000,4.000000,4.000000,4.000000,4.000000,4.000000,4.000000,4.000000,4.000000,4.000000,100.000000,,,,,,,,,,,,,,,,,,,,,,,,,,,,,,,,,,,,,,,,,,,,,,,,,,,,,,,,,,,,,,,,,,,,,,,,,,,,,,,,,,,,,,,,,,,,,,,,,,,,,,,,,,,,,,,,,,,,,,,,,,,,,,,,,
1649446448.008830,1649446448.009184,34.000000,0.000000,4460.000000,4373.974121,4419.230957,4394.102539,4342.307617,4340.128418,4344.487305,4342.436035,4328.461426,4315.000000,4548.333496,4566.282227,4448.461426,4568.846191,0.000000,4.000000,80.000000,,,,0.000000,4.000000,4.000000,4.000000,4.000000,4.000000,4.000000,4.000000,4.000000,4.000000,4.000000,4.000000,4.000000,4.000000,4.000000,100.000000,,,,,,,,,,,,,,,,,,,,,,,,,,,,,,,,,,,,,,,,,,,,,,,,,,,,,,,,,,,,,,,,,,,,,,,,,,,,,,,,,,,,,,,,,,,,,,,,,,,,,,,,,,,,,,,,,,,,,,,,,,,,,,,,,
1649446448.016638,1649446448.016993,35.000000,0.000000,4464.871582,4370.000000,4419.487305,4380.641113,4343.717773,4331.538574,4343.333496,4341.666504,4324.871582,4310.641113,4546.153809,4562.948730,4436.922852,4563.589844,0.000000,4.000000,80.000000,,,,0.000000,4.000000,4.000000,4.000000,4.000000,4.000000,4.000000,4.000000,4.000000,4.000000,4.000000,4.000000,4.000000,4.000000,4.000000,100.000000,,,,,,,,,,,,,,,,,,,,,,,,,,,,,,,,,,,,,,,,,,,,,,,,,,,,,,,,,,,,,,,,,,,,,,,,,,,,,,,,,,,,,,,,,,,,,,,,,,,,,,,,,,,,,,,,,,,,,,,,,,,,,,,,,
1649446448.024447,1649446448.024901,36.000000,0.000000,4473.461426,4376.410156,4430.384766,4384.358887,4348.205078,4337.563965,4335.769043,4345.897461,4329.743652,4308.846191,4536.410156,4572.179688,4433.846191,4571.153809,0.000000,4.000000,80.000000,,,,0.000000,4.000000,4.000000,4.000000,4.000000,4.000000,4.000000,4.000000,4.000000,4.000000,4.000000,4.000000,4.000000,4.000000,4.000000,100.000000,,,,,,,,,,,,,,,,,9.000000,0.000000,0.576974,0.439758,-0.556030,0.405640,0.984495,0.038091,-0.007813,-33.317497,6.338037,35.819061,,,,,,,,,,,,,,,,,,,,,,,,,,,,,,,,,,,,,,,,,,,,,,,,,,,,,,,,,,,,,,,,,,,,,,,,,,,,,,,,,,,,,,,,,,,,,,,,,,,,,
1649446448.032255,1649446448.032709,37.000000,0.000000,4466.666504,4383.717773,4432.563965,4404.230957,4351.922852,4344.230957,4337.307617,4352.179688,4336.410156,4316.794922,4547.051270,4576.153809,4447.307617,4574.230957,0.000000,4.000000,80.000000,,,,0.000000,4.000000,4.000000,4.000000,4.000000,4.000000,4.000000,4.000000,4.000000,4.000000,4.000000,4.000000,4.000000,4.000000,4.000000,100.000000,,,,,,,,,,,,,,,,,,,,,,,,,,,,,,,,,,,,,,,,,,,,,,,,,,,,,,,,,,,,,,,,,,,,,,,,,,,,,,,,,,,,,,,,,,,,,,,,,,,,,,,,,,,,,,,,,,,,,,,,,,,,,,,,,
1649446448.040064,1649446448.040618,38.000000,0.000000,4460.000000,4379.615234,4422.820313,4395.128418,4346.794922,4337.179688,4336.282227,4348.846191,4329.615234,4313.846191,4552.948730,4563.846191,4441.025879,4562.948730,0.000000,4.000000,80.000000,,,,0.000000,4.000000,4.000000,4.000000,4.000000,4.000000,4.000000,4.000000,4.000000,4.000000,4.000000,4.000000,4.000000,4.000000,4.000000,100.000000,,,,,,,,,,,,,,,,,,,,,,,,,,,,,,,,,,,,,,,,,,,,,,,,,,,,,,,,,,,,,,,,,,,,,,,,,,,,,,,,,,,,,,,,,,,,,,,,,,,,,,,,,,,,,,,,,,,,,,,,,,,,,,,,,
1649446448.047872,1649446448.048426,39.000000,0.000000,4456.666504,4375.641113,4418.077148,4382.179688,4339.102539,4332.436035,4325.641113,4339.102539,4322.436035,4306.025879,4533.333496,4554.358887,4419.743652,4546.538574,0.000000,4.000000,80.000000,,,,0.000000,4.000000,4.000000,4.000000,4.000000,4.000000,4.000000,4.000000,4.000000,4.000000,4.000000,4.000000,4.000000,4.000000,4.000000,100.000000,,,,,,,,,,,,,,,,,,,,,,,,,,,,,,,,,,,,,,,,,,,,,,,,,,,,,,,,,,,,,,,,,,,,,,,,,,,,,,,,,,,,,,,,,,,,,,,,,,,,,,,,,,,,,,,,,,,,,,,,,,,,,,,,,
1649446448.055680,1649446448.056335,40.000000,0.000000,4445.256348,4371.282227,4418.461426,4387.051270,4339.743652,4331.666504,4322.948730,4334.487305,4322.692383,4302.307617,4520.256348,4554.102539,4414.871582,4533.461426,0.000000,4.000000,80.000000,,,,0.000000,4.000000,4.000000,4.000000,4.000000,4.000000,4.000000,4.000000,4.000000,4.000000,4.000000,4.000000,4.000000,4.000000,4.000000,100.000000,,,,,,,,,,,,,,,,,10.000000,0.000000,0.577187,0.439514,-0.556091,0.405518,1.005982,0.044927,-0.001953,-33.402416,6.304234,35.703819,,,,,,,,,,,,,,,,,,,,,,,,,,,,,,,,,,,,,,,,,,,,,,,,,,,,,,,,,,,,,,,,,,,,,,,,,,,,,,,,,,,,,,,,,,,,,,,,,,,,,
1649446448.063489,1649446448.064143,41.000000,0.000000,4430.384766,4359.230957,4410.384766,4375.512695,4333.589844,4326.794922,4321.538574,4337.948730,4324.102539,4303.077148,4526.794922,4552.307617,4421.282227,4532.948730,0.000000,4.000000,80.000000,,,,0.000000,4.000000,4.000000,4.000000,4.000000,4.000000,4.000000,4.000000,4.000000,4.000000,4.000000,4.000000,4.000000,4.000000,4.000000,100.000000,,,,,,,,,,,,,,,,,,,,,,,,,,,,,,,,,,,,,,,,,,,,,,,,,,,,,,,,,,,,,,,,,,,,,,,,,,,,,,,,,,,,,,,,,,,,,,,,,,,,,,,,,,,,,,,,,,,,,,,,,,,,,,,,,
1649446448.071297,1649446448.072051,42.000000,0.000000,4426.666504,4353.077148,4399.230957,4357.948730,4325.769043,4322.436035,4308.846191,4342.051270,4324.102539,4308.974121,4527.051270,4543.589844,4420.128418,4533.717773,0.000000,4.000000,80.000000,,,,0.000000,4.000000,4.000000,4.000000,4.000000,4.000000,4.000000,4.000000,4.000000,4.000000,4.000000,4.000000,4.000000,4.000000,4.000000,100.000000,,,,,,,,,,,,,,,,,,,,,,,,,,,,,,,,,,,,,,,,,,,,,,,,,,,,,,,,,,,,,,,,,,,,,,,,,,,,,,,,,,,,,,,,,,,,,,,,,,,,,,,,,,,,,,,,,,,,,,,,,,,,,,,,,
1649446448.079106,1649446448.079860,43.000000,0.000000,4427.563965,4357.692383,4396.794922,4367.692383,4335.641113,4324.487305,4312.436035,4341.794922,4325.256348,4311.153809,4520.641113,4536.794922,4411.153809,4528.333496,0.000000,4.000000,80.000000,,,,0.000000,4.000000,4.000000,4.000000,4.000000,4.000000,4.000000,4.000000,4.000000,4.000000,4.000000,4.000000,4.000000,4.000000,4.000000,100.000000,,,,,,,,,,,,,,,,,,,,,,,,,,,,,,,,,,,,,,,,,,,,,,,,,,,,,,,,,,,,5.635849,1.019508,0.283912,0.262514,0.175659,1.648684,0.694698,0.316920,0.314841,0.222110,3.209381,0.532434,0.144294,0.251140,0.131806,1.871871,1.011762,0.382900,0.406222,0.413824,0.612123,0.357890,0.218730,0.139022,0.120049,0.265979,0.433893,0.049204,0.118787,0.160137,0.410162,0.608142,0.180491,0.214089,0.352628,0.807140,0.610551,0.204057,0.201494,0.160151,0.572652,0.599791,0.182066,0.248788,0.152784,0.713355,0.827543,0.416201,0.439319,0.228701,3.779269,1.977552,0.374267,0.350379,0.379618,6.093488,2.448434,0.369693,0.405228,0.292005,3.204939,1.418571,0.377918,0.327604,0.373372,8.852777,2.063488,0.147110,0.446519,0.252549
1649446448.086914,1649446448.087768,44.000000,0.000000,4418.461426,4351.666504,4397.436035,4369.487305,4342.179688,4328.717773,4330.256348,4340.897461,4325.641113,4306.666504,4515.769043,4534.743652,4405.128418,4514.615234,0.000000,4.000000,80.000000,,,,0.000000,4.000000,4.000000,4.000000,4.000000,4.000000,4.000000,4.000000,4.000000,4.000000,4.000000,4.000000,4.000000,4.000000,4.000000,100.000000,,,,,,,,,,,,,,,,,11.000000,0.000000,0.577252,0.439331,-0.556213,0.405457,0.984007,0.052252,0.002442,-33.562172,6.273810,35.633438,,,,,,,,,,,,,,,,,,,,,,,,,,,,,,,,,,,,,,,,,,,,,,,,,,,,,,,,,,,,,,,,,,,,,,,,,,,,,,,,,,,,,,,,,,,,,,,,,,,,,
1649446448.094723,1649446448.095577,45.000000,0.000000,4407.820313,4338.205078,4391.153809,4351.282227,4333.205078,4326.538574,4328.077148,4339.871582,4325.769043,4299.230957,4511.153809,4531.666504,4409.102539,4506.538574,0.000000,4.000000,80.000000,,,,0.000000,4.000000,4.000000,4.000000,4.000000,4.000000,4.000000,4.000000,4.000000,4.000000,4.000000,4.000000,4.000000,4.000000,4.000000,100.000000,,,,,,,,,,,,,,,,,,,,,,,,,,,,,,,,,,,,,,,,,,,,,,,,,,,,,,,,,,,,,,,,,,,,,,,,,,,,,,,,,,,,,,,,,,,,,,,,,,,,,,,,,,,,,,,,,,,,,,,,,,,,,,,,,
1649446448.102531,1649446448.103485,46.000000,0.000000,4410.641113,4342.307617,4387.948730,4360.000000,4328.974121,4323.846191,4321.922852,4336.153809,4323.974121,4293.717773,4512.820313,4530.769043,4412.563965,4515.769043,0.000000,4.000000,80.000000,,,,0.000000,4.000000,4.000000,4.000000,4.000000,4.000000,4.000000,4.000000,4.000000,4.000000,4.000000,4.000000,4.000000,4.000000,4.000000,100.000000,,,,,,,,,,,,,,,,,,,,,,,,,,,,,,,,,,,,,,,,,,,,,,,,,,,,,,,,,,,,,,,,,,,,,,,,,,,,,,,,,,,,,,,,,,,,,,,,,,,,,,,,,,,,,,,,,,,,,,,,,,,,,,,,,
1649446448.110340,1649446448.111293,47.000000,0.000000,4417.179688,4357.563965,4397.307617,4384.871582,4335.384766,4332.692383,4330.897461,4335.256348,4324.615234,4299.615234,4520.897461,4538.974121,4415.641113,4521.794922,0.000000,4.000000,80.000000,,,,0.000000,4.000000,4.000000,4.000000,4.000000,4.000000,4.000000,4.000000,4.000000,4.000000,4.000000,4.000000,4.000000,4.000000,4.000000,100.000000,,,,,,,,,,,,,,,,,,,,,,,,,,,,,,,,,,,,,,,,,,,,,,,,,,,,,,,,,,,,,,,,,,,,,,,,,,,,,,,,,,,,,,,,,,,,,,,,,,,,,,,,,,,,,,,,,,,,,,,,,,,,,,,,,
1649446448.118148,1649446448.119002,48.000000,0.000000,4415.512695,4359.102539,4402.307617,4378.077148,4337.051270,4338.717773,4342.051270,4337.307617,4326.922852,4306.666504,4526.922852,4541.922852,4415.384766,4511.410156,0.000000,4.000000,80.000000,,,,0.000000,4.000000,4.000000,4.000000,4.000000,4.000000,4.000000,4.000000,4.000000,4.000000,4.000000,4.000000,4.000000,4.000000,4.000000,100.000000,,,,,,,,,,,,,,,,,12.000000,0.000000,0.577425,0.439392,-0.556030,0.405396,1.003541,0.042974,-0.006837,-33.622623,6.329763,35.620094,,,,,,,,,,,,,,,,,,,,,,,,,,,,,,,,,,,,,,,,,,,,,,,,,,,,,,,,,,,,,,,,,,,,,,,,,,,,,,,,,,,,,,,,,,,,,,,,,,,,,
1649446448.125956,1649446448.126810,49.000000,0.000000,4412.436035,4346.282227,4392.307617,4362.820313,4333.077148,4328.461426,4340.384766,4335.384766,4320.897461,4297.436035,4521.794922,4526.922852,4400.897461,4503.461426,0.000000,4.000000,80.000000,,,,0.000000,4.000000,4.000000,4.000000,4.000000,4.000000,4.000000,4.000000,4.000000,4.000000,4.000000,4.000000,4.000000,4.000000,4.000000,100.000000,,,,,,,,,,,,,,,,,,,,,,,,,,,,,,,,,,,,,,,,,,,,,,,,,,,,,,,,,,,,,,,,,,,,,,,,,,,,,,,,,,,,,,,,,,,,,,,,,,,,,,,,,,,,,,,,,,,,,,,,,,,,,,,,,
1649446448.133765,1649446448.134519,50.000000,0.000000,4409.230957,4342.436035,4388.077148,4362.436035,4332.820313,4327.563965,4334.230957,4333.974121,4318.974121,4290.897461,4515.641113,4523.846191,4397.179688,4507.436035,0.000000,4.000000,80.000000,,,,0.000000,4.000000,4.000000,4.000000,4.000000,4.000000,4.000000,4.000000,4.000000,4.000000,4.000000,4.000000,4.000000,4.000000,4.000000,100.000000,,,,,,,,,,,,,,,,,,,,,,,,,,,,,,,,,,,,,,,,,,,,,,,,,,,,,,,,,,,,,,,,,,,,,,,,,,,,,,,,,,,,,,,,,,,,,,,,,,,,,,,,,,,,,,,,,,,,,,,,,,,,,,,,,
1649446448.141573,1649446448.142327,51.000000,0.000000,4410.000000,4347.820313,4394.743652,4357.692383,4336.282227,4340.769043,4335.769043,4335.512695,4326.025879,4300.512695,4517.307617,4536.282227,4412.820313,4509.358887,0.000000,4.000000,80.000000,,,,0.000000,4.000000,4.000000,4.000000,4.000000,4.000000,4.000000,4.000000,4.000000,4.000000,4.000000,4.000000,4.000000,4.000000,4.000000,100.000000,,,,,,,,,,,,,,,,,,,,,,,,,,,,,,,,,,,,,,,,,,,,,,,,,,,,,,,,,,,,,,,,,,,,,,,,,,,,,,,,,,,,,,,,,,,,,,,,,,,,,,,,,,,,,,,,,,,,,,,,,,,,,,,,,
1649446448.149382,1649446448.150036,52.000000,0.000000,4415.512695,4350.512695,4402.563965,4361.794922,4341.410156,4341.153809,4342.051270,4334.743652,4326.794922,4310.000000,4520.256348,4535.512695,4415.000000,4512.179688,0.000000,4.000000,80.000000,,,,0.000000,4.000000,4.000000,4.000000,4.000000,4.000000,4.000000,4.000000,4.000000,4.000000,4.000000,4.000000,4.000000,4.000000,4.000000,100.000000,,,,,,,,,,,,,,,,,13.000000,0.000000,0.577512,0.439453,-0.555847,0.405457,0.993774,0.050299,0.002442,-33.710361,6.296786,35.558086,,,,,,,,,,,,,,,,,,,,,,,,,,,,,,,,,,,,,,,,,,,,,,,,,,,,,,,,,,,,,,,,,,,,,,,,,,,,,,,,,,,,,,,,,,,,,,,,,,,,,
1649446448.157190,1649446448.157844,53.000000,0.000000,4417.307617,4356.410156,4409.615234,4385.256348,4339.358887,4332.820313,4346.410156,4335.769043,4327.307617,4312.820313,4524.487305,4534.615234,4409.487305,4521.538574,0.000000,4.000000,80.000000,,,,0.000000,4.000000,4.000000,4.000000,4.000000,4.000000,4.000000,4.000000,4.000000,4.000000,4.000000,4.000000,4.000000,4.000000,4.000000,100.000000,,,,,,,,,,,,,,,,,,,,,,,,,,,,,,,,,,,,,,,,,,,,,,,,,,,,,,,,,,,,,,,,,,,,,,,,,,,,,,,,,,,,,,,,,,,,,,,,,,,,,,,,,,,,,,,,,,,,,,,,,,,,,,,,,
1649446448.164999,1649446448.165553,54.000000,0.000000,4413.589844,4358.974121,4406.922852,4390.256348,4335.000000,4333.846191,4338.077148,4338.077148,4326.410156,4308.461426,4519.487305,4541.666504,4410.384766,4518.974121,0.000000,4.000000,80.000000,,,,0.000000,4.000000,4.000000,4.000000,4.000000,4.000000,4.000000,4.000000,4.000000,4.000000,4.000000,4.000000,4.000000,4.000000,4.000000,100.000000,,,,,,,,,,,,,,,,,,,,,,,,,,,,,,,,,,,,,,,,,,,,,,,,,,,,,,,,,,,,,,,,,,,,,,,,,,,,,,,,,,,,,,,,,,,,,,,,,,,,,,,,,,,,,,,,,,,,,,,,,,,,,,,,,
1649446448.172807,1649446448.173461,55.000000,0.000000,4410.000000,4351.538574,4393.333496,4365.256348,4337.179688,4334.230957,4326.538574,4331.410156,4316.025879,4300.384766,4506.153809,4535.897461,4406.538574,4508.461426,0.000000,4.000000,80.000000,,,,0.000000,4.000000,4.000000,4.000000,4.000000,4.000000,4.000000,4.000000,4.000000,4.000000,4.000000,4.000000,4.000000,4.000000,4.000000,100.000000,,,,,,,,,,,,,,,,,,,,,,,,,,,,,,,,,,,,,,,,,,,,,,,,,,,,,,,,,,,,,,,,,,,,,,,,,,,,,,,,,,,,,,,,,,,,,,,,,,,,,,,,,,,,,,,,,,,,,,,,,,,,,,,,,
1649446448.180616,1649446448.181270,56.000000,0.000000,4412.563965,4350.000000,4394.743652,4351.666504,4339.743652,4330.256348,4330.641113,4327.307617,4316.410156,4300.769043,4513.846191,4531.922852,4411.153809,4507.948730,0.000000,4.000000,80.000000,,,,0.000000,4.000000,4.000000,4.000000,4.000000,4.000000,4.000000,4.000000,4.000000,4.000000,4.000000,4.000000,4.000000,4.000000,4.000000,100.000000,,,,,,,,,,,,,,,,,14.000000,0.000000,0.577422,0.439514,-0.555847,0.405518,0.981077,0.028812,-0.002930,-33.789326,6.150441,35.618942,,,,,,,,,,,,,,,,,,,,,,,,,,,,,,,,,,,,,,,,,,,,,,,,,,,,,,,,,,,,,,,,,,,,,,,,,,,,,,,,,,,,,,,,,,,,,,,,,,,,,
1649446448.188424,1649446448.189178,57.000000,0.000000,4415.000000,4359.487305,4410.256348,4369.743652,4337.948730,4329.743652,4341.025879,4337.179688,4330.256348,4302.820313,4533.333496,4545.256348,4426.794922,4511.410156,0.000000,4.000000,80.000000,,,,0.000000,4.000000,4.000000,4.000000,4.000000,4.000000,4.000000,4.000000,4.000000,4.000000,4.000000,4.000000,4.000000,4.000000,4.000000,100.000000,,,,,,,,,,,,,,,,,,,,,,,,,,,,,,,,,,,,,,,,,,,,,,,,,,,,,,,,,,,,,,,,,,,,,,,,,,,,,,,,,,,,,,,,,,,,,,,,,,,,,,,,,,,,,,,,,,,,,,,,,,,,,,,,,
1649446448.196232,1649446448.196986,58.000000,0.000000,4413.461426,4366.025879,4409.102539,4389.102539,4331.282227,4330.128418,4336.153809,4341.794922,4327.051270,4299.871582,4529.358887,4551.794922,4431.538574,4508.974121,0.000000,4.000000,80.000000,,,,0.000000,4.000000,4.000000,4.000000,4.000000,4.000000,4.000000,4.000000,4.000000,4.000000,4.000000,4.000000,4.000000,4.000000,4.000000,100.000000,,,,,,,,,,,,,,,,,,,,,,,,,,,,,,,,,,,,,,,,,,,,,,,,,,,,,,,,,,,,,,,,,,,,,,,,,,,,,,,,,,,,,,,,,,,,,,,,,,,,,,,,,,,,,,,,,,,,,,,,,,,,,,,,,
1649446448.204041,1649446448.204795,59.000000,0.000000,4415.512695,4368.846191,4398.077148,4380.128418,4327.820313,4326.025879,4327.307617,4334.615234,4316.538574,4303.333496,4521.282227,4546.282227,4427.948730,4508.589844,0.000000,4.000000,80.000000,,,,0.000000,4.000000,4.000000,4.000000,4.000000,4.000000,4.000000,4.000000,4.000000,4.000000,4.000000,4.000000,4.000000,4.000000,4.000000,100.000000,1.000000,58.333332,3.000000,4.000000,3.000000,4.000000,4.000000,4.000000,4.000000,4.000000,4.000000,4.000000,4.000000,3.000000,4.000000,1.000000,,,,,,,,,,,,,,,,,,,,,,,,,,,,,,,,,,,,,,,,,,,,9.202178,1.403409,0.391472,0.301066,0.158163,2.458969,0.782287,0.386052,0.316238,0.207099,4.241706,0.671511,0.222136,0.279032,0.124785,2.550361,1.100248,0.549371,0.408345,0.382273,0.731555,0.323411,0.199949,0.146794,0.127902,0.340074,0.430997,0.069199,0.134221,0.143852,0.505509,0.663044,0.187171,0.218053,0.322841,0.960052,0.580646,0.160345,0.192428,0.148743,0.743240,0.528940,0.150335,0.224955,0.153365,0.941046,0.712133,0.331451,0.432753,0.224245,4.872269,2.025522,0.464118,0.335591,0.395831,8.098463,2.444753,0.469432,0.452768,0.267867,4.588919,1.484252,0.467233,0.294690,0.393405,13.481543,2.441535,0.251378,0.468228,0.232347
1649446448.211849,1649446448.212503,60.000000,0.000000,4411.153809,4363.205078,4394.743652,4363.974121,4329.743652,4319.487305,4325.128418,4329.871582,4317.436035,4314.358887,4526.410156,4541.794922,4425.897461,4509.871582,0.000000,4.000000,80.000000,,,,0.000000,4.000000,4.000000,4.000000,4.000000,4.000000,4.000000,4.000000,4.000000,4.000000,4.000000,4.000000,4.000000,4.000000,4.000000,100.000000,,,,,,,,,,,,,,,,,15.000000,0.000000,0.577414,0.439392,-0.555908,0.405579,0.973752,0.023440,0.001953,-33.710392,5.918730,35.740383,,,,,,,,,,,,,,,,,,,,,,,,,,,,,,,,,,,,,,,,,,,,,,,,,,,,,,,,,,,,,,,,,,,,,,,,,,,,,,,,,,,,,,,,,,,,,,,,,,,,,
1649446448.219658,1649446448.220412,61.000000,0.000000,4398.589844,4349.230957,4394.871582,4365.384766,4327.051270,4316.025879,4314.871582,4328.846191,4318.974121,4311.666504,4522.563965,4536.410156,4425.384766,4506.794922,0.000000,4.000000,80.000000,,,,0.000000,4.000000,4.000000,4.000000,4.000000,4.000000,4.000000,4.000000,4.000000,4.000000,4.000000,4.000000,4.000000,4.000000,4.000000,100.000000,,,,,,,,,,,,,,,,,,,,,,,,,,,,,,,,,,,,,,,,,,,,,,,,,,,,,,,,,,,,,,,,,,,,,,,,,,,,,,,,,,,,,,,,,,,,,,,,,,,,,,,,,,,,,,,,,,,,,,,,,,,,,,,,,
1649446448.227466,1649446448.228220,62.000000,0.000000,4403.974121,4351.666504,4397.179688,4368.205078,4324.358887,4322.436035,4314.487305,4331.025879,4321.410156,4305.897461,4522.436035,4536.922852,4428.717773,4509.102539,0.000000,4.000000,80.000000,,,,0.000000,4.000000,4.000000,4.000000,4.000000,4.000000,4.000000,4.000000,4.000000,4.000000,4.000000,4.000000,4.000000,4.000000,4.000000,100.000000,,,,,,,,,,,,,,,,,,,,,,,,,,,,,,,,,,,,,,,,,,,,,,,,,,,,,,,,,,,,,,,,,,,,,,,,,,,,,,,,,,,,,,,,,,,,,,,,,,,,,,,,,,,,,,,,,,,,,,,,,,,,,,,,,
1649446448.235274,1649446448.236129,63.000000,0.000000,4419.358887,4368.333496,4402.179688,4369.743652,4330.384766,4327.307617,4330.897461,4337.307617,4326.410156,4311.025879,4534.743652,4546.666504,4431.538574,4512.820313,0.000000,4.000000,80.000000,,,,0.000000,4.000000,4.000000,4.000000,4.000000,4.000000,4.000000,4.000000,4.000000,4.000000,4.000000,4.000000,4.000000,4.000000,4.000000,100.000000,,,,,,,,,,,,,,,,,,,,,,,,,,,,,,,,,,,,,,,,,,,,,,,,,,,,,,,,,,,,,,,,,,,,,,,,,,,,,,,,,,,,,,,,,,,,,,,,,,,,,,,,,,,,,,,,,,,,,,,,,,,,,,,,,
1649446448.243083,1649446448.243937,64.000000,0.000000,4413.717773,4368.717773,4402.820313,4374.102539,4335.641113,4324.230957,4332.563965,4336.153809,4327.563965,4313.205078,4530.128418,4546.666504,4429.871582,4506.922852,2287.000000,4.000000,80.000000,,,,0.000000,4.000000,4.000000,4.000000,4.000000,4.000000,4.000000,4.000000,4.000000,4.000000,4.000000,4.000000,4.000000,4.000000,4.000000,100.000000,,,,,,,,,,,,,,,,,16.000000,0.000000,0.577491,0.439270,-0.555969,0.405518,0.989379,0.038579,-0.001465,-33.639355,5.960191,35.733009,,,,,,,,,,,,,,,,,,,,,,,,,,,,,,,,,,,,,,,,,,,,,,,,,,,,,,,,,,,,,,,,,,,,,,,,,,,,,,,,,,,,,,,,,,,,,,,,,,,,,
1649446448.250891,1649446448.251845,65.000000,0.000000,4401.282227,4355.769043,4397.436035,4374.102539,4333.974121,4320.769043,4324.230957,4331.666504,4325.641113,4309.102539,4517.436035,4538.077148,4432.307617,4505.769043,2464.000000,4.000000,80.000000,,,,0.000000,4.000000,4.000000,4.000000,4.000000,4.000000,4.000000,4.000000,4.000000,4.000000,4.000000,4.000000,4.000000,4.000000,4.000000,100.000000,,,,,,,,,,,,,,,,,,,,,,,,,,,,,,,,,,,,,,,,,,,,,,,,,,,,,,,,,,,,,,,,,,,,,,,,,,,,,,,,,,,,,,,,,,,,,,,,,,,,,,,,,,,,,,,,,,,,,,,,,,,,,,,,,
1649446448.258700,1649446448.259654,66.000000,0.000000,4396.538574,4354.358887,4391.538574,4374.230957,4335.000000,4323.077148,4324.358887,4331.410156,4321.538574,4303.974121,4521.410156,4534.358887,4429.615234,4505.897461,2429.000000,4.000000,80.000000,,,,0.000000,4.000000,4.000000,4.000000,4.000000,4.000000,4.000000,4.000000,4.000000,4.000000,4.000000,4.000000,4.000000,4.000000,4.000000,100.000000,,,,,,,,,,,,,,,,,,,,,,,,,,,,,,,,,,,,,,,,,,,,,,,,,,,,,,,,,,,,,,,,,,,,,,,,,,,,,,,,,,,,,,,,,,,,,,,,,,,,,,,,,,,,,,,,,,,,,,,,,,,,,,,,,
1649446448.266508,1649446448.267562,67.000000,0.000000,4391.410156,4360.641113,4383.333496,4375.769043,4336.025879,4325.384766,4320.512695,4330.128418,4320.256348,4299.230957,4526.282227,4536.410156,4422.051270,4496.282227,2438.000000,4.000000,80.000000,,,,0.000000,4.000000,4.000000,4.000000,4.000000,4.000000,4.000000,4.000000,4.000000,4.000000,4.000000,4.000000,4.000000,4.000000,4.000000,100.000000,,,,,,,,,,,,,,,,,,,,,,,,,,,,,,,,,,,,,,,,,,,,,,,,,,,,,,,,,,,,,,,,,,,,,,,,,,,,,,,,,,,,,,,,,,,,,,,,,,,,,,,,,,,,,,,,,,,,,,,,,,,,,,,,,
1649446448.274317,1649446448.275371,68.000000,0.000000,4387.051270,4360.128418,4378.077148,4370.000000,4328.461426,4318.974121,4312.051270,4323.717773,4317.820313,4291.794922,4516.666504,4532.563965,4427.948730,4487.820313,2421.000000,4.000000,80.000000,,,,0.000000,4.000000,4.000000,4.000000,4.000000,4.000000,4.000000,4.000000,4.000000,4.000000,4.000000,4.000000,4.000000,4.000000,4.000000,100.000000,,,,,,,,,,,,,,,,,17.000000,0.000000,0.577571,0.439087,-0.556030,0.405518,0.998657,0.036137,-0.001465,-33.708752,5.914172,35.726376,,,,,,,,,,,,,,,,,,,,,,,,,,,,,,,,,,,,,,,,,,,,,,,,,,,,,,,,,,,,,,,,,,,,,,,,,,,,,,,,,,,,,,,,,,,,,,,,,,,,,
1649446448.282125,1649446448.283279,69.000000,0.000000,4383.717773,4356.025879,4379.871582,4363.205078,4322.307617,4314.230957,4314.358887,4322.436035,4311.666504,4290.641113,4501.025879,4525.512695,4426.666504,4486.666504,2154.000000,4.000000,80.000000,,,,0.000000,4.000000,4.000000,4.000000,4.000000,4.000000,4.000000,4.000000,4.000000,4.000000,4.000000,4.000000,4.000000,4.000000,4.000000,100.000000,,,,,,,,,,,,,,,,,,,,,,,,,,,,,,,,,,,,,,,,,,,,,,,,,,,,,,,,,,,,,,,,,,,,,,,,,,,,,,,,,,,,,,,,,,,,,,,,,,,,,,,,,,,,,,,,,,,,,,,,,,,,,,,,,
1649446448.289934,1649446448.291087,70.000000,0.000000,4381.666504,4357.051270,4380.256348,4370.384766,4328.846191,4325.512695,4324.743652,4330.512695,4314.487305,4301.922852,4503.974121,4527.563965,4414.487305,4488.974121,2239.000000,4.000000,80.000000,,,,0.000000,4.000000,4.000000,4.000000,4.000000,4.000000,4.000000,4.000000,4.000000,4.000000,4.000000,4.000000,4.000000,4.000000,4.000000,100.000000,,,,,,,,,,,,,,,,,,,,,,,,,,,,,,,,,,,,,,,,,,,,,,,,,,,,,,,,,,,,,,,,,,,,,,,,,,,,,,,,,,,,,,,,,,,,,,,,,,,,,,,,,,,,,,,,,,,,,,,,,,,,,,,,,
1649446448.297742,1649446448.298796,71.000000,0.000000,4383.461426,4355.384766,4376.025879,4374.743652,4331.794922,4328.974121,4326.794922,4332.563965,4321.666504,4306.666504,4519.615234,4528.205078,4420.256348,4486.922852,2044.000000,4.000000,80.000000,,,,0.000000,4.000000,4.000000,4.000000,4.000000,4.000000,4.000000,4.000000,4.000000,4.000000,4.000000,4.000000,4.000000,4.000000,4.000000,100.000000,,,,,,,,,,,,,,,,,,,,,,,,,,,,,,,,,,,,,,,,,,,,,,,,,,,,,,,,,,,,,,,,,,,,,,,,,,,,,,,,,,,,,,,,,,,,,,,,,,,,,,,,,,,,,,,,,,,,,,,,,,,,,,,,,
1649446448.305550,1649446448.306604,72.000000,0.000000,4377.820313,4345.256348,4373.077148,4362.179688,4321.410156,4315.641113,4318.974121,4327.307617,4316.794922,4295.641113,4517.948730,4520.897461,4427.948730,4478.846191,1957.000000,4.000000,80.000000,,,,0.000000,4.000000,4.000000,4.000000,4.000000,4.000000,4.000000,4.000000,4.000000,4.000000,4.000000,4.000000,4.000000,4.000000,4.000000,100.000000,,,,,,,,,,,,,,,,,18.000000,0.000000,0.577616,0.438965,-0.556213,0.405334,0.989379,0.043951,0.000000,-33.654541,5.972754,35.903740,,,,,,,,,,,,,,,,,,,,,,,,,,,,,,,,,,,,,,,,,,,,,,,,,,,,,,,,,,,,,,,,,,,,,,,,,,,,,,,,,,,,,,,,,,,,,,,,,,,,,
1649446448.313359,1649446448.314313,73.000000,0.000000,4367.948730,4341.538574,4376.282227,4353.333496,4318.461426,4316.922852,4313.717773,4324.743652,4312.179688,4291.410156,4501.794922,4517.307617,4415.128418,4473.333496,2429.000000,4.000000,80.000000,,,,0.000000,4.000000,4.000000,4.000000,4.000000,4.000000,4.000000,4.000000,4.000000,4.000000,4.000000,4.000000,4.000000,4.000000,4.000000,100.000000,,,,,,,,,,,,,,,,,,,,,,,,,,,,,,,,,,,,,,,,,,,,,,,,,,,,,,,,,,,,,,,,,,,,,,,,,,,,,,,,,,,,,,,,,,,,,,,,,,,,,,,,,,,,,,,,,,,,,,,,,,,,,,,,,
1649446448.321167,1649446448.322121,74.000000,0.000000,4369.615234,4343.846191,4378.589844,4357.692383,4324.358887,4325.128418,4317.307617,4327.179688,4318.461426,4298.077148,4492.307617,4515.128418,4408.589844,4470.128418,2723.000000,4.000000,80.000000,,,,0.000000,4.000000,4.000000,4.000000,4.000000,4.000000,4.000000,4.000000,4.000000,4.000000,4.000000,4.000000,4.000000,4.000000,4.000000,100.000000,,,,,,,,,,,,,,,,,,,,,,,,,,,,,,,,,,,,,,,,,,,,,,,,,,,,,,,,,,,,,,,,,,,,,,,,,,,,,,,,,,,,,,,,,,,,,,,,,,,,,,,,,,,,,,,,,,,,,,,,,,,,,,,,,
1649446448.328976,1649446448.329830,75.000000,0.000000,4369.102539,4334.102539,4373.333496,4354.358887,4322.948730,4314.358887,4322.051270,4328.077148,4323.846191,4289.230957,4492.051270,4510.128418,4414.230957,4462.563965,2823.000000,4.000000,80.000000,,,,0.000000,4.000000,4.000000,4.000000,4.000000,4.000000,4.000000,4.000000,4.000000,4.000000,4.000000,4.000000,4.000000,4.000000,4.000000,100.000000,,,,,,,,,,,,,,,,,,,,,,,,,,,,,,,,,,,,,,,,,,,,,,,,,,,,,,,,,,,,15.851295,2.206482,0.566721,0.336984,0.153671,3.985390,0.940896,0.490028,0.322632,0.196482,5.791893,0.948847,0.337058,0.300234,0.118038,3.493567,1.169192,0.763634,0.406294,0.387050,0.896885,0.312969,0.194601,0.160389,0.138294,0.406274,0.412273,0.104090,0.157195,0.134652,0.665099,0.732313,0.216898,0.234577,0.296954,1.070952,0.534211,0.129650,0.178945,0.135378,0.866766,0.452168,0.124308,0.190589,0.154996,1.227603,0.617982,0.283900,0.419505,0.225336,6.312659,2.097070,0.570340,0.344760,0.406505,10.944363,2.539258,0.589584,0.476273,0.246648,6.925294,1.644946,0.584284,0.280541,0.402716,21.998907,3.274843,0.420048,0.480364,0.209388
1649446448.336784,1649446448.337638,76.000000,0.000000,4364.871582,4331.410156,4367.692383,4351.282227,4324.102539,4308.589844,4322.820313,4327.692383,4322.692383,4282.307617,4498.205078,4513.717773,4411.153809,4459.230957,3062.000000,4.000000,80.000000,,,,0.000000,4.000000,4.000000,4.000000,4.000000,4.000000,4.000000,4.000000,4.000000,4.000000,4.000000,4.000000,4.000000,4.000000,4.000000,100.000000,,,,,,,,,,,,,,,,,19.000000,0.000000,0.577557,0.438965,-0.556274,0.405334,0.989379,0.047369,-0.014162,-33.505756,6.158813,35.880032,,,,,,,,,,,,,,,,,,,,,,,,,,,,,,,,,,,,,,,,,,,,,,,,,,,,,,,,,,,,,,,,,,,,,,,,,,,,,,,,,,,,,,,,,,,,,,,,,,,,,
