title:Psychopy_Rahul_Earphones_Blink, start timestamp:1665722936.781860, stop timestamp:1665722997.804613, headset type:EPOCX, headset serial:E2020A42, headset firmware:720, channels:86, sampling rate:eeg_128;pm_2, samples:7816      , version:2.1, 
Timestamp,OriginalTimestamp,EEG.Counter,EEG.Interpolated,EEG.AF3,EEG.F7,EEG.F3,EEG.FC5,EEG.T7,EEG.P7,EEG.O1,EEG.O2,EEG.P8,EEG.T8,EEG.FC6,EEG.F4,EEG.F8,EEG.AF4,EEG.RawCq,EEG.Battery,EEG.BatteryPercent,MarkerIndex,MarkerType,MarkerValueInt,EEG.MarkerHardware,CQ.AF3,CQ.F7,CQ.F3,CQ.FC5,CQ.T7,CQ.P7,CQ.O1,CQ.O2,CQ.P8,CQ.T8,CQ.FC6,CQ.F4,CQ.F8,CQ.AF4,CQ.Overall,EQ.SampleRateQuality,EQ.OVERALL,EQ.AF3,EQ.F7,EQ.F3,EQ.FC5,EQ.T7,EQ.P7,EQ.O1,EQ.O2,EQ.P8,EQ.T8,EQ.FC6,EQ.F4,EQ.F8,EQ.AF4,PM.Engagement.IsActive,PM.Engagement.Scaled,PM.Engagement.Raw,PM.Engagement.Min,PM.Engagement.Max,PM.Excitement.IsActive,PM.Excitement.Scaled,PM.Excitement.Raw,PM.Excitement.Min,PM.Excitement.Max,PM.LongTermExcitement,PM.Stress.IsActive,PM.Stress.Scaled,PM.Stress.Raw,PM.Stress.Min,PM.Stress.Max,PM.Relaxation.IsActive,PM.Relaxation.Scaled,PM.Relaxation.Raw,PM.Relaxation.Min,PM.Relaxation.Max,PM.Interest.IsActive,PM.Interest.Scaled,PM.Interest.Raw,PM.Interest.Min,PM.Interest.Max,PM.Focus.IsActive,PM.Focus.Scaled,PM.Focus.Raw,PM.Focus.Min,PM.Focus.Max
1665722936.781860,1665722936.782860,99.000000,0.000000,4311.153809,4307.307617,4316.922852,4311.922852,4305.641113,4306.922852,4313.846191,4312.307617,4294.615234,4287.051270,4472.051270,4486.410156,4371.794922,4410.769043,1639.000000,4.000000,79.000000,,,,0.000000,4.000000,4.000000,4.000000,4.000000,4.000000,4.000000,4.000000,4.000000,4.000000,4.000000,4.000000,4.000000,4.000000,4.000000,100.000000,,,,,,,,,,,,,,,,,,,,,,,,,,,,,,,,,,,,,,,,,,,,,,,
1665722936.789668,1665722936.790769,100.000000,0.000000,4310.769043,4305.897461,4315.641113,4304.358887,4294.615234,4299.743652,4306.410156,4305.384766,4289.487305,4280.512695,4464.230957,4484.102539,4367.436035,4405.256348,2842.000000,4.000000,79.000000,,,,0.000000,4.000000,4.000000,4.000000,4.000000,4.000000,4.000000,4.000000,4.000000,4.000000,4.000000,4.000000,4.000000,4.000000,4.000000,100.000000,,,,,,,,,,,,,,,,,,,,,,,,,,,,,,,,,,,,,,,,,,,,,,,
1665722936.797477,1665722936.798577,101.000000,0.000000,4310.769043,4306.538574,4311.666504,4312.307617,4301.922852,4293.205078,4303.077148,4303.077148,4288.717773,4280.512695,4454.743652,4479.230957,4359.871582,4403.589844,2650.000000,4.000000,79.000000,,,,0.000000,4.000000,4.000000,4.000000,4.000000,4.000000,4.000000,4.000000,4.000000,4.000000,4.000000,4.000000,4.000000,4.000000,4.000000,100.000000,,,,,,,,,,,,,,,,,,,,,,,,,,,,,,,,,,,,,,,,,,,,,,,
1665722936.805285,1665722936.806485,102.000000,0.000000,4311.538574,4300.384766,4311.538574,4325.000000,4310.128418,4295.512695,4307.436035,4308.974121,4292.436035,4281.410156,4450.641113,4483.589844,4358.589844,4409.102539,2503.000000,4.000000,79.000000,,,,0.000000,4.000000,4.000000,4.000000,4.000000,4.000000,4.000000,4.000000,4.000000,4.000000,4.000000,4.000000,4.000000,4.000000,4.000000,100.000000,,,,,,,,,,,,,,,,,,,,,,,,,,,,,,,,,,,,,,,,,,,,,,,
1665722936.813094,1665722936.814394,103.000000,0.000000,4313.717773,4297.563965,4319.615234,4318.589844,4306.922852,4297.436035,4311.025879,4313.077148,4295.256348,4276.666504,4457.820313,4498.846191,4373.333496,4416.410156,1639.000000,4.000000,79.000000,,,,0.000000,4.000000,4.000000,4.000000,4.000000,4.000000,4.000000,4.000000,4.000000,4.000000,4.000000,4.000000,4.000000,4.000000,4.000000,100.000000,,,,,,,,,,,,,,,,,,,,,,,,,,,,,,,,,,,,,,,,,,,,,,,
1665722936.820902,1665722936.822202,104.000000,0.000000,4306.410156,4292.692383,4316.922852,4299.358887,4296.794922,4295.769043,4308.333496,4312.820313,4296.282227,4281.025879,4474.871582,4497.307617,4378.461426,4410.000000,2842.000000,4.000000,79.000000,,,,0.000000,4.000000,4.000000,4.000000,4.000000,4.000000,4.000000,4.000000,4.000000,4.000000,4.000000,4.000000,4.000000,4.000000,4.000000,100.000000,,,,,,,,,,,,,,,,,,,,,,,,,,,,,,,,,,,,,,,,,,,,,,,
1665722936.828710,1665722936.830011,105.000000,0.000000,4295.000000,4285.769043,4308.846191,4295.641113,4291.666504,4295.256348,4306.538574,4310.256348,4295.641113,4282.563965,4468.077148,4485.256348,4363.974121,4402.179688,2650.000000,4.000000,79.000000,,,,0.000000,4.000000,4.000000,4.000000,4.000000,4.000000,4.000000,4.000000,4.000000,4.000000,4.000000,4.000000,4.000000,4.000000,4.000000,100.000000,,,,,,,,,,,,,,,,,,,,,,,,,,,,,,,,,,,,,,,,,,,,,,,
1665722936.836519,1665722936.837719,106.000000,0.000000,4301.282227,4293.077148,4314.487305,4304.615234,4302.948730,4293.846191,4309.230957,4307.563965,4295.897461,4278.589844,4456.666504,4489.230957,4362.436035,4408.974121,2503.000000,4.000000,79.000000,,,,0.000000,4.000000,4.000000,4.000000,4.000000,4.000000,4.000000,4.000000,4.000000,4.000000,4.000000,4.000000,4.000000,4.000000,4.000000,100.000000,,,,,,,,,,,,,,,,,,,,,,,,,,,,,,,,,,,,,,,,,,,,,,,
1665722936.844327,1665722936.845528,107.000000,0.000000,4314.487305,4297.051270,4318.461426,4312.563965,4309.743652,4295.641113,4310.512695,4309.871582,4296.410156,4286.666504,4469.871582,4497.436035,4374.230957,4411.794922,1639.000000,4.000000,79.000000,,,,0.000000,4.000000,4.000000,4.000000,4.000000,4.000000,4.000000,4.000000,4.000000,4.000000,4.000000,4.000000,4.000000,4.000000,4.000000,100.000000,,,,,,,,,,,,,,,,,,,,,,,,,,,,,,,,,,,,,,,,,,,,,,,
1665722936.852136,1665722936.853236,108.000000,0.000000,4307.692383,4287.436035,4313.077148,4307.563965,4298.717773,4297.179688,4312.563965,4311.153809,4295.769043,4297.179688,4468.717773,4489.871582,4370.769043,4403.333496,2842.000000,4.000000,79.000000,,,,0.000000,4.000000,4.000000,4.000000,4.000000,4.000000,4.000000,4.000000,4.000000,4.000000,4.000000,4.000000,4.000000,4.000000,4.000000,100.000000,1.000000,91.666664,4.000000,4.000000,4.000000,4.000000,4.000000,4.000000,4.000000,4.000000,4.000000,3.000000,4.000000,4.000000,4.000000,4.000000,1.000000,0.779544,0.016175,-1.468243,0.643726,1.000000,0.054589,1.579019,1.274857,6.846686,0.292860,1.000000,0.249746,27.389822,-3.846603,107.709435,1.000000,0.146516,0.069884,0.058162,0.230312,1.000000,0.495113,4.046222,-1.225944,9.509116,1.000000,0.410073,0.410073,0.000000,1.000000
1665722936.859944,1665722936.861045,109.000000,0.000000,4297.820313,4286.922852,4310.512695,4301.794922,4289.487305,4295.769043,4309.487305,4308.846191,4296.922852,4289.871582,4443.205078,4485.256348,4361.153809,4402.307617,2650.000000,4.000000,79.000000,,,,0.000000,4.000000,4.000000,4.000000,4.000000,4.000000,4.000000,4.000000,4.000000,4.000000,4.000000,4.000000,4.000000,4.000000,4.000000,100.000000,,,,,,,,,,,,,,,,,,,,,,,,,,,,,,,,,,,,,,,,,,,,,,,
1665722936.867752,1665722936.868753,110.000000,0.000000,4297.051270,4291.538574,4306.410156,4305.641113,4297.820313,4294.487305,4300.769043,4309.358887,4297.692383,4277.307617,4444.615234,4485.897461,4361.538574,4402.948730,2503.000000,4.000000,79.000000,,,,0.000000,4.000000,4.000000,4.000000,4.000000,4.000000,4.000000,4.000000,4.000000,4.000000,4.000000,4.000000,4.000000,4.000000,4.000000,100.000000,,,,,,,,,,,,,,,,,,,,,,,,,,,,,,,,,,,,,,,,,,,,,,,
1665722936.875561,1665722936.876562,111.000000,0.000000,4295.769043,4290.641113,4301.410156,4307.820313,4308.461426,4295.128418,4303.333496,4309.102539,4293.846191,4281.794922,4467.563965,4480.641113,4366.153809,4398.333496,1639.000000,4.000000,79.000000,,,,0.000000,4.000000,4.000000,4.000000,4.000000,4.000000,4.000000,4.000000,4.000000,4.000000,4.000000,4.000000,4.000000,4.000000,4.000000,100.000000,,,,,,,,,,,,,,,,,,,,,,,,,,,,,,,,,,,,,,,,,,,,,,,
1665722936.883369,1665722936.884270,112.000000,0.000000,4299.743652,4293.077148,4311.666504,4305.897461,4306.794922,4301.538574,4315.897461,4311.794922,4296.153809,4291.153809,4474.102539,4482.948730,4373.077148,4404.102539,2842.000000,4.000000,79.000000,,,,0.000000,4.000000,4.000000,4.000000,4.000000,4.000000,4.000000,4.000000,4.000000,4.000000,4.000000,4.000000,4.000000,4.000000,4.000000,100.000000,,,,,,,,,,,,,,,,,,,,,,,,,,,,,,,,,,,,,,,,,,,,,,,
1665722936.891178,1665722936.892079,113.000000,0.000000,4310.897461,4299.615234,4324.230957,4309.230957,4306.922852,4307.820313,4318.846191,4319.102539,4307.179688,4290.641113,4475.641113,4496.025879,4378.333496,4412.563965,2650.000000,4.000000,79.000000,,,,0.000000,4.000000,4.000000,4.000000,4.000000,4.000000,4.000000,4.000000,4.000000,4.000000,4.000000,4.000000,4.000000,4.000000,4.000000,100.000000,,,,,,,,,,,,,,,,,,,,,,,,,,,,,,,,,,,,,,,,,,,,,,,
1665722936.898986,1665722936.899787,114.000000,0.000000,4313.974121,4303.077148,4320.256348,4320.000000,4312.051270,4305.128418,4315.512695,4318.717773,4307.179688,4284.358887,4473.333496,4502.948730,4378.461426,4412.051270,2503.000000,4.000000,79.000000,,,,0.000000,4.000000,4.000000,4.000000,4.000000,4.000000,4.000000,4.000000,4.000000,4.000000,4.000000,4.000000,4.000000,4.000000,4.000000,100.000000,,,,,,,,,,,,,,,,,,,,,,,,,,,,,,,,,,,,,,,,,,,,,,,
1665722936.906795,1665722936.907596,115.000000,0.000000,4300.384766,4299.743652,4302.820313,4323.846191,4312.820313,4299.615234,4312.563965,4307.179688,4295.128418,4277.179688,4451.025879,4489.230957,4367.563965,4404.615234,1639.000000,4.000000,79.000000,,,,0.000000,4.000000,4.000000,4.000000,4.000000,4.000000,4.000000,4.000000,4.000000,4.000000,4.000000,4.000000,4.000000,4.000000,4.000000,100.000000,,,,,,,,,,,,,,,,,,,,,,,,,,,,,,,,,,,,,,,,,,,,,,,
1665722936.914603,1665722936.915304,116.000000,0.000000,4287.563965,4292.820313,4294.358887,4316.153809,4309.358887,4300.512695,4307.563965,4307.307617,4293.461426,4277.692383,4443.333496,4474.230957,4356.794922,4399.615234,2842.000000,4.000000,79.000000,,,,0.000000,4.000000,4.000000,4.000000,4.000000,4.000000,4.000000,4.000000,4.000000,4.000000,4.000000,4.000000,4.000000,4.000000,4.000000,100.000000,,,,,,,,,,,,,,,,,,,,,,,,,,,,,,,,,,,,,,,,,,,,,,,
1665722936.922411,1665722936.923113,117.000000,0.000000,4287.563965,4290.897461,4304.358887,4301.025879,4309.487305,4308.589844,4313.077148,4315.897461,4299.743652,4280.897461,4456.666504,4477.179688,4356.666504,4400.000000,2650.000000,4.000000,79.000000,,,,0.000000,4.000000,4.000000,4.000000,4.000000,4.000000,4.000000,4.000000,4.000000,4.000000,4.000000,4.000000,4.000000,4.000000,4.000000,100.000000,,,,,,,,,,,,,,,,,,,,,,,,,,,,,,,,,,,,,,,,,,,,,,,
1665722936.930220,1665722936.930821,118.000000,0.000000,4293.846191,4294.743652,4318.333496,4298.589844,4313.077148,4311.410156,4322.692383,4314.871582,4297.692383,4281.153809,4456.410156,4483.974121,4358.077148,4405.000000,2503.000000,4.000000,79.000000,,,,0.000000,4.000000,4.000000,4.000000,4.000000,4.000000,4.000000,4.000000,4.000000,4.000000,4.000000,4.000000,4.000000,4.000000,4.000000,100.000000,,,,,,,,,,,,,,,,,,,,,,,,,,,,,,,,,,,,,,,,,,,,,,,
1665722936.938028,1665722936.938630,119.000000,0.000000,4300.641113,4295.384766,4317.948730,4316.538574,4312.436035,4303.717773,4318.205078,4310.897461,4295.000000,4281.282227,4453.589844,4482.692383,4357.820313,4408.589844,1639.000000,4.000000,79.000000,,,,0.000000,4.000000,4.000000,4.000000,4.000000,4.000000,4.000000,4.000000,4.000000,4.000000,4.000000,4.000000,4.000000,4.000000,4.000000,100.000000,,,,,,,,,,,,,,,,,,,,,,,,,,,,,,,,,,,,,,,,,,,,,,,
1665722936.945837,1665722936.946338,120.000000,0.000000,4301.410156,4296.410156,4307.948730,4326.666504,4306.922852,4297.307617,4306.794922,4311.410156,4296.538574,4276.666504,4457.948730,4478.846191,4358.717773,4408.461426,2842.000000,4.000000,79.000000,,,,0.000000,4.000000,4.000000,4.000000,4.000000,4.000000,4.000000,4.000000,4.000000,4.000000,4.000000,4.000000,4.000000,4.000000,4.000000,100.000000,,,,,,,,,,,,,,,,,,,,,,,,,,,,,,,,,,,,,,,,,,,,,,,
1665722936.953645,1665722936.954247,121.000000,0.000000,4291.666504,4294.487305,4303.205078,4313.461426,4299.871582,4298.846191,4300.897461,4311.538574,4295.897461,4275.641113,4445.897461,4478.846191,4357.436035,4406.410156,2650.000000,4.000000,79.000000,,,,0.000000,4.000000,4.000000,4.000000,4.000000,4.000000,4.000000,4.000000,4.000000,4.000000,4.000000,4.000000,4.000000,4.000000,4.000000,100.000000,,,,,,,,,,,,,,,,,,,,,,,,,,,,,,,,,,,,,,,,,,,,,,,
1665722936.961454,1665722936.962055,122.000000,0.000000,4282.692383,4283.205078,4303.077148,4297.179688,4303.846191,4296.282227,4301.922852,4310.128418,4292.948730,4276.666504,4431.025879,4477.179688,4352.563965,4401.922852,2503.000000,4.000000,79.000000,,,,0.000000,4.000000,4.000000,4.000000,4.000000,4.000000,4.000000,4.000000,4.000000,4.000000,4.000000,4.000000,4.000000,4.000000,4.000000,100.000000,,,,,,,,,,,,,,,,,,,,,,,,,,,,,,,,,,,,,,,,,,,,,,,
1665722936.969262,1665722936.969963,123.000000,0.000000,4287.436035,4282.051270,4302.436035,4304.358887,4314.615234,4294.615234,4308.333496,4310.128418,4294.615234,4269.871582,4443.717773,4471.666504,4353.717773,4402.820313,1639.000000,4.000000,79.000000,,,,0.000000,4.000000,4.000000,4.000000,4.000000,4.000000,4.000000,4.000000,4.000000,4.000000,4.000000,4.000000,4.000000,4.000000,4.000000,100.000000,,,,,,,,,,,,,,,,,,,,,,,,,,,,,,,,,,,,,,,,,,,,,,,
1665722936.977070,1665722936.977772,124.000000,0.000000,4296.922852,4291.794922,4311.282227,4312.948730,4312.563965,4305.512695,4316.282227,4312.563965,4299.230957,4275.384766,4460.769043,4474.102539,4361.282227,4410.384766,2842.000000,4.000000,79.000000,,,,0.000000,4.000000,4.000000,4.000000,4.000000,4.000000,4.000000,4.000000,4.000000,4.000000,4.000000,4.000000,4.000000,4.000000,4.000000,100.000000,,,,,,,,,,,,,,,,,,,,,,,,,,,,,,,,,,,,,,,,,,,,,,,
1665722936.984879,1665722936.985680,125.000000,0.000000,4298.333496,4291.538574,4316.666504,4310.641113,4302.307617,4309.102539,4315.256348,4313.461426,4299.743652,4290.384766,4457.179688,4481.794922,4362.179688,4411.922852,2650.000000,4.000000,79.000000,,,,0.000000,4.000000,4.000000,4.000000,4.000000,4.000000,4.000000,4.000000,4.000000,4.000000,4.000000,4.000000,4.000000,4.000000,4.000000,100.000000,,,,,,,,,,,,,,,,,,,,,,,,,,,,,,,,,,,,,,,,,,,,,,,
1665722936.992687,1665722936.993489,126.000000,0.000000,4293.205078,4286.153809,4302.051270,4309.230957,4304.487305,4296.794922,4307.051270,4308.461426,4292.692383,4284.871582,4443.589844,4480.512695,4356.538574,4406.666504,2503.000000,4.000000,79.000000,,,,0.000000,4.000000,4.000000,4.000000,4.000000,4.000000,4.000000,4.000000,4.000000,4.000000,4.000000,4.000000,4.000000,4.000000,4.000000,100.000000,,,,,,,,,,,,,,,,,,,,,,,,,,,,,,,,,,,,,,,,,,,,,,,
1665722937.000496,1665722937.001397,127.000000,0.000000,4293.589844,4294.487305,4299.230957,4308.461426,4313.717773,4292.307617,4305.384766,4303.846191,4285.128418,4271.794922,4440.000000,4476.922852,4356.794922,4405.000000,79.000000,4.000000,79.000000,,,,0.000000,4.000000,4.000000,4.000000,4.000000,4.000000,4.000000,4.000000,4.000000,4.000000,4.000000,4.000000,4.000000,4.000000,4.000000,100.000000,,,,,,,,,,,,,,,,,,,,,,,,,,,,,,,,,,,,,,,,,,,,,,,
1665722937.008304,1665722937.009205,0.000000,0.000000,4299.102539,4303.205078,4308.589844,4310.256348,4311.666504,4299.358887,4309.102539,4305.384766,4287.307617,4274.487305,4447.692383,4483.333496,4361.666504,4407.179688,1664.000000,4.000000,79.000000,,,,0.000000,4.000000,4.000000,4.000000,4.000000,4.000000,4.000000,4.000000,4.000000,4.000000,4.000000,4.000000,4.000000,4.000000,4.000000,100.000000,,,,,,,,,,,,,,,,,,,,,,,,,,,,,,,,,,,,,,,,,,,,,,,
1665722937.016112,1665722937.017114,1.000000,0.000000,4304.487305,4298.461426,4306.025879,4318.846191,4307.563965,4305.384766,4310.256348,4308.077148,4295.384766,4279.871582,4458.461426,4489.487305,4366.025879,4411.025879,1758.000000,4.000000,79.000000,,,,0.000000,4.000000,4.000000,4.000000,4.000000,4.000000,4.000000,4.000000,4.000000,4.000000,4.000000,4.000000,4.000000,4.000000,4.000000,100.000000,,,,,,,,,,,,,,,,,,,,,,,,,,,,,,,,,,,,,,,,,,,,,,,
1665722937.023921,1665722937.024922,2.000000,0.000000,4307.820313,4292.692383,4303.717773,4319.743652,4310.769043,4305.256348,4311.282227,4309.230957,4300.512695,4289.615234,4468.846191,4488.461426,4372.948730,4413.205078,2344.000000,4.000000,79.000000,,,,0.000000,4.000000,4.000000,4.000000,4.000000,4.000000,4.000000,4.000000,4.000000,4.000000,4.000000,4.000000,4.000000,4.000000,4.000000,100.000000,,,,,,,,,,,,,,,,,,,,,,,,,,,,,,,,,,,,,,,,,,,,,,,
1665722937.031729,1665722937.032631,3.000000,0.000000,4301.025879,4292.051270,4311.538574,4303.205078,4307.436035,4301.794922,4311.922852,4311.025879,4296.153809,4288.717773,4467.563965,4488.589844,4370.897461,4409.102539,2165.000000,4.000000,79.000000,,,,0.000000,4.000000,4.000000,4.000000,4.000000,4.000000,4.000000,4.000000,4.000000,4.000000,4.000000,4.000000,4.000000,4.000000,4.000000,100.000000,,,,,,,,,,,,,,,,,,,,,,,,,,,,,,,,,,,,,,,,,,,,,,,
1665722937.039538,1665722937.040539,4.000000,0.000000,4297.307617,4298.717773,4311.153809,4306.153809,4305.641113,4302.179688,4310.769043,4309.487305,4293.974121,4274.615234,4464.487305,4488.846191,4362.692383,4406.025879,1840.000000,4.000000,79.000000,,,,0.000000,4.000000,4.000000,4.000000,4.000000,4.000000,4.000000,4.000000,4.000000,4.000000,4.000000,4.000000,4.000000,4.000000,4.000000,100.000000,,,,,,,,,,,,,,,,,,,,,,,,,,,,,,,,,,,,,,,,,,,,,,,
1665722937.047346,1665722937.048348,5.000000,0.000000,4308.333496,4303.846191,4308.974121,4321.922852,4311.538574,4310.641113,4313.205078,4311.410156,4301.153809,4281.153809,4460.897461,4491.410156,4366.922852,4412.307617,2202.000000,4.000000,79.000000,,,,0.000000,4.000000,4.000000,4.000000,4.000000,4.000000,4.000000,4.000000,4.000000,4.000000,4.000000,4.000000,4.000000,4.000000,4.000000,100.000000,,,,,,,,,,,,,,,,,,,,,,,,,,,,,,,,,,,,,,,,,,,,,,,
1665722937.055154,1665722937.056156,6.000000,0.000000,4311.025879,4296.282227,4310.128418,4317.051270,4312.563965,4310.512695,4315.512695,4314.102539,4300.512695,4288.974121,4446.794922,4489.487305,4368.077148,4409.615234,2354.000000,4.000000,79.000000,,,,0.000000,4.000000,4.000000,4.000000,4.000000,4.000000,4.000000,4.000000,4.000000,4.000000,4.000000,4.000000,4.000000,4.000000,4.000000,100.000000,,,,,,,,,,,,,,,,,,,,,,,,,,,,,,,,,,,,,,,,,,,,,,,
1665722937.062963,1665722937.063865,7.000000,0.000000,4306.666504,4294.102539,4308.717773,4310.128418,4311.282227,4298.974121,4311.025879,4310.512695,4295.384766,4282.179688,4454.102539,4486.666504,4363.974121,4405.000000,1671.000000,4.000000,79.000000,,,,0.000000,4.000000,4.000000,4.000000,4.000000,4.000000,4.000000,4.000000,4.000000,4.000000,4.000000,4.000000,4.000000,4.000000,4.000000,100.000000,,,,,,,,,,,,,,,,,,,,,,,,,,,,,,,,,,,,,,,,,,,,,,,
1665722937.070771,1665722937.071673,8.000000,0.000000,4307.948730,4300.384766,4311.025879,4307.820313,4311.794922,4292.307617,4300.128418,4304.358887,4296.282227,4281.282227,4475.256348,4489.102539,4370.000000,4408.333496,2107.000000,4.000000,79.000000,,,,0.000000,4.000000,4.000000,4.000000,4.000000,4.000000,4.000000,4.000000,4.000000,4.000000,4.000000,4.000000,4.000000,4.000000,4.000000,100.000000,,,,,,,,,,,,,,,,,,,,,,,,,,,,,,,,,,,,,,,,,,,,,,,
1665722937.078580,1665722937.079382,9.000000,0.000000,4303.461426,4296.153809,4313.846191,4306.922852,4307.436035,4298.077148,4298.846191,4307.051270,4296.922852,4283.205078,4469.615234,4489.487305,4369.230957,4409.230957,2316.000000,4.000000,79.000000,,,,0.000000,4.000000,4.000000,4.000000,4.000000,4.000000,4.000000,4.000000,4.000000,4.000000,4.000000,4.000000,4.000000,4.000000,4.000000,100.000000,,,,,,,,,,,,,,,,,,,,,,,,,,,,,,,,,,,,,,,,,,,,,,,
1665722937.086388,1665722937.087190,10.000000,0.000000,4298.589844,4294.358887,4310.128418,4317.051270,4310.769043,4308.077148,4313.333496,4313.461426,4296.666504,4278.974121,4454.102539,4486.410156,4359.743652,4407.692383,2508.000000,4.000000,79.000000,,,,0.000000,4.000000,4.000000,4.000000,4.000000,4.000000,4.000000,4.000000,4.000000,4.000000,4.000000,4.000000,4.000000,4.000000,4.000000,100.000000,,,,,,,,,,,,,,,,,,,,,,,,,,,,,,,,,,,,,,,,,,,,,,,
1665722937.094196,1665722937.094899,11.000000,0.000000,4302.179688,4306.794922,4302.948730,4332.051270,4323.589844,4311.666504,4318.589844,4312.179688,4299.358887,4281.025879,4453.974121,4483.333496,4360.897461,4407.820313,1653.000000,4.000000,79.000000,,,,0.000000,4.000000,4.000000,4.000000,4.000000,4.000000,4.000000,4.000000,4.000000,4.000000,4.000000,4.000000,4.000000,4.000000,4.000000,100.000000,,,,,,,,,,,,,,,,,,,,,,,,,,,,,,,,,,,,,,,,,,,,,,,
1665722937.102005,1665722937.102707,12.000000,0.000000,4306.538574,4313.846191,4305.384766,4324.487305,4319.230957,4310.256348,4309.871582,4308.205078,4300.000000,4288.205078,4460.897461,4481.410156,4367.692383,4408.205078,2777.000000,4.000000,79.000000,,,,0.000000,4.000000,4.000000,4.000000,4.000000,4.000000,4.000000,4.000000,4.000000,4.000000,4.000000,4.000000,4.000000,4.000000,4.000000,100.000000,,,,,,,,,,,,,,,,,,,,,,,,,,,,,,,,,,,,,,,,,,,,,,,
1665722937.109813,1665722937.110416,13.000000,0.000000,4314.871582,4310.000000,4321.153809,4311.282227,4308.205078,4314.871582,4313.589844,4314.102539,4299.615234,4279.230957,4466.282227,4489.358887,4370.769043,4411.282227,2663.000000,4.000000,79.000000,,,,0.000000,4.000000,4.000000,4.000000,4.000000,4.000000,4.000000,4.000000,4.000000,4.000000,4.000000,4.000000,4.000000,4.000000,4.000000,100.000000,,,,,,,,,,,,,,,,,,,,,,,,,,,,,,,,,,,,,,,,,,,,,,,
1665722937.117622,1665722937.118324,14.000000,0.000000,4318.974121,4307.692383,4323.974121,4321.282227,4310.128418,4316.666504,4321.282227,4320.256348,4302.563965,4265.384766,4455.000000,4495.897461,4367.051270,4412.692383,2508.000000,4.000000,79.000000,,,,0.000000,4.000000,4.000000,4.000000,4.000000,4.000000,4.000000,4.000000,4.000000,4.000000,4.000000,4.000000,4.000000,4.000000,4.000000,100.000000,,,,,,,,,,,,,,,,,,,,,,,,,,,,,,,,,,,,,,,,,,,,,,,
1665722937.125430,1665722937.126132,15.000000,0.000000,4304.871582,4305.641113,4307.307617,4324.230957,4311.410156,4310.641113,4312.692383,4313.333496,4302.692383,4272.307617,4440.384766,4482.692383,4356.922852,4405.512695,1653.000000,4.000000,79.000000,,,,0.000000,4.000000,4.000000,4.000000,4.000000,4.000000,4.000000,4.000000,4.000000,4.000000,4.000000,4.000000,4.000000,4.000000,4.000000,100.000000,,,,,,,,,,,,,,,,,,,,,,,,,,,,,,,,,,,,,,,,,,,,,,,
1665722937.133239,1665722937.134041,16.000000,0.000000,4299.743652,4303.717773,4305.512695,4313.461426,4309.615234,4310.897461,4311.153809,4312.179688,4304.487305,4296.282227,4456.282227,4476.282227,4354.743652,4403.717773,0.000000,4.000000,79.000000,,,,0.000000,4.000000,4.000000,4.000000,4.000000,4.000000,4.000000,4.000000,4.000000,4.000000,4.000000,4.000000,4.000000,4.000000,4.000000,100.000000,,,,,,,,,,,,,,,,,,,,,,,,,,,,,,,,,,,,,,,,,,,,,,,
1665722937.141047,1665722937.141849,17.000000,0.000000,4305.512695,4301.794922,4313.717773,4309.102539,4314.487305,4315.384766,4318.333496,4318.461426,4307.948730,4302.179688,4471.153809,4485.512695,4360.256348,4407.307617,0.000000,4.000000,79.000000,,,,0.000000,4.000000,4.000000,4.000000,4.000000,4.000000,4.000000,4.000000,4.000000,4.000000,4.000000,4.000000,4.000000,4.000000,4.000000,100.000000,,,,,,,,,,,,,,,,,,,,,,,,,,,,,,,,,,,,,,,,,,,,,,,
1665722937.148855,1665722937.149757,18.000000,0.000000,4296.794922,4292.179688,4308.333496,4311.282227,4315.512695,4309.743652,4313.717773,4314.743652,4300.897461,4282.692383,4455.128418,4486.153809,4356.538574,4404.358887,0.000000,4.000000,79.000000,,,,0.000000,4.000000,4.000000,4.000000,4.000000,4.000000,4.000000,4.000000,4.000000,4.000000,4.000000,4.000000,4.000000,4.000000,4.000000,100.000000,,,,,,,,,,,,,,,,,,,,,,,,,,,,,,,,,,,,,,,,,,,,,,,
1665722937.156664,1665722937.157566,19.000000,0.000000,4294.102539,4290.128418,4304.487305,4310.769043,4310.769043,4306.153809,4309.358887,4308.077148,4293.974121,4270.128418,4442.692383,4480.000000,4351.794922,4402.563965,0.000000,4.000000,79.000000,,,,0.000000,4.000000,4.000000,4.000000,4.000000,4.000000,4.000000,4.000000,4.000000,4.000000,4.000000,4.000000,4.000000,4.000000,4.000000,100.000000,,,,,,,,,,,,,,,,,,,,,,,,,,,,,,,,,,,,,,,,,,,,,,,
1665722937.164472,1665722937.165474,20.000000,0.000000,4300.512695,4298.333496,4306.025879,4311.410156,4314.487305,4310.641113,4312.436035,4312.307617,4296.794922,4268.846191,4441.153809,4478.077148,4347.307617,4404.230957,0.000000,4.000000,79.000000,,,,0.000000,4.000000,4.000000,4.000000,4.000000,4.000000,4.000000,4.000000,4.000000,4.000000,4.000000,4.000000,4.000000,4.000000,4.000000,100.000000,,,,,,,,,,,,,,,,,,,,,,,,,,,,,,,,,,,,,,,,,,,,,,,
1665722937.172281,1665722937.173283,21.000000,0.000000,4299.487305,4294.102539,4303.717773,4311.282227,4310.769043,4309.230957,4309.230957,4312.436035,4295.128418,4274.358887,4438.077148,4477.436035,4346.153809,4403.461426,0.000000,4.000000,79.000000,,,,0.000000,4.000000,4.000000,4.000000,4.000000,4.000000,4.000000,4.000000,4.000000,4.000000,4.000000,4.000000,4.000000,4.000000,4.000000,100.000000,,,,,,,,,,,,,,,,,,,,,,,,,,,,,,,,,,,,,,,,,,,,,,,
1665722937.180089,1665722937.181191,22.000000,0.000000,4301.922852,4291.410156,4311.282227,4309.871582,4303.846191,4304.615234,4310.000000,4309.230957,4292.051270,4278.077148,4450.897461,4486.410156,4358.077148,4408.974121,0.000000,4.000000,79.000000,,,,0.000000,4.000000,4.000000,4.000000,4.000000,4.000000,4.000000,4.000000,4.000000,4.000000,4.000000,4.000000,4.000000,4.000000,4.000000,100.000000,,,,,,,,,,,,,,,,,,,,,,,,,,,,,,,,,,,,,,,,,,,,,,,
1665722937.187898,1665722937.188999,23.000000,0.000000,4314.743652,4306.025879,4320.769043,4322.051270,4319.615234,4311.025879,4323.974121,4316.794922,4303.077148,4278.333496,4469.102539,4499.358887,4368.333496,4415.384766,0.000000,4.000000,79.000000,,,,0.000000,4.000000,4.000000,4.000000,4.000000,4.000000,4.000000,4.000000,4.000000,4.000000,4.000000,4.000000,4.000000,4.000000,4.000000,100.000000,,,,,,,,,,,,,,,,,,,,,,,,,,,,,,,,,,,,,,,,,,,,,,,
1665722937.195706,1665722937.196908,24.000000,0.000000,4322.436035,4312.692383,4321.666504,4331.794922,4327.179688,4319.230957,4329.743652,4321.410156,4311.025879,4288.077148,4466.282227,4500.000000,4365.641113,4416.922852,0.000000,4.000000,79.000000,,,,0.000000,4.000000,4.000000,4.000000,4.000000,4.000000,4.000000,4.000000,4.000000,4.000000,4.000000,4.000000,4.000000,4.000000,4.000000,100.000000,,,,,,,,,,,,,,,,,,,,,,,,,,,,,,,,,,,,,,,,,,,,,,,
1665722937.203514,1665722937.204716,25.000000,0.000000,4320.256348,4301.282227,4321.538574,4326.410156,4307.820313,4315.384766,4324.358887,4316.666504,4302.436035,4298.461426,4458.461426,4492.820313,4361.282227,4411.282227,0.000000,4.000000,79.000000,,,,0.000000,4.000000,4.000000,4.000000,4.000000,4.000000,4.000000,4.000000,4.000000,4.000000,4.000000,4.000000,4.000000,4.000000,4.000000,100.000000,,,,,,,,,,,,,,,,,,,,,,,,,,,,,,,,,,,,,,,,,,,,,,,
1665722937.211323,1665722937.212425,26.000000,0.000000,4314.871582,4297.179688,4320.897461,4321.410156,4308.589844,4310.384766,4324.615234,4316.794922,4300.128418,4290.128418,4461.794922,4492.307617,4360.128418,4406.410156,0.000000,4.000000,79.000000,,,,0.000000,4.000000,4.000000,4.000000,4.000000,4.000000,4.000000,4.000000,4.000000,4.000000,4.000000,4.000000,4.000000,4.000000,4.000000,100.000000,,,,,,,,,,,,,,,,,,,,,,,,,,,,,,,,,,,,,,,,,,,,,,,
1665722937.219131,1665722937.220233,27.000000,0.000000,4315.256348,4305.512695,4322.820313,4316.410156,4325.897461,4313.846191,4328.077148,4322.179688,4307.948730,4275.512695,4453.846191,4503.205078,4361.153809,4411.410156,0.000000,4.000000,79.000000,,,,0.000000,4.000000,4.000000,4.000000,4.000000,4.000000,4.000000,4.000000,4.000000,4.000000,4.000000,4.000000,4.000000,4.000000,4.000000,100.000000,,,,,,,,,,,,,,,,,,,,,,,,,,,,,,,,,,,,,,,,,,,,,,,
1665722937.226940,1665722937.227942,28.000000,0.000000,4314.871582,4306.666504,4323.846191,4312.436035,4318.846191,4313.717773,4322.563965,4321.666504,4307.563965,4272.307617,4444.871582,4501.538574,4358.461426,4411.538574,0.000000,4.000000,79.000000,,,,0.000000,4.000000,4.000000,4.000000,4.000000,4.000000,4.000000,4.000000,4.000000,4.000000,4.000000,4.000000,4.000000,4.000000,4.000000,100.000000,,,,,,,,,,,,,,,,,,,,,,,,,,,,,,,,,,,,,,,,,,,,,,,
1665722937.234748,1665722937.235850,29.000000,0.000000,4301.794922,4298.333496,4311.025879,4313.846191,4308.589844,4308.717773,4318.333496,4317.436035,4302.051270,4274.102539,4453.589844,4480.384766,4347.692383,4400.128418,0.000000,4.000000,79.000000,,,,0.000000,4.000000,4.000000,4.000000,4.000000,4.000000,4.000000,4.000000,4.000000,4.000000,4.000000,4.000000,4.000000,4.000000,4.000000,100.000000,,,,,,,,,,,,,,,,,,,,,,,,,,,,,,,,,,,,,,,,,,,,,,,
1665722937.242556,1665722937.243659,30.000000,0.000000,4301.922852,4294.743652,4305.000000,4316.282227,4312.051270,4312.948730,4323.846191,4315.000000,4303.077148,4276.538574,4457.563965,4476.410156,4344.615234,4401.282227,0.000000,4.000000,79.000000,,,,0.000000,4.000000,4.000000,4.000000,4.000000,4.000000,4.000000,4.000000,4.000000,4.000000,4.000000,4.000000,4.000000,4.000000,4.000000,100.000000,,,,,,,,,,,,,,,,,,,,,,,,,,,,,,,,,,,,,,,,,,,,,,,
1665722937.250365,1665722937.251567,31.000000,0.000000,4316.410156,4301.410156,4316.538574,4317.307617,4313.589844,4318.589844,4324.871582,4319.230957,4303.589844,4277.692383,4449.743652,4490.641113,4352.307617,4413.077148,0.000000,4.000000,79.000000,,,,0.000000,4.000000,4.000000,4.000000,4.000000,4.000000,4.000000,4.000000,4.000000,4.000000,4.000000,4.000000,4.000000,4.000000,4.000000,100.000000,,,,,,,,,,,,,,,,,,,,,,,,,,,,,,,,,,,,,,,,,,,,,,,
1665722937.258173,1665722937.259375,32.000000,0.000000,4316.025879,4307.692383,4316.153809,4322.051270,4318.077148,4313.846191,4320.256348,4321.410156,4299.487305,4274.230957,4452.436035,4492.307617,4355.897461,4410.000000,0.000000,4.000000,79.000000,,,,0.000000,4.000000,4.000000,4.000000,4.000000,4.000000,4.000000,4.000000,4.000000,4.000000,4.000000,4.000000,4.000000,4.000000,4.000000,100.000000,,,,,,,,,,,,,,,,,,,,,,,,,,,,,,,,,,,,,,,,,,,,,,,
1665722937.265982,1665722937.267284,33.000000,0.000000,4311.153809,4308.077148,4309.871582,4321.025879,4321.922852,4308.077148,4316.794922,4315.384766,4295.641113,4276.794922,4452.307617,4487.179688,4353.717773,4404.743652,0.000000,4.000000,79.000000,,,,0.000000,4.000000,4.000000,4.000000,4.000000,4.000000,4.000000,4.000000,4.000000,4.000000,4.000000,4.000000,4.000000,4.000000,4.000000,100.000000,,,,,,,,,,,,,,,,,,,,,,,,,,,,,,,,,,,,,,,,,,,,,,,
1665722937.273790,1665722937.275092,34.000000,0.000000,4320.641113,4310.256348,4320.641113,4310.128418,4316.025879,4310.384766,4314.743652,4316.025879,4298.846191,4291.282227,4447.820313,4493.205078,4356.410156,4408.461426,0.000000,4.000000,79.000000,,,,0.000000,4.000000,4.000000,4.000000,4.000000,4.000000,4.000000,4.000000,4.000000,4.000000,4.000000,4.000000,4.000000,4.000000,4.000000,100.000000,,,,,,,,,,,,,,,,,,,,,,,,,,,,,,,,,,,,,,,,,,,,,,,
1665722937.281598,1665722937.282901,35.000000,0.000000,4322.436035,4309.615234,4326.666504,4313.974121,4311.153809,4314.487305,4316.794922,4324.102539,4304.102539,4296.410156,4458.589844,4497.563965,4361.282227,4411.025879,0.000000,4.000000,79.000000,,,,0.000000,4.000000,4.000000,4.000000,4.000000,4.000000,4.000000,4.000000,4.000000,4.000000,4.000000,4.000000,4.000000,4.000000,4.000000,100.000000,,,,,,,,,,,,,,,,,,,,,,,,,,,,,,,,,,,,,,,,,,,,,,,
1665722937.289407,1665722937.290609,36.000000,0.000000,4305.769043,4301.538574,4310.128418,4320.256348,4313.205078,4310.000000,4313.846191,4317.820313,4300.641113,4279.615234,4463.333496,4486.922852,4354.743652,4404.230957,0.000000,4.000000,79.000000,,,,0.000000,4.000000,4.000000,4.000000,4.000000,4.000000,4.000000,4.000000,4.000000,4.000000,4.000000,4.000000,4.000000,4.000000,4.000000,100.000000,,,,,,,,,,,,,,,,,,,,,,,,,,,,,,,,,,,,,,,,,,,,,,,
1665722937.297215,1665722937.298418,37.000000,0.000000,4288.717773,4287.692383,4295.128418,4304.230957,4313.846191,4302.051270,4300.000000,4307.179688,4291.666504,4270.128418,4443.846191,4471.666504,4337.948730,4393.461426,0.000000,4.000000,79.000000,,,,0.000000,4.000000,4.000000,4.000000,4.000000,4.000000,4.000000,4.000000,4.000000,4.000000,4.000000,4.000000,4.000000,4.000000,4.000000,100.000000,,,,,,,,,,,,,,,,,,,,,,,,,,,,,,,,,,,,,,,,,,,,,,,
1665722937.305024,1665722937.306126,38.000000,0.000000,4277.307617,4275.384766,4289.102539,4295.128418,4312.051270,4302.179688,4299.102539,4305.641113,4283.205078,4268.589844,4424.358887,4460.384766,4325.512695,4390.384766,0.000000,4.000000,79.000000,,,,0.000000,4.000000,4.000000,4.000000,4.000000,4.000000,4.000000,4.000000,4.000000,4.000000,4.000000,4.000000,4.000000,4.000000,4.000000,100.000000,,,,,,,,,,,,,,,,,,,,,,,,,,,,,,,,,,,,,,,,,,,,,,,
1665722937.312832,1665722937.313935,39.000000,0.000000,4277.179688,4276.025879,4289.102539,4302.436035,4303.717773,4302.948730,4309.102539,4303.717773,4277.051270,4240.256348,4412.179688,4455.641113,4319.102539,4396.153809,0.000000,4.000000,79.000000,,,,0.000000,4.000000,4.000000,4.000000,4.000000,4.000000,4.000000,4.000000,4.000000,4.000000,4.000000,4.000000,4.000000,4.000000,4.000000,100.000000,,,,,,,,,,,,,,,,,,,,,,,,,,,,,,,,,,,,,,,,,,,,,,,
1665722937.320640,1665722937.321643,40.000000,0.000000,4283.077148,4283.717773,4293.717773,4302.436035,4297.563965,4299.102539,4303.974121,4301.153809,4275.256348,4227.051270,4406.922852,4456.794922,4318.333496,4396.922852,0.000000,4.000000,79.000000,,,,0.000000,4.000000,4.000000,4.000000,4.000000,4.000000,4.000000,4.000000,4.000000,4.000000,4.000000,4.000000,4.000000,4.000000,4.000000,100.000000,,,,,,,,,,,,,,,,,,,,,,,,,,,,,,,,,,,,,,,,,,,,,,,
1665722937.328449,1665722937.329552,41.000000,0.000000,4289.743652,4290.384766,4303.333496,4301.666504,4305.128418,4302.948730,4303.461426,4308.333496,4284.230957,4267.179688,4430.641113,4469.615234,4333.717773,4399.358887,0.000000,4.000000,79.000000,,,,0.000000,4.000000,4.000000,4.000000,4.000000,4.000000,4.000000,4.000000,4.000000,4.000000,4.000000,4.000000,4.000000,4.000000,4.000000,100.000000,,,,,,,,,,,,,,,,,,,,,,,,,,,,,,,,,,,,,,,,,,,,,,,
1665722937.336257,1665722937.337360,42.000000,0.000000,4305.128418,4297.307617,4314.743652,4310.000000,4316.922852,4315.256348,4321.922852,4314.230957,4297.436035,4295.641113,4461.153809,4485.512695,4355.256348,4409.230957,0.000000,4.000000,79.000000,,,,0.000000,4.000000,4.000000,4.000000,4.000000,4.000000,4.000000,4.000000,4.000000,4.000000,4.000000,4.000000,4.000000,4.000000,4.000000,100.000000,,,,,,,,,,,,,,,,,,,,,,,,,,,,,,,,,,,,,,,,,,,,,,,
1665722937.344066,1665722937.345268,43.000000,0.000000,4311.025879,4301.153809,4312.179688,4316.922852,4316.025879,4317.563965,4325.256348,4312.692383,4303.589844,4288.333496,4462.820313,4487.307617,4363.333496,4409.358887,0.000000,4.000000,79.000000,,,,0.000000,4.000000,4.000000,4.000000,4.000000,4.000000,4.000000,4.000000,4.000000,4.000000,4.000000,4.000000,4.000000,4.000000,4.000000,100.000000,,,,,,,,,,,,,,,,,,,,,,,,,,,,,,,,,,,,,,,,,,,,,,,
1665722937.351874,1665722937.353077,44.000000,0.000000,4301.282227,4301.794922,4300.641113,4321.025879,4313.461426,4313.846191,4313.717773,4313.846191,4306.410156,4290.897461,4456.153809,4481.922852,4358.589844,4403.717773,0.000000,4.000000,79.000000,,,,0.000000,4.000000,4.000000,4.000000,4.000000,4.000000,4.000000,4.000000,4.000000,4.000000,4.000000,4.000000,4.000000,4.000000,4.000000,100.000000,1.000000,91.666664,4.000000,4.000000,4.000000,4.000000,4.000000,4.000000,4.000000,4.000000,4.000000,3.000000,4.000000,4.000000,4.000000,4.000000,1.000000,0.778989,0.151596,-1.468268,0.644228,1.000000,0.042523,1.511789,1.274857,6.846686,0.287282,1.000000,0.249444,27.346222,-3.853013,107.698677,1.000000,0.143895,0.083273,0.058157,0.230289,1.000000,0.491404,3.993079,-1.225214,9.508154,1.000000,0.407625,0.407625,0.000000,1.000000
1665722937.359683,1665722937.360985,45.000000,0.000000,4297.692383,4302.307617,4300.000000,4317.948730,4324.358887,4315.256348,4313.974121,4316.666504,4309.358887,4295.256348,4459.871582,4485.641113,4354.358887,4404.743652,0.000000,4.000000,79.000000,,,,0.000000,4.000000,4.000000,4.000000,4.000000,4.000000,4.000000,4.000000,4.000000,4.000000,4.000000,4.000000,4.000000,4.000000,4.000000,100.000000,,,,,,,,,,,,,,,,,,,,,,,,,,,,,,,,,,,,,,,,,,,,,,,
1665722937.367491,1665722937.368794,46.000000,0.000000,4308.717773,4305.512695,4310.128418,4313.205078,4325.384766,4320.897461,4320.256348,4319.743652,4311.922852,4286.410156,4461.153809,4490.512695,4356.025879,4408.717773,0.000000,4.000000,79.000000,,,,0.000000,4.000000,4.000000,4.000000,4.000000,4.000000,4.000000,4.000000,4.000000,4.000000,4.000000,4.000000,4.000000,4.000000,4.000000,100.000000,,,,,,,,,,,,,,,,,,,,,,,,,,,,,,,,,,,,,,,,,,,,,,,
1665722937.375299,1665722937.376702,47.000000,0.000000,4312.820313,4310.769043,4313.333496,4315.512695,4309.487305,4325.384766,4323.717773,4322.820313,4312.436035,4286.282227,4457.692383,4488.846191,4358.333496,4408.077148,0.000000,4.000000,79.000000,,,,0.000000,4.000000,4.000000,4.000000,4.000000,4.000000,4.000000,4.000000,4.000000,4.000000,4.000000,4.000000,4.000000,4.000000,4.000000,100.000000,,,,,,,,,,,,,,,,,,,,,,,,,,,,,,,,,,,,,,,,,,,,,,,
1665722937.383108,1665722937.384510,48.000000,0.000000,4303.333496,4307.436035,4311.282227,4313.717773,4307.820313,4321.025879,4325.512695,4321.794922,4307.692383,4284.487305,4455.897461,4488.974121,4357.307617,4406.666504,0.000000,4.000000,79.000000,,,,0.000000,4.000000,4.000000,4.000000,4.000000,4.000000,4.000000,4.000000,4.000000,4.000000,4.000000,4.000000,4.000000,4.000000,4.000000,100.000000,,,,,,,,,,,,,,,,,,,,,,,,,,,,,,,,,,,,,,,,,,,,,,,
1665722937.390916,1665722937.392219,49.000000,0.000000,4302.563965,4297.436035,4308.974121,4313.717773,4319.102539,4314.358887,4325.384766,4319.358887,4303.205078,4284.358887,4457.307617,4493.333496,4360.384766,4407.692383,0.000000,4.000000,79.000000,,,,0.000000,4.000000,4.000000,4.000000,4.000000,4.000000,4.000000,4.000000,4.000000,4.000000,4.000000,4.000000,4.000000,4.000000,4.000000,100.000000,,,,,,,,,,,,,,,,,,,,,,,,,,,,,,,,,,,,,,,,,,,,,,,
1665722937.398725,1665722937.400027,50.000000,0.000000,4308.717773,4295.769043,4311.794922,4316.794922,4314.230957,4313.846191,4321.922852,4320.512695,4307.051270,4295.641113,4470.000000,4494.358887,4368.589844,4409.615234,0.000000,4.000000,79.000000,,,,0.000000,4.000000,4.000000,4.000000,4.000000,4.000000,4.000000,4.000000,4.000000,4.000000,4.000000,4.000000,4.000000,4.000000,4.000000,100.000000,,,,,,,,,,,,,,,,,,,,,,,,,,,,,,,,,,,,,,,,,,,,,,,
1665722937.406533,1665722937.407736,51.000000,0.000000,4310.128418,4300.384766,4318.717773,4309.230957,4302.436035,4316.025879,4321.922852,4322.307617,4314.358887,4299.743652,4479.871582,4492.179688,4373.205078,4409.358887,0.000000,4.000000,79.000000,,,,0.000000,4.000000,4.000000,4.000000,4.000000,4.000000,4.000000,4.000000,4.000000,4.000000,4.000000,4.000000,4.000000,4.000000,4.000000,100.000000,,,,,,,,,,,,,,,,,,,,,,,,,,,,,,,,,,,,,,,,,,,,,,,
1665722937.414342,1665722937.415544,52.000000,0.000000,4309.102539,4303.974121,4316.666504,4311.794922,4311.666504,4313.974121,4324.487305,4324.102539,4316.025879,4296.410156,4475.256348,4494.615234,4370.128418,4408.205078,0.000000,4.000000,79.000000,,,,0.000000,4.000000,4.000000,4.000000,4.000000,4.000000,4.000000,4.000000,4.000000,4.000000,4.000000,4.000000,4.000000,4.000000,4.000000,100.000000,,,,,,,,,,,,,,,,,,,,,,,,,,,,,,,,,,,,,,,,,,,,,,,
1665722937.422150,1665722937.423253,53.000000,0.000000,4307.692383,4305.897461,4306.025879,4318.846191,4324.615234,4312.307617,4323.333496,4323.974121,4312.563965,4293.077148,4461.410156,4496.025879,4360.512695,4405.128418,0.000000,4.000000,79.000000,,,,0.000000,4.000000,4.000000,4.000000,4.000000,4.000000,4.000000,4.000000,4.000000,4.000000,4.000000,4.000000,4.000000,4.000000,4.000000,100.000000,,,,,,,,,,,,,,,,,,,,,,,,,,,,,,,,,,,,,,,,,,,,,,,
1665722937.429958,1665722937.431061,54.000000,0.000000,4309.102539,4300.641113,4307.051270,4314.230957,4317.307617,4319.615234,4326.666504,4324.615234,4311.282227,4290.769043,4451.282227,4494.230957,4360.000000,4405.512695,0.000000,4.000000,79.000000,,,,0.000000,4.000000,4.000000,4.000000,4.000000,4.000000,4.000000,4.000000,4.000000,4.000000,4.000000,4.000000,4.000000,4.000000,4.000000,100.000000,,,,,,,,,,,,,,,,,,,,,,,,,,,,,,,,,,,,,,,,,,,,,,,
1665722937.437767,1665722937.438770,55.000000,0.000000,4311.666504,4295.641113,4313.717773,4313.717773,4309.358887,4322.436035,4329.358887,4325.641113,4314.230957,4290.769043,4460.512695,4489.487305,4371.025879,4408.846191,0.000000,4.000000,79.000000,,,,0.000000,4.000000,4.000000,4.000000,4.000000,4.000000,4.000000,4.000000,4.000000,4.000000,4.000000,4.000000,4.000000,4.000000,4.000000,100.000000,,,,,,,,,,,,,,,,,,,,,,,,,,,,,,,,,,,,,,,,,,,,,,,
1665722937.445575,1665722937.446578,56.000000,0.000000,4312.051270,4301.025879,4313.974121,4314.743652,4318.717773,4316.410156,4321.025879,4324.487305,4309.743652,4287.436035,4470.512695,4489.871582,4371.025879,4407.563965,0.000000,4.000000,79.000000,,,,0.000000,4.000000,4.000000,4.000000,4.000000,4.000000,4.000000,4.000000,4.000000,4.000000,4.000000,4.000000,4.000000,4.000000,4.000000,100.000000,,,,,,,,,,,,,,,,,,,,,,,,,,,,,,,,,,,,,,,,,,,,,,,
1665722937.453384,1665722937.454287,57.000000,0.000000,4309.871582,4307.051270,4311.410156,4317.563965,4321.666504,4315.384766,4316.025879,4320.641113,4299.230957,4278.205078,4463.205078,4494.102539,4362.307617,4403.846191,0.000000,4.000000,79.000000,,,,0.000000,4.000000,4.000000,4.000000,4.000000,4.000000,4.000000,4.000000,4.000000,4.000000,4.000000,4.000000,4.000000,4.000000,4.000000,100.000000,,,,,,,,,,,,,,,,,,,,,,,,,,,,,,,,,,,,,,,,,,,,,,,
1665722937.461192,1665722937.462095,58.000000,0.000000,4307.948730,4305.512695,4307.948730,4328.205078,4309.871582,4319.358887,4320.000000,4321.153809,4296.922852,4275.128418,4456.153809,4489.358887,4361.282227,4403.589844,0.000000,4.000000,79.000000,,,,0.000000,4.000000,4.000000,4.000000,4.000000,4.000000,4.000000,4.000000,4.000000,4.000000,4.000000,4.000000,4.000000,4.000000,4.000000,100.000000,,,,,,,,,,,,,,,,,,,,,,,,,,,,,,,,,,,,,,,,,,,,,,,
1665722937.469000,1665722937.469804,59.000000,0.000000,4307.307617,4300.384766,4308.333496,4323.846191,4308.205078,4312.563965,4317.436035,4323.461426,4299.743652,4282.051270,4456.410156,4482.051270,4360.384766,4404.358887,0.000000,4.000000,79.000000,,,,0.000000,4.000000,4.000000,4.000000,4.000000,4.000000,4.000000,4.000000,4.000000,4.000000,4.000000,4.000000,4.000000,4.000000,4.000000,100.000000,,,,,,,,,,,,,,,,,,,,,,,,,,,,,,,,,,,,,,,,,,,,,,,
1665722937.476809,1665722937.477612,60.000000,0.000000,4310.897461,4296.794922,4314.871582,4305.256348,4313.205078,4305.641113,4313.333496,4320.128418,4301.538574,4286.410156,4451.538574,4486.282227,4360.000000,4405.897461,0.000000,4.000000,79.000000,,,,0.000000,4.000000,4.000000,4.000000,4.000000,4.000000,4.000000,4.000000,4.000000,4.000000,4.000000,4.000000,4.000000,4.000000,4.000000,100.000000,,,,,,,,,,,,,,,,,,,,,,,,,,,,,,,,,,,,,,,,,,,,,,,
1665722937.484617,1665722937.485321,61.000000,0.000000,4309.487305,4295.641113,4314.358887,4302.307617,4311.410156,4311.410156,4318.333496,4320.000000,4302.692383,4286.794922,4452.563965,4491.666504,4366.025879,4408.589844,0.000000,4.000000,79.000000,,,,0.000000,4.000000,4.000000,4.000000,4.000000,4.000000,4.000000,4.000000,4.000000,4.000000,4.000000,4.000000,4.000000,4.000000,4.000000,100.000000,,,,,,,,,,,,,,,,,,,,,,,,,,,,,,,,,,,,,,,,,,,,,,,
1665722937.492426,1665722937.493129,62.000000,0.000000,4294.871582,4295.769043,4301.410156,4313.461426,4305.256348,4314.358887,4320.384766,4320.769043,4300.769043,4285.641113,4465.000000,4482.692383,4367.563965,4405.641113,0.000000,4.000000,79.000000,,,,0.000000,4.000000,4.000000,4.000000,4.000000,4.000000,4.000000,4.000000,4.000000,4.000000,4.000000,4.000000,4.000000,4.000000,4.000000,100.000000,,,,,,,,,,,,,,,,,,,,,,,,,,,,,,,,,,,,,,,,,,,,,,,
1665722937.500234,1665722937.500838,63.000000,0.000000,4292.692383,4296.794922,4299.230957,4318.077148,4300.897461,4312.436035,4314.871582,4316.922852,4294.743652,4284.871582,4464.615234,4476.538574,4365.256348,4403.589844,0.000000,4.000000,79.000000,,,,0.000000,4.000000,4.000000,4.000000,4.000000,4.000000,4.000000,4.000000,4.000000,4.000000,4.000000,4.000000,4.000000,4.000000,4.000000,100.000000,,,,,,,,,,,,,,,,,,,,,,,,,,,,,,,,,,,,,,,,,,,,,,,
1665722937.508042,1665722937.508646,64.000000,0.000000,4302.820313,4297.307617,4312.051270,4310.641113,4303.461426,4309.871582,4312.820313,4313.461426,4294.102539,4282.179688,4451.153809,4481.153809,4363.461426,4403.717773,1623.000000,4.000000,79.000000,,,,0.000000,4.000000,4.000000,4.000000,4.000000,4.000000,4.000000,4.000000,4.000000,4.000000,4.000000,4.000000,4.000000,4.000000,4.000000,100.000000,,,,,,,,,,,,,,,,,,,,,,,,,,,,,,,,,,,,,,,,,,,,,,,
1665722937.515851,1665722937.516355,65.000000,0.000000,4301.153809,4292.307617,4315.769043,4301.666504,4306.282227,4306.922852,4312.436035,4314.871582,4297.051270,4268.205078,4445.512695,4483.077148,4358.077148,4402.307617,1761.000000,4.000000,79.000000,,,,0.000000,4.000000,4.000000,4.000000,4.000000,4.000000,4.000000,4.000000,4.000000,4.000000,4.000000,4.000000,4.000000,4.000000,4.000000,100.000000,,,,,,,,,,,,,,,,,,,,,,,,,,,,,,,,,,,,,,,,,,,,,,,
1665722937.523659,1665722937.524263,66.000000,0.000000,4299.230957,4292.436035,4305.256348,4308.461426,4304.871582,4304.871582,4309.230957,4315.128418,4293.974121,4262.179688,4449.358887,4480.897461,4357.820313,4404.102539,2329.000000,4.000000,79.000000,,,,0.000000,4.000000,4.000000,4.000000,4.000000,4.000000,4.000000,4.000000,4.000000,4.000000,4.000000,4.000000,4.000000,4.000000,4.000000,100.000000,,,,,,,,,,,,,,,,,,,,,,,,,,,,,,,,,,,,,,,,,,,,,,,
1665722937.531468,1665722937.532072,67.000000,0.000000,4308.205078,4302.820313,4306.794922,4319.102539,4302.436035,4309.871582,4315.000000,4318.333496,4296.153809,4284.615234,4458.077148,4486.666504,4367.820313,4411.025879,2160.000000,4.000000,79.000000,,,,0.000000,4.000000,4.000000,4.000000,4.000000,4.000000,4.000000,4.000000,4.000000,4.000000,4.000000,4.000000,4.000000,4.000000,4.000000,100.000000,,,,,,,,,,,,,,,,,,,,,,,,,,,,,,,,,,,,,,,,,,,,,,,
1665722937.539276,1665722937.539980,68.000000,0.000000,4317.179688,4308.461426,4320.769043,4318.461426,4308.205078,4321.922852,4329.743652,4325.384766,4309.743652,4308.205078,4472.948730,4497.948730,4378.461426,4415.128418,1852.000000,4.000000,79.000000,,,,0.000000,4.000000,4.000000,4.000000,4.000000,4.000000,4.000000,4.000000,4.000000,4.000000,4.000000,4.000000,4.000000,4.000000,4.000000,100.000000,,,,,,,,,,,,,,,,,,,,,,,,,,,,,,,,,,,,,,,,,,,,,,,
1665722937.547084,1665722937.547788,69.000000,0.000000,4316.025879,4305.000000,4322.179688,4316.282227,4318.461426,4320.512695,4326.666504,4324.102539,4311.153809,4306.666504,4479.230957,4497.948730,4378.461426,4413.461426,2197.000000,4.000000,79.000000,,,,0.000000,4.000000,4.000000,4.000000,4.000000,4.000000,4.000000,4.000000,4.000000,4.000000,4.000000,4.000000,4.000000,4.000000,4.000000,100.000000,,,,,,,,,,,,,,,,,,,,,,,,,,,,,,,,,,,,,,,,,,,,,,,
1665722937.554893,1665722937.555697,70.000000,0.000000,4300.256348,4294.871582,4311.153809,4311.922852,4312.436035,4306.282227,4309.743652,4317.179688,4296.538574,4283.974121,4463.589844,4485.000000,4362.820313,4403.974121,2351.000000,4.000000,79.000000,1,1,1,0.000000,4.000000,4.000000,4.000000,4.000000,4.000000,4.000000,4.000000,4.000000,4.000000,4.000000,4.000000,4.000000,4.000000,4.000000,100.000000,,,,,,,,,,,,,,,,,,,,,,,,,,,,,,,,,,,,,,,,,,,,,,,
1665722937.562701,1665722937.563505,71.000000,0.000000,4291.153809,4285.256348,4309.358887,4309.358887,4299.487305,4304.871582,4306.538574,4316.025879,4293.717773,4266.153809,4448.717773,4478.717773,4350.897461,4401.025879,1658.000000,4.000000,79.000000,,,,0.000000,4.000000,4.000000,4.000000,4.000000,4.000000,4.000000,4.000000,4.000000,4.000000,4.000000,4.000000,4.000000,4.000000,4.000000,100.000000,,,,,,,,,,,,,,,,,,,,,,,,,,,,,,,,,,,,,,,,,,,,,,,
1665722937.570510,1665722937.571414,72.000000,0.000000,4305.512695,4295.641113,4312.820313,4318.846191,4303.461426,4313.589844,4313.077148,4315.641113,4298.077148,4275.384766,4453.461426,4488.717773,4362.820313,4411.410156,2105.000000,4.000000,79.000000,,,,0.000000,4.000000,4.000000,4.000000,4.000000,4.000000,4.000000,4.000000,4.000000,4.000000,4.000000,4.000000,4.000000,4.000000,4.000000,100.000000,,,,,,,,,,,,,,,,,,,,,,,,,,,,,,,,,,,,,,,,,,,,,,,
1665722937.578318,1665722937.579222,73.000000,0.000000,4315.897461,4307.820313,4311.025879,4322.948730,4310.256348,4312.820313,4314.102539,4316.153809,4296.025879,4297.436035,4458.205078,4494.102539,4372.948730,4416.282227,2281.000000,4.000000,79.000000,,,,0.000000,4.000000,4.000000,4.000000,4.000000,4.000000,4.000000,4.000000,4.000000,4.000000,4.000000,4.000000,4.000000,4.000000,4.000000,100.000000,,,,,,,,,,,,,,,,,,,,,,,,,,,,,,,,,,,,,,,,,,,,,,,
1665722937.586127,1665722937.587130,74.000000,0.000000,4310.897461,4300.897461,4313.077148,4313.974121,4308.974121,4311.666504,4319.487305,4320.128418,4303.461426,4298.846191,4463.846191,4491.410156,4368.974121,4411.282227,2488.000000,4.000000,79.000000,,,,0.000000,4.000000,4.000000,4.000000,4.000000,4.000000,4.000000,4.000000,4.000000,4.000000,4.000000,4.000000,4.000000,4.000000,4.000000,100.000000,,,,,,,,,,,,,,,,,,,,,,,,,,,,,,,,,,,,,,,,,,,,,,,
1665722937.593935,1665722937.594939,75.000000,0.000000,4311.794922,4295.769043,4315.512695,4313.461426,4315.000000,4316.794922,4327.692383,4324.871582,4314.487305,4282.436035,4473.205078,4496.282227,4370.897461,4410.384766,1628.000000,4.000000,79.000000,,,,0.000000,4.000000,4.000000,4.000000,4.000000,4.000000,4.000000,4.000000,4.000000,4.000000,4.000000,4.000000,4.000000,4.000000,4.000000,100.000000,,,,,,,,,,,,,,,,,,,,,,,,,,,,,,,,,,,,,,,,,,,,,,,
1665722937.601743,1665722937.602647,76.000000,0.000000,4306.410156,4298.333496,4308.461426,4321.025879,4311.025879,4313.846191,4320.512695,4322.051270,4307.692383,4280.897461,4463.077148,4492.307617,4365.128418,4403.589844,2810.000000,4.000000,79.000000,,,,0.000000,4.000000,4.000000,4.000000,4.000000,4.000000,4.000000,4.000000,4.000000,4.000000,4.000000,4.000000,4.000000,4.000000,4.000000,100.000000,,,,,,,,,,,,,,,,,,,,,,,,,,,,,,,,,,,,,,,,,,,,,,,
1665722937.609552,1665722937.610456,77.000000,0.000000,4295.769043,4294.230957,4307.179688,4310.512695,4300.000000,4306.538574,4305.641113,4312.692383,4294.358887,4288.333496,4446.410156,4479.358887,4350.384766,4396.922852,2625.000000,4.000000,79.000000,,,,0.000000,4.000000,4.000000,4.000000,4.000000,4.000000,4.000000,4.000000,4.000000,4.000000,4.000000,4.000000,4.000000,4.000000,4.000000,100.000000,,,,,,,,,,,,,,,,,,,,,,,,,,,,,,,,,,,,,,,,,,,,,,,
1665722937.617360,1665722937.618164,78.000000,0.000000,4302.051270,4294.230957,4315.384766,4306.666504,4307.436035,4305.641113,4304.871582,4310.641113,4294.358887,4290.512695,4455.512695,4480.512695,4353.461426,4404.102539,2488.000000,4.000000,79.000000,,,,0.000000,4.000000,4.000000,4.000000,4.000000,4.000000,4.000000,4.000000,4.000000,4.000000,4.000000,4.000000,4.000000,4.000000,4.000000,100.000000,,,,,,,,,,,,,,,,,,,,,,,,,,,,,,,,,,,,,,,,,,,,,,,
1665722937.625169,1665722937.625973,79.000000,0.000000,4311.538574,4301.794922,4313.717773,4325.641113,4313.461426,4313.205078,4311.538574,4317.307617,4302.179688,4287.948730,4465.000000,4488.077148,4365.000000,4408.205078,1628.000000,4.000000,79.000000,,,,0.000000,4.000000,4.000000,4.000000,4.000000,4.000000,4.000000,4.000000,4.000000,4.000000,4.000000,4.000000,4.000000,4.000000,4.000000,100.000000,,,,,,,,,,,,,,,,,,,,,,,,,,,,,,,,,,,,,,,,,,,,,,,
1665722937.632977,1665722937.633681,80.000000,0.000000,4307.307617,4297.179688,4308.846191,4323.333496,4304.358887,4317.820313,4309.487305,4319.358887,4302.692383,4280.641113,4450.256348,4486.538574,4359.102539,4405.512695,2810.000000,4.000000,79.000000,,,,0.000000,4.000000,4.000000,4.000000,4.000000,4.000000,4.000000,4.000000,4.000000,4.000000,4.000000,4.000000,4.000000,4.000000,4.000000,100.000000,,,,,,,,,,,,,,,,,,,,,,,,,,,,,,,,,,,,,,,,,,,,,,,
1665722937.640786,1665722937.641490,81.000000,0.000000,4310.000000,4295.384766,4316.794922,4309.871582,4303.846191,4313.717773,4311.666504,4317.436035,4298.461426,4282.820313,4452.692383,4490.384766,4355.769043,4410.256348,2625.000000,4.000000,79.000000,,,,0.000000,4.000000,4.000000,4.000000,4.000000,4.000000,4.000000,4.000000,4.000000,4.000000,4.000000,4.000000,4.000000,4.000000,4.000000,100.000000,,,,,,,,,,,,,,,,,,,,,,,,,,,,,,,,,,,,,,,,,,,,,,,
1665722937.648594,1665722937.649198,82.000000,0.000000,4322.436035,4303.589844,4322.563965,4323.717773,4312.051270,4311.794922,4318.717773,4322.179688,4303.333496,4285.897461,4475.769043,4500.897461,4366.922852,4413.974121,2488.000000,4.000000,79.000000,,,,0.000000,4.000000,4.000000,4.000000,4.000000,4.000000,4.000000,4.000000,4.000000,4.000000,4.000000,4.000000,4.000000,4.000000,4.000000,100.000000,,,,,,,,,,,,,,,,,,,,,,,,,,,,,,,,,,,,,,,,,,,,,,,
1665722937.656402,1665722937.657007,83.000000,0.000000,4323.077148,4300.000000,4315.128418,4327.051270,4312.179688,4313.461426,4314.871582,4321.922852,4312.307617,4289.230957,4471.410156,4498.077148,4370.000000,4407.051270,1628.000000,4.000000,79.000000,,,,0.000000,4.000000,4.000000,4.000000,4.000000,4.000000,4.000000,4.000000,4.000000,4.000000,4.000000,4.000000,4.000000,4.000000,4.000000,100.000000,,,,,,,,,,,,,,,,,,,,,,,,,,,,,,,,,,,,,,,,,,,,,,,
1665722937.664211,1665722937.664715,84.000000,0.000000,4315.641113,4293.589844,4316.666504,4307.820313,4307.051270,4311.922852,4309.487305,4316.025879,4307.307617,4292.563965,4449.871582,4493.974121,4365.256348,4404.487305,2810.000000,4.000000,79.000000,,,,0.000000,4.000000,4.000000,4.000000,4.000000,4.000000,4.000000,4.000000,4.000000,4.000000,4.000000,4.000000,4.000000,4.000000,4.000000,100.000000,,,,,,,,,,,,,,,,,,,,,,,,,,,,,,,,,,,,,,,,,,,,,,,
1665722937.672019,1665722937.672524,85.000000,0.000000,4311.666504,4298.461426,4316.025879,4314.615234,4303.717773,4310.000000,4311.282227,4313.461426,4297.436035,4288.205078,4455.000000,4493.333496,4365.512695,4405.128418,2625.000000,4.000000,79.000000,,,,0.000000,4.000000,4.000000,4.000000,4.000000,4.000000,4.000000,4.000000,4.000000,4.000000,4.000000,4.000000,4.000000,4.000000,4.000000,100.000000,,,,,,,,,,,,,,,,,,,,,,,,,,,,,,,,,,,,,,,,,,,,,,,
1665722937.679828,1665722937.680232,86.000000,0.000000,4312.948730,4301.922852,4306.538574,4328.205078,4308.333496,4306.410156,4311.538574,4314.871582,4300.128418,4284.102539,4473.077148,4488.589844,4367.307617,4406.666504,2488.000000,4.000000,79.000000,,,,0.000000,4.000000,4.000000,4.000000,4.000000,4.000000,4.000000,4.000000,4.000000,4.000000,4.000000,4.000000,4.000000,4.000000,4.000000,100.000000,,,,,,,,,,,,,,,,,,,,,,,,,,,,,,,,,,,,,,,,,,,,,,,
1665722937.687636,1665722937.688141,87.000000,0.000000,4309.358887,4295.641113,4304.487305,4315.897461,4312.948730,4300.384766,4307.692383,4316.153809,4302.563965,4289.230957,4461.153809,4483.077148,4361.666504,4406.025879,1628.000000,4.000000,79.000000,,,,0.000000,4.000000,4.000000,4.000000,4.000000,4.000000,4.000000,4.000000,4.000000,4.000000,4.000000,4.000000,4.000000,4.000000,4.000000,100.000000,,,,,,,,,,,,,,,,,,,,,,,,,,,,,,,,,,,,,,,,,,,,,,,
1665722937.695444,1665722937.695949,88.000000,0.000000,4298.589844,4291.922852,4307.051270,4302.307617,4300.512695,4303.205078,4308.205078,4316.282227,4295.769043,4289.487305,4441.794922,4480.128418,4353.461426,4398.077148,2810.000000,4.000000,79.000000,,,,0.000000,4.000000,4.000000,4.000000,4.000000,4.000000,4.000000,4.000000,4.000000,4.000000,4.000000,4.000000,4.000000,4.000000,4.000000,100.000000,,,,,,,,,,,,,,,,,,,,,,,,,,,,,,,,,,,,,,,,,,,,,,,
1665722937.703253,1665722937.703857,89.000000,0.000000,4295.512695,4295.000000,4304.615234,4305.641113,4292.436035,4310.256348,4308.717773,4315.512695,4293.333496,4281.794922,4443.717773,4476.025879,4356.153809,4395.641113,2625.000000,4.000000,79.000000,,,,0.000000,4.000000,4.000000,4.000000,4.000000,4.000000,4.000000,4.000000,4.000000,4.000000,4.000000,4.000000,4.000000,4.000000,4.000000,100.000000,,,,,,,,,,,,,,,,,,,,,,,,,,,,,,,,,,,,,,,,,,,,,,,
1665722937.711061,1665722937.711666,90.000000,0.000000,4296.922852,4296.153809,4298.974121,4312.563965,4301.666504,4308.077148,4304.615234,4312.948730,4294.743652,4278.717773,4454.358887,4472.820313,4360.512695,4405.769043,2488.000000,4.000000,79.000000,,,,0.000000,4.000000,4.000000,4.000000,4.000000,4.000000,4.000000,4.000000,4.000000,4.000000,4.000000,4.000000,4.000000,4.000000,4.000000,100.000000,,,,,,,,,,,,,,,,,,,,,,,,,,,,,,,,,,,,,,,,,,,,,,,
1665722937.718870,1665722937.719574,91.000000,0.000000,4294.871582,4293.077148,4300.128418,4303.846191,4306.794922,4303.077148,4302.563965,4310.641113,4293.461426,4272.051270,4454.230957,4476.666504,4356.922852,4411.922852,1628.000000,4.000000,79.000000,,,,0.000000,4.000000,4.000000,4.000000,4.000000,4.000000,4.000000,4.000000,4.000000,4.000000,4.000000,4.000000,4.000000,4.000000,4.000000,100.000000,,,,,,,,,,,,,,,,,,,,,,,,,,,,,,,,,,,,,,,,,,,,,,,
1665722937.726678,1665722937.727383,92.000000,0.000000,4300.512695,4295.384766,4310.512695,4301.538574,4302.563965,4310.000000,4308.846191,4315.512695,4297.948730,4269.230957,4457.436035,4484.871582,4356.282227,4407.820313,2810.000000,4.000000,79.000000,,,,0.000000,4.000000,4.000000,4.000000,4.000000,4.000000,4.000000,4.000000,4.000000,4.000000,4.000000,4.000000,4.000000,4.000000,4.000000,100.000000,,,,,,,,,,,,,,,,,,,,,,,,,,,,,,,,,,,,,,,,,,,,,,,
1665722937.734486,1665722937.735291,93.000000,0.000000,4312.307617,4304.615234,4315.641113,4319.487305,4298.717773,4322.051270,4317.820313,4318.717773,4301.282227,4270.897461,4459.615234,4486.922852,4358.589844,4402.692383,2625.000000,4.000000,79.000000,,,,0.000000,4.000000,4.000000,4.000000,4.000000,4.000000,4.000000,4.000000,4.000000,4.000000,4.000000,4.000000,4.000000,4.000000,4.000000,100.000000,,,,,,,,,,,,,,,,,,,,,,,,,,,,,,,,,,,,,,,,,,,,,,,
1665722937.742295,1665722937.743099,94.000000,0.000000,4311.025879,4306.410156,4303.846191,4329.102539,4302.820313,4319.743652,4318.717773,4312.563965,4297.307617,4275.000000,4449.743652,4480.384766,4351.153809,4399.743652,2488.000000,4.000000,79.000000,,,,0.000000,4.000000,4.000000,4.000000,4.000000,4.000000,4.000000,4.000000,4.000000,4.000000,4.000000,4.000000,4.000000,4.000000,4.000000,100.000000,,,,,,,,,,,,,,,,,,,,,,,,,,,,,,,,,,,,,,,,,,,,,,,
1665722937.750103,1665722937.751008,95.000000,0.000000,4306.025879,4298.974121,4300.897461,4309.743652,4315.000000,4312.051270,4312.307617,4311.410156,4295.128418,4287.563965,4445.000000,4475.897461,4344.871582,4402.692383,1628.000000,4.000000,79.000000,,,,0.000000,4.000000,4.000000,4.000000,4.000000,4.000000,4.000000,4.000000,4.000000,4.000000,4.000000,4.000000,4.000000,4.000000,4.000000,100.000000,,,,,,,,,,,,,,,,,,,,,,,,,,,,,,,,,,,,,,,,,,,,,,,
1665722937.757912,1665722937.758816,96.000000,0.000000,4311.153809,4298.205078,4313.717773,4304.615234,4315.512695,4314.487305,4309.871582,4318.333496,4299.230957,4293.589844,4450.641113,4483.846191,4355.000000,4407.563965,2810.000000,4.000000,79.000000,,,,0.000000,4.000000,4.000000,4.000000,4.000000,4.000000,4.000000,4.000000,4.000000,4.000000,4.000000,4.000000,4.000000,4.000000,4.000000,100.000000,,,,,,,,,,,,,,,,,,,,,,,,,,,,,,,,,,,,,,,,,,,,,,,
1665722937.765720,1665722937.766725,97.000000,0.000000,4312.436035,4300.897461,4314.230957,4323.846191,4298.461426,4318.846191,4313.589844,4318.974121,4301.666504,4286.538574,4458.077148,4493.974121,4362.820313,4408.461426,2625.000000,4.000000,79.000000,,,,0.000000,4.000000,4.000000,4.000000,4.000000,4.000000,4.000000,4.000000,4.000000,4.000000,4.000000,4.000000,4.000000,4.000000,4.000000,100.000000,,,,,,,,,,,,,,,,,,,,,,,,,,,,,,,,,,,,,,,,,,,,,,,
1665722937.773528,1665722937.774533,98.000000,0.000000,4310.897461,4294.743652,4308.077148,4318.077148,4297.820313,4310.256348,4308.077148,4313.846191,4299.230957,4279.743652,4462.436035,4490.384766,4358.589844,4406.153809,2488.000000,4.000000,79.000000,,,,0.000000,4.000000,4.000000,4.000000,4.000000,4.000000,4.000000,4.000000,4.000000,4.000000,4.000000,4.000000,4.000000,4.000000,4.000000,100.000000,,,,,,,,,,,,,,,,,,,,,,,,,,,,,,,,,,,,,,,,,,,,,,,
1665722937.781337,1665722937.782441,99.000000,0.000000,4308.461426,4290.769043,4309.871582,4304.230957,4307.051270,4298.717773,4295.384766,4312.820313,4295.512695,4274.871582,4455.769043,4483.077148,4355.000000,4405.641113,1628.000000,4.000000,79.000000,,,,0.000000,4.000000,4.000000,4.000000,4.000000,4.000000,4.000000,4.000000,4.000000,4.000000,4.000000,4.000000,4.000000,4.000000,4.000000,100.000000,,,,,,,,,,,,,,,,,,,,,,,,,,,,,,,,,,,,,,,,,,,,,,,
1665722937.789145,1665722937.790250,100.000000,0.000000,4303.974121,4295.641113,4306.794922,4310.000000,4299.358887,4301.666504,4297.179688,4308.974121,4291.538574,4273.589844,4446.025879,4483.077148,4354.743652,4404.871582,2810.000000,4.000000,79.000000,,,,0.000000,4.000000,4.000000,4.000000,4.000000,4.000000,4.000000,4.000000,4.000000,4.000000,4.000000,4.000000,4.000000,4.000000,4.000000,100.000000,,,,,,,,,,,,,,,,,,,,,,,,,,,,,,,,,,,,,,,,,,,,,,,
1665722937.796954,1665722937.797958,101.000000,0.000000,4304.230957,4295.128418,4307.563965,4313.077148,4299.487305,4309.230957,4310.128418,4309.358887,4291.025879,4277.692383,4448.589844,4489.358887,4353.077148,4404.615234,2625.000000,4.000000,79.000000,,,,0.000000,4.000000,4.000000,4.000000,4.000000,4.000000,4.000000,4.000000,4.000000,4.000000,4.000000,4.000000,4.000000,4.000000,4.000000,100.000000,,,,,,,,,,,,,,,,,,,,,,,,,,,,,,,,,,,,,,,,,,,,,,,
1665722937.804762,1665722937.805767,102.000000,0.000000,4310.512695,4294.358887,4314.743652,4310.000000,4311.794922,4312.820313,4313.974121,4316.153809,4295.000000,4279.871582,4458.717773,4493.589844,4355.128418,4408.974121,2488.000000,4.000000,79.000000,,,,0.000000,4.000000,4.000000,4.000000,4.000000,4.000000,4.000000,4.000000,4.000000,4.000000,4.000000,4.000000,4.000000,4.000000,4.000000,100.000000,,,,,,,,,,,,,,,,,,,,,,,,,,,,,,,,,,,,,,,,,,,,,,,
1665722937.812570,1665722937.813475,103.000000,0.000000,4320.384766,4309.487305,4318.589844,4324.102539,4318.974121,4315.128418,4314.358887,4318.846191,4297.179688,4282.051270,4468.589844,4497.307617,4367.948730,4416.538574,1628.000000,4.000000,79.000000,,,,0.000000,4.000000,4.000000,4.000000,4.000000,4.000000,4.000000,4.000000,4.000000,4.000000,4.000000,4.000000,4.000000,4.000000,4.000000,100.000000,,,,,,,,,,,,,,,,,,,,,,,,,,,,,,,,,,,,,,,,,,,,,,,
1665722937.820379,1665722937.821384,104.000000,0.000000,4325.512695,4315.128418,4315.897461,4331.410156,4320.897461,4313.717773,4312.436035,4313.846191,4292.820313,4270.897461,4469.871582,4497.820313,4370.641113,4414.230957,2810.000000,4.000000,79.000000,,,,0.000000,4.000000,4.000000,4.000000,4.000000,4.000000,4.000000,4.000000,4.000000,4.000000,4.000000,4.000000,4.000000,4.000000,4.000000,100.000000,,,,,,,,,,,,,,,,,,,,,,,,,,,,,,,,,,,,,,,,,,,,,,,
1665722937.828187,1665722937.829192,105.000000,0.000000,4320.897461,4301.282227,4314.358887,4317.436035,4310.256348,4308.589844,4301.538574,4311.538574,4290.384766,4259.871582,4458.974121,4493.589844,4357.179688,4405.000000,2625.000000,4.000000,79.000000,,,,0.000000,4.000000,4.000000,4.000000,4.000000,4.000000,4.000000,4.000000,4.000000,4.000000,4.000000,4.000000,4.000000,4.000000,4.000000,100.000000,,,,,,,,,,,,,,,,,,,,,,,,,,,,,,,,,,,,,,,,,,,,,,,
1665722937.835996,1665722937.837101,106.000000,0.000000,4315.512695,4299.743652,4313.974121,4311.922852,4300.512695,4307.948730,4297.436035,4313.589844,4295.897461,4279.230957,4454.743652,4493.717773,4355.000000,4406.153809,2488.000000,4.000000,79.000000,,,,0.000000,4.000000,4.000000,4.000000,4.000000,4.000000,4.000000,4.000000,4.000000,4.000000,4.000000,4.000000,4.000000,4.000000,4.000000,100.000000,,,,,,,,,,,,,,,,,,,,,,,,,,,,,,,,,,,,,,,,,,,,,,,
1665722937.843804,1665722937.844909,107.000000,0.000000,4321.666504,4310.384766,4315.256348,4314.230957,4312.820313,4311.922852,4303.461426,4313.333496,4300.512695,4298.717773,4466.922852,4502.307617,4367.307617,4416.410156,1628.000000,4.000000,79.000000,,,,0.000000,4.000000,4.000000,4.000000,4.000000,4.000000,4.000000,4.000000,4.000000,4.000000,4.000000,4.000000,4.000000,4.000000,4.000000,100.000000,,,,,,,,,,,,,,,,,,,,,,,,,,,,,,,,,,,,,,,,,,,,,,,
1665722937.851613,1665722937.852717,108.000000,0.000000,4328.333496,4312.563965,4316.282227,4320.000000,4319.743652,4310.641113,4306.794922,4315.897461,4302.820313,4294.102539,4472.051270,4507.563965,4372.563965,4415.641113,2810.000000,4.000000,79.000000,,,,0.000000,4.000000,4.000000,4.000000,4.000000,4.000000,4.000000,4.000000,4.000000,4.000000,4.000000,4.000000,4.000000,4.000000,4.000000,100.000000,1.000000,75.000000,4.000000,4.000000,4.000000,4.000000,4.000000,4.000000,4.000000,4.000000,4.000000,1.000000,4.000000,4.000000,4.000000,4.000000,1.000000,0.779441,0.167195,-1.468296,0.644733,1.000000,0.039142,1.492948,1.274857,6.846686,0.281720,1.000000,0.249828,27.384340,-3.859377,107.687904,1.000000,0.142379,0.079203,0.058153,0.230265,1.000000,0.491236,4.062494,-1.224486,9.507192,1.000000,0.405201,0.405201,0.000000,1.000000
1665722937.859421,1665722937.860426,109.000000,0.000000,4321.794922,4308.333496,4313.461426,4321.922852,4311.410156,4309.102539,4309.743652,4323.333496,4307.051270,4289.615234,4467.436035,4503.717773,4368.974121,4408.077148,2625.000000,4.000000,79.000000,,,,0.000000,4.000000,4.000000,4.000000,4.000000,4.000000,4.000000,4.000000,4.000000,4.000000,4.000000,4.000000,4.000000,4.000000,4.000000,100.000000,,,,,,,,,,,,,,,,,,,,,,,,,,,,,,,,,,,,,,,,,,,,,,,
1665722937.867229,1665722937.868234,110.000000,0.000000,4316.538574,4302.692383,4313.205078,4314.102539,4307.563965,4311.666504,4312.948730,4326.153809,4308.846191,4283.589844,4471.666504,4501.410156,4366.153809,4407.948730,2488.000000,4.000000,79.000000,,,,0.000000,4.000000,4.000000,4.000000,4.000000,4.000000,4.000000,4.000000,4.000000,4.000000,4.000000,4.000000,4.000000,4.000000,4.000000,100.000000,,,,,,,,,,,,,,,,,,,,,,,,,,,,,,,,,,,,,,,,,,,,,,,
1665722937.875038,1665722937.875943,111.000000,0.000000,4320.256348,4302.307617,4309.358887,4317.563965,4309.487305,4313.846191,4313.205078,4323.333496,4306.666504,4278.974121,4476.666504,4498.205078,4367.820313,4408.461426,1628.000000,4.000000,79.000000,,,,0.000000,4.000000,4.000000,4.000000,4.000000,4.000000,4.000000,4.000000,4.000000,4.000000,4.000000,4.000000,4.000000,4.000000,4.000000,100.000000,,,,,,,,,,,,,,,,,,,,,,,,,,,,,,,,,,,,,,,,,,,,,,,
1665722937.882846,1665722937.883751,112.000000,0.000000,4325.641113,4310.512695,4309.487305,4321.025879,4313.589844,4314.102539,4315.897461,4324.230957,4308.205078,4295.384766,4474.358887,4496.282227,4374.743652,4408.461426,2810.000000,4.000000,79.000000,,,,0.000000,4.000000,4.000000,4.000000,4.000000,4.000000,4.000000,4.000000,4.000000,4.000000,4.000000,4.000000,4.000000,4.000000,4.000000,100.000000,,,,,,,,,,,,,,,,,,,,,,,,,,,,,,,,,,,,,,,,,,,,,,,
1665722937.890655,1665722937.891460,113.000000,0.000000,4327.563965,4312.436035,4315.769043,4314.871582,4317.692383,4314.871582,4317.948730,4323.846191,4309.871582,4297.307617,4475.128418,4502.051270,4378.333496,4409.871582,2625.000000,4.000000,79.000000,,,,0.000000,4.000000,4.000000,4.000000,4.000000,4.000000,4.000000,4.000000,4.000000,4.000000,4.000000,4.000000,4.000000,4.000000,4.000000,100.000000,,,,,,,,,,,,,,,,,,,,,,,,,,,,,,,,,,,,,,,,,,,,,,,
1665722937.898463,1665722937.899368,114.000000,0.000000,4324.102539,4303.333496,4312.179688,4316.538574,4316.282227,4313.333496,4311.025879,4316.282227,4302.436035,4280.256348,4473.205078,4496.025879,4370.384766,4406.410156,2488.000000,4.000000,79.000000,,,,0.000000,4.000000,4.000000,4.000000,4.000000,4.000000,4.000000,4.000000,4.000000,4.000000,4.000000,4.000000,4.000000,4.000000,4.000000,100.000000,,,,,,,,,,,,,,,,,,,,,,,,,,,,,,,,,,,,,,,,,,,,,,,
1665722937.906272,1665722937.907177,115.000000,0.000000,4321.794922,4303.077148,4307.948730,4318.589844,4309.358887,4313.205078,4307.051270,4312.436035,4300.769043,4288.461426,4465.641113,4482.307617,4368.077148,4400.128418,1628.000000,4.000000,79.000000,,,,0.000000,4.000000,4.000000,4.000000,4.000000,4.000000,4.000000,4.000000,4.000000,4.000000,4.000000,4.000000,4.000000,4.000000,4.000000,100.000000,,,,,,,,,,,,,,,,,,,,,,,,,,,,,,,,,,,,,,,,,,,,,,,
1665722937.914080,1665722937.915085,116.000000,0.000000,4327.051270,4310.128418,4316.282227,4313.846191,4308.077148,4317.820313,4311.025879,4319.358887,4313.846191,4305.384766,4468.717773,4491.282227,4374.358887,4406.538574,2810.000000,4.000000,79.000000,,,,0.000000,4.000000,4.000000,4.000000,4.000000,4.000000,4.000000,4.000000,4.000000,4.000000,4.000000,4.000000,4.000000,4.000000,4.000000,100.000000,,,,,,,,,,,,,,,,,,,,,,,,,,,,,,,,,,,,,,,,,,,,,,,
1665722937.921888,1665722937.922894,117.000000,0.000000,4324.743652,4309.615234,4311.922852,4313.974121,4314.871582,4316.922852,4312.051270,4320.256348,4314.871582,4299.615234,4479.871582,4501.922852,4375.384766,4412.820313,2625.000000,4.000000,79.000000,,,,0.000000,4.000000,4.000000,4.000000,4.000000,4.000000,4.000000,4.000000,4.000000,4.000000,4.000000,4.000000,4.000000,4.000000,4.000000,100.000000,,,,,,,,,,,,,,,,,,,,,,,,,,,,,,,,,,,,,,,,,,,,,,,
1665722937.929697,1665722937.930802,118.000000,0.000000,4311.025879,4304.358887,4296.794922,4315.000000,4314.230957,4310.769043,4307.820313,4313.461426,4300.512695,4291.794922,4473.846191,4491.282227,4370.897461,4407.307617,2488.000000,4.000000,79.000000,,,,0.000000,4.000000,4.000000,4.000000,4.000000,4.000000,4.000000,4.000000,4.000000,4.000000,4.000000,4.000000,4.000000,4.000000,4.000000,100.000000,,,,,,,,,,,,,,,,,,,,,,,,,,,,,,,,,,,,,,,,,,,,,,,
1665722937.937505,1665722937.938710,119.000000,0.000000,4310.256348,4306.666504,4302.563965,4313.589844,4308.333496,4311.153809,4306.922852,4315.128418,4300.256348,4293.846191,4460.000000,4485.256348,4366.025879,4401.922852,1628.000000,4.000000,79.000000,,,,0.000000,4.000000,4.000000,4.000000,4.000000,4.000000,4.000000,4.000000,4.000000,4.000000,4.000000,4.000000,4.000000,4.000000,4.000000,100.000000,,,,,,,,,,,,,,,,,,,,,,,,,,,,,,,,,,,,,,,,,,,,,,,
1665722937.945314,1665722937.946519,120.000000,0.000000,4323.974121,4310.128418,4314.230957,4318.461426,4312.948730,4314.230957,4312.307617,4325.641113,4312.179688,4295.000000,4466.410156,4496.153809,4368.205078,4406.538574,2810.000000,4.000000,79.000000,,,,0.000000,4.000000,4.000000,4.000000,4.000000,4.000000,4.000000,4.000000,4.000000,4.000000,4.000000,4.000000,4.000000,4.000000,4.000000,100.000000,,,,,,,,,,,,,,,,,,,,,,,,,,,,,,,,,,,,,,,,,,,,,,,
1665722937.953122,1665722937.954327,121.000000,0.000000,4327.948730,4301.922852,4309.102539,4322.179688,4317.179688,4312.436035,4315.384766,4329.615234,4314.743652,4300.128418,4477.692383,4502.179688,4376.025879,4412.948730,2625.000000,4.000000,79.000000,,,,0.000000,4.000000,4.000000,4.000000,4.000000,4.000000,4.000000,4.000000,4.000000,4.000000,4.000000,4.000000,4.000000,4.000000,4.000000,100.000000,,,,,,,,,,,,,,,,,,,,,,,,,,,,,,,,,,,,,,,,,,,,,,,
1665722937.960930,1665722937.962235,122.000000,0.000000,4322.179688,4292.051270,4308.589844,4314.615234,4303.333496,4312.307617,4311.922852,4323.846191,4309.487305,4296.410156,4473.846191,4501.282227,4373.717773,4410.769043,2488.000000,4.000000,79.000000,,,,0.000000,4.000000,4.000000,4.000000,4.000000,4.000000,4.000000,4.000000,4.000000,4.000000,4.000000,4.000000,4.000000,4.000000,4.000000,100.000000,,,,,,,,,,,,,,,,,,,,,,,,,,,,,,,,,,,,,,,,,,,,,,,
1665722937.968739,1665722937.970044,123.000000,0.000000,4320.384766,4296.025879,4313.717773,4307.051270,4303.846191,4311.282227,4309.230957,4318.589844,4306.025879,4280.128418,4473.974121,4495.512695,4366.153809,4405.384766,1628.000000,4.000000,79.000000,,,,0.000000,4.000000,4.000000,4.000000,4.000000,4.000000,4.000000,4.000000,4.000000,4.000000,4.000000,4.000000,4.000000,4.000000,4.000000,100.000000,,,,,,,,,,,,,,,,,,,,,,,,,,,,,,,,,,,,,,,,,,,,,,,
1665722937.976547,1665722937.977752,124.000000,0.000000,4319.230957,4309.230957,4308.846191,4316.794922,4321.666504,4310.769043,4307.179688,4317.307617,4307.692383,4284.358887,4475.384766,4488.846191,4368.717773,4405.256348,2810.000000,4.000000,79.000000,,,,0.000000,4.000000,4.000000,4.000000,4.000000,4.000000,4.000000,4.000000,4.000000,4.000000,4.000000,4.000000,4.000000,4.000000,4.000000,100.000000,,,,,,,,,,,,,,,,,,,,,,,,,,,,,,,,,,,,,,,,,,,,,,,
1665722937.984356,1665722937.985561,125.000000,0.000000,4315.512695,4308.333496,4308.974121,4329.487305,4317.563965,4313.717773,4310.641113,4316.922852,4307.051270,4300.641113,4464.615234,4489.871582,4368.717773,4408.461426,2625.000000,4.000000,79.000000,,,,0.000000,4.000000,4.000000,4.000000,4.000000,4.000000,4.000000,4.000000,4.000000,4.000000,4.000000,4.000000,4.000000,4.000000,4.000000,100.000000,,,,,,,,,,,,,,,,,,,,,,,,,,,,,,,,,,,,,,,,,,,,,,,
1665722937.992164,1665722937.993269,126.000000,0.000000,4310.128418,4295.769043,4310.000000,4316.153809,4303.461426,4313.589844,4311.153809,4313.205078,4296.922852,4296.025879,4451.025879,4485.256348,4357.436035,4403.205078,2488.000000,4.000000,79.000000,,,,0.000000,4.000000,4.000000,4.000000,4.000000,4.000000,4.000000,4.000000,4.000000,4.000000,4.000000,4.000000,4.000000,4.000000,4.000000,100.000000,,,,,,,,,,,,,,,,,,,,,,,,,,,,,,,,,,,,,,,,,,,,,,,
1665722937.999972,1665722938.001078,127.000000,0.000000,4309.102539,4293.461426,4303.461426,4306.410156,4308.205078,4309.102539,4303.077148,4311.922852,4291.538574,4287.179688,4457.563965,4477.436035,4357.051270,4400.641113,79.000000,4.000000,79.000000,,,,0.000000,4.000000,4.000000,4.000000,4.000000,4.000000,4.000000,4.000000,4.000000,4.000000,4.000000,4.000000,4.000000,4.000000,4.000000,100.000000,,,,,,,,,,,,,,,,,,,,,,,,,,,,,,,,,,,,,,,,,,,,,,,
1665722938.007781,1665722938.008786,0.000000,0.000000,4311.282227,4297.820313,4300.384766,4320.384766,4315.897461,4307.820313,4300.128418,4316.666504,4302.179688,4287.820313,4472.692383,4480.769043,4363.589844,4405.897461,1618.000000,4.000000,79.000000,,,,0.000000,4.000000,4.000000,4.000000,4.000000,4.000000,4.000000,4.000000,4.000000,4.000000,4.000000,4.000000,4.000000,4.000000,4.000000,100.000000,,,,,,,,,,,,,,,,,,,,,,,,,,,,,,,,,,,,,,,,,,,,,,,
1665722938.015589,1665722938.016595,1.000000,0.000000,4311.410156,4296.794922,4308.589844,4319.743652,4306.538574,4310.512695,4302.307617,4317.307617,4306.025879,4287.051270,4473.077148,4486.666504,4360.897461,4406.538574,1738.000000,4.000000,79.000000,,,,0.000000,4.000000,4.000000,4.000000,4.000000,4.000000,4.000000,4.000000,4.000000,4.000000,4.000000,4.000000,4.000000,4.000000,4.000000,100.000000,,,,,,,,,,,,,,,,,,,,,,,,,,,,,,,,,,,,,,,,,,,,,,,
1665722938.023398,1665722938.024303,2.000000,0.000000,4311.410156,4296.666504,4310.897461,4303.846191,4302.436035,4313.461426,4300.512695,4310.256348,4295.897461,4289.743652,4456.922852,4479.743652,4354.615234,4402.051270,2321.000000,4.000000,79.000000,,,,0.000000,4.000000,4.000000,4.000000,4.000000,4.000000,4.000000,4.000000,4.000000,4.000000,4.000000,4.000000,4.000000,4.000000,4.000000,100.000000,,,,,,,,,,,,,,,,,,,,,,,,,,,,,,,,,,,,,,,,,,,,,,,
1665722938.031206,1665722938.032112,3.000000,0.000000,4312.948730,4303.205078,4304.743652,4310.769043,4312.563965,4314.615234,4297.692383,4308.846191,4291.282227,4283.717773,4445.384766,4475.384766,4353.846191,4404.358887,2115.000000,4.000000,79.000000,,,,0.000000,4.000000,4.000000,4.000000,4.000000,4.000000,4.000000,4.000000,4.000000,4.000000,4.000000,4.000000,4.000000,4.000000,4.000000,100.000000,,,,,,,,,,,,,,,,,,,,,,,,,,,,,,,,,,,,,,,,,,,,,,,
1665722938.039014,1665722938.039820,4.000000,0.000000,4312.179688,4309.615234,4304.615234,4324.102539,4315.128418,4313.846191,4298.461426,4310.897461,4293.974121,4269.102539,4452.948730,4480.512695,4360.384766,4410.000000,1852.000000,4.000000,79.000000,,,,0.000000,4.000000,4.000000,4.000000,4.000000,4.000000,4.000000,4.000000,4.000000,4.000000,4.000000,4.000000,4.000000,4.000000,4.000000,100.000000,,,,,,,,,,,,,,,,,,,,,,,,,,,,,,,,,,,,,,,,,,,,,,,
1665722938.046823,1665722938.047629,5.000000,0.000000,4311.410156,4307.948730,4309.102539,4315.641113,4309.743652,4309.871582,4297.179688,4308.589844,4292.820313,4276.282227,4457.436035,4480.641113,4362.948730,4408.333496,2179.000000,4.000000,79.000000,,,,0.000000,4.000000,4.000000,4.000000,4.000000,4.000000,4.000000,4.000000,4.000000,4.000000,4.000000,4.000000,4.000000,4.000000,4.000000,100.000000,,,,,,,,,,,,,,,,,,,,,,,,,,,,,,,,,,,,,,,,,,,,,,,
1665722938.054631,1665722938.055337,6.000000,0.000000,4322.179688,4308.974121,4318.205078,4310.769043,4310.641113,4311.538574,4304.487305,4312.436035,4294.615234,4294.102539,4461.666504,4489.102539,4363.846191,4408.589844,2348.000000,4.000000,79.000000,,,,0.000000,4.000000,4.000000,4.000000,4.000000,4.000000,4.000000,4.000000,4.000000,4.000000,4.000000,4.000000,4.000000,4.000000,4.000000,100.000000,,,,,,,,,,,,,,,,,,,,,,,,,,,,,,,,,,,,,,,,,,,,,,,
1665722938.062440,1665722938.063146,7.000000,0.000000,4333.846191,4318.717773,4325.128418,4330.256348,4318.205078,4319.102539,4316.538574,4322.820313,4302.820313,4296.922852,4475.128418,4505.512695,4372.051270,4415.128418,1654.000000,4.000000,79.000000,,,,0.000000,4.000000,4.000000,4.000000,4.000000,4.000000,4.000000,4.000000,4.000000,4.000000,4.000000,4.000000,4.000000,4.000000,4.000000,100.000000,,,,,,,,,,,,,,,,,,,,,,,,,,,,,,,,,,,,,,,,,,,,,,,
1665722938.070248,1665722938.070854,8.000000,0.000000,4327.179688,4317.436035,4317.820313,4336.282227,4322.051270,4315.384766,4305.769043,4317.179688,4300.128418,4294.102539,4468.974121,4501.025879,4370.512695,4410.000000,2092.000000,4.000000,79.000000,,,,0.000000,4.000000,4.000000,4.000000,4.000000,4.000000,4.000000,4.000000,4.000000,4.000000,4.000000,4.000000,4.000000,4.000000,4.000000,100.000000,,,,,,,,,,,,,,,,,,,,,,,,,,,,,,,,,,,,,,,,,,,,,,,
1665722938.078057,1665722938.078663,9.000000,0.000000,4318.333496,4307.820313,4310.256348,4318.077148,4321.666504,4307.692383,4296.538574,4308.974121,4292.948730,4290.641113,4455.384766,4489.615234,4360.128418,4406.282227,2316.000000,4.000000,79.000000,,,,0.000000,4.000000,4.000000,4.000000,4.000000,4.000000,4.000000,4.000000,4.000000,4.000000,4.000000,4.000000,4.000000,4.000000,4.000000,100.000000,,,,,,,,,,,,,,,,,,,,,,,,,,,,,,,,,,,,,,,,,,,,,,,
1665722938.085865,1665722938.086371,10.000000,0.000000,4318.205078,4307.820313,4311.025879,4312.692383,4318.461426,4313.333496,4308.205078,4313.077148,4294.615234,4275.641113,4460.128418,4489.743652,4358.846191,4410.897461,2486.000000,4.000000,79.000000,,,,0.000000,4.000000,4.000000,4.000000,4.000000,4.000000,4.000000,4.000000,4.000000,4.000000,4.000000,4.000000,4.000000,4.000000,4.000000,100.000000,,,,,,,,,,,,,,,,,,,,,,,,,,,,,,,,,,,,,,,,,,,,,,,
1665722938.093673,1665722938.094280,11.000000,0.000000,4310.769043,4300.769043,4311.282227,4307.436035,4308.846191,4315.128418,4307.563965,4310.256348,4294.743652,4270.128418,4454.358887,4483.461426,4358.205078,4407.051270,1619.000000,4.000000,79.000000,,,,0.000000,4.000000,4.000000,4.000000,4.000000,4.000000,4.000000,4.000000,4.000000,4.000000,4.000000,4.000000,4.000000,4.000000,4.000000,100.000000,,,,,,,,,,,,,,,,,,,,,,,,,,,,,,,,,,,,,,,,,,,,,,,
1665722938.101482,1665722938.102088,12.000000,0.000000,4308.717773,4291.922852,4309.743652,4303.589844,4308.846191,4306.538574,4295.641113,4304.871582,4293.461426,4282.436035,4439.358887,4477.692383,4352.563965,4403.333496,2833.000000,4.000000,79.000000,,,,0.000000,4.000000,4.000000,4.000000,4.000000,4.000000,4.000000,4.000000,4.000000,4.000000,4.000000,4.000000,4.000000,4.000000,4.000000,100.000000,,,,,,,,,,,,,,,,,,,,,,,,,,,,,,,,,,,,,,,,,,,,,,,
1665722938.109290,1665722938.109997,13.000000,0.000000,4323.333496,4304.358887,4312.051270,4321.922852,4321.025879,4306.794922,4301.153809,4311.153809,4294.743652,4279.871582,4455.384766,4485.384766,4353.974121,4407.436035,2615.000000,4.000000,79.000000,,,,0.000000,4.000000,4.000000,4.000000,4.000000,4.000000,4.000000,4.000000,4.000000,4.000000,4.000000,4.000000,4.000000,4.000000,4.000000,100.000000,,,,,,,,,,,,,,,,,,,,,,,,,,,,,,,,,,,,,,,,,,,,,,,
1665722938.117099,1665722938.117805,14.000000,0.000000,4324.615234,4313.717773,4311.282227,4333.589844,4322.307617,4313.589844,4310.256348,4316.538574,4296.153809,4269.487305,4469.358887,4487.820313,4356.922852,4408.205078,2486.000000,4.000000,79.000000,,,,0.000000,4.000000,4.000000,4.000000,4.000000,4.000000,4.000000,4.000000,4.000000,4.000000,4.000000,4.000000,4.000000,4.000000,4.000000,100.000000,,,,,,,,,,,,,,,,,,,,,,,,,,,,,,,,,,,,,,,,,,,,,,,
1665722938.124907,1665722938.125713,15.000000,0.000000,4312.820313,4307.563965,4308.717773,4323.461426,4315.128418,4311.922852,4307.692383,4314.871582,4301.922852,4284.358887,4452.307617,4489.871582,4355.897461,4405.512695,1619.000000,4.000000,79.000000,,,,0.000000,4.000000,4.000000,4.000000,4.000000,4.000000,4.000000,4.000000,4.000000,4.000000,4.000000,4.000000,4.000000,4.000000,4.000000,100.000000,,,,,,,,,,,,,,,,,,,,,,,,,,,,,,,,,,,,,,,,,,,,,,,
1665722938.132716,1665722938.133522,16.000000,0.000000,4312.820313,4304.615234,4311.153809,4311.410156,4318.846191,4308.717773,4305.128418,4317.307617,4306.410156,4298.589844,4451.538574,4492.692383,4356.282227,4409.487305,0.000000,4.000000,79.000000,,,,0.000000,4.000000,4.000000,4.000000,4.000000,4.000000,4.000000,4.000000,4.000000,4.000000,4.000000,4.000000,4.000000,4.000000,4.000000,100.000000,,,,,,,,,,,,,,,,,,,,,,,,,,,,,,,,,,,,,,,,,,,,,,,
1665722938.140524,1665722938.141430,17.000000,0.000000,4309.487305,4300.897461,4305.769043,4310.000000,4322.563965,4310.769043,4309.102539,4321.025879,4301.282227,4285.641113,4464.102539,4482.051270,4355.641113,4406.282227,0.000000,4.000000,79.000000,,,,0.000000,4.000000,4.000000,4.000000,4.000000,4.000000,4.000000,4.000000,4.000000,4.000000,4.000000,4.000000,4.000000,4.000000,4.000000,100.000000,,,,,,,,,,,,,,,,,,,,,,,,,,,,,,,,,,,,,,,,,,,,,,,
1665722938.148332,1665722938.149239,18.000000,0.000000,4288.333496,4288.974121,4291.666504,4310.512695,4306.666504,4309.487305,4307.692383,4314.743652,4291.666504,4267.307617,4443.974121,4465.641113,4342.692383,4394.102539,0.000000,4.000000,79.000000,,,,0.000000,4.000000,4.000000,4.000000,4.000000,4.000000,4.000000,4.000000,4.000000,4.000000,4.000000,4.000000,4.000000,4.000000,4.000000,100.000000,,,,,,,,,,,,,,,,,,,,,,,,,,,,,,,,,,,,,,,,,,,,,,,
1665722938.156141,1665722938.157147,19.000000,0.000000,4275.000000,4272.820313,4280.769043,4300.769043,4286.794922,4293.333496,4289.358887,4298.846191,4281.922852,4256.410156,4417.436035,4449.615234,4317.563965,4385.000000,0.000000,4.000000,79.000000,,,,0.000000,4.000000,4.000000,4.000000,4.000000,4.000000,4.000000,4.000000,4.000000,4.000000,4.000000,4.000000,4.000000,4.000000,4.000000,100.000000,,,,,,,,,,,,,,,,,,,,,,,,,,,,,,,,,,,,,,,,,,,,,,,
1665722938.163949,1665722938.164955,20.000000,0.000000,4275.128418,4262.948730,4280.641113,4282.307617,4289.230957,4279.230957,4272.692383,4292.692383,4273.205078,4243.077148,4416.922852,4438.461426,4305.512695,4385.641113,0.000000,4.000000,79.000000,,,,0.000000,4.000000,4.000000,4.000000,4.000000,4.000000,4.000000,4.000000,4.000000,4.000000,4.000000,4.000000,4.000000,4.000000,4.000000,100.000000,,,,,,,,,,,,,,,,,,,,,,,,,,,,,,,,,,,,,,,,,,,,,,,
1665722938.171758,1665722938.172664,21.000000,0.000000,4276.153809,4272.307617,4284.487305,4289.230957,4305.641113,4283.846191,4281.410156,4299.358887,4273.333496,4248.589844,4419.615234,4444.743652,4317.436035,4393.846191,0.000000,4.000000,79.000000,,,,0.000000,4.000000,4.000000,4.000000,4.000000,4.000000,4.000000,4.000000,4.000000,4.000000,4.000000,4.000000,4.000000,4.000000,4.000000,100.000000,,,,,,,,,,,,,,,,,,,,,,,,,,,,,,,,,,,,,,,,,,,,,,,
1665722938.179566,1665722938.180472,22.000000,0.000000,4284.743652,4287.563965,4289.743652,4312.820313,4303.846191,4296.025879,4294.102539,4305.256348,4282.692383,4272.307617,4424.615234,4462.692383,4333.717773,4401.922852,0.000000,4.000000,79.000000,,,,0.000000,4.000000,4.000000,4.000000,4.000000,4.000000,4.000000,4.000000,4.000000,4.000000,4.000000,4.000000,4.000000,4.000000,4.000000,100.000000,,,,,,,,,,,,,,,,,,,,,,,,,,,,,,,,,,,,,,,,,,,,,,,
1665722938.187374,1665722938.188181,23.000000,0.000000,4296.410156,4291.666504,4295.256348,4312.948730,4301.025879,4304.615234,4296.666504,4307.820313,4292.051270,4269.358887,4443.205078,4472.307617,4340.000000,4404.615234,0.000000,4.000000,79.000000,,,,0.000000,4.000000,4.000000,4.000000,4.000000,4.000000,4.000000,4.000000,4.000000,4.000000,4.000000,4.000000,4.000000,4.000000,4.000000,100.000000,,,,,,,,,,,,,,,,,,,,,,,,,,,,,,,,,,,,,,,,,,,,,,,
1665722938.195183,1665722938.195989,24.000000,0.000000,4296.666504,4294.871582,4298.205078,4309.102539,4316.025879,4309.102539,4302.307617,4310.512695,4295.641113,4257.563965,4451.794922,4473.461426,4341.538574,4405.128418,0.000000,4.000000,79.000000,,,,0.000000,4.000000,4.000000,4.000000,4.000000,4.000000,4.000000,4.000000,4.000000,4.000000,4.000000,4.000000,4.000000,4.000000,4.000000,100.000000,,,,,,,,,,,,,,,,,,,,,,,,,,,,,,,,,,,,,,,,,,,,,,,
1665722938.202991,1665722938.203698,25.000000,0.000000,4292.692383,4295.897461,4302.179688,4305.000000,4315.256348,4308.846191,4304.358887,4308.333496,4291.922852,4273.205078,4439.871582,4469.743652,4341.410156,4405.641113,0.000000,4.000000,79.000000,,,,0.000000,4.000000,4.000000,4.000000,4.000000,4.000000,4.000000,4.000000,4.000000,4.000000,4.000000,4.000000,4.000000,4.000000,4.000000,100.000000,,,,,,,,,,,,,,,,,,,,,,,,,,,,,,,,,,,,,,,,,,,,,,,
1665722938.210800,1665722938.211506,26.000000,0.000000,4297.948730,4295.256348,4306.922852,4304.743652,4309.230957,4309.487305,4305.769043,4310.384766,4292.563965,4289.230957,4442.051270,4472.436035,4343.461426,4409.871582,0.000000,4.000000,79.000000,,,,0.000000,4.000000,4.000000,4.000000,4.000000,4.000000,4.000000,4.000000,4.000000,4.000000,4.000000,4.000000,4.000000,4.000000,4.000000,100.000000,,,,,,,,,,,,,,,,,,,,,,,,,,,,,,,,,,,,,,,,,,,,,,,
1665722938.218608,1665722938.219215,27.000000,0.000000,4300.897461,4297.820313,4304.743652,4321.410156,4321.025879,4312.179688,4313.205078,4319.743652,4297.436035,4282.051270,4455.128418,4483.589844,4345.000000,4409.230957,0.000000,4.000000,79.000000,,,,0.000000,4.000000,4.000000,4.000000,4.000000,4.000000,4.000000,4.000000,4.000000,4.000000,4.000000,4.000000,4.000000,4.000000,4.000000,100.000000,,,,,,,,,,,,,,,,,,,,,,,,,,,,,,,,,,,,,,,,,,,,,,,
1665722938.226416,1665722938.227023,28.000000,0.000000,4294.743652,4296.666504,4301.025879,4322.436035,4319.743652,4310.769043,4314.230957,4319.230957,4296.410156,4280.641113,4455.641113,4487.307617,4344.358887,4406.794922,0.000000,4.000000,79.000000,,,,0.000000,4.000000,4.000000,4.000000,4.000000,4.000000,4.000000,4.000000,4.000000,4.000000,4.000000,4.000000,4.000000,4.000000,4.000000,100.000000,,,,,,,,,,,,,,,,,,,,,,,,,,,,,,,,,,,,,,,,,,,,,,,
1665722938.234225,1665722938.234732,29.000000,0.000000,4302.436035,4295.256348,4309.230957,4305.384766,4305.897461,4311.025879,4311.282227,4314.743652,4293.205078,4286.538574,4456.538574,4486.794922,4348.974121,4410.256348,0.000000,4.000000,79.000000,,,,0.000000,4.000000,4.000000,4.000000,4.000000,4.000000,4.000000,4.000000,4.000000,4.000000,4.000000,4.000000,4.000000,4.000000,4.000000,100.000000,,,,,,,,,,,,,,,,,,,,,,,,,,,,,,,,,,,,,,,,,,,,,,,
1665722938.242033,1665722938.242540,30.000000,0.000000,4311.922852,4296.666504,4311.282227,4307.948730,4312.820313,4314.230957,4314.102539,4314.487305,4294.358887,4278.205078,4461.666504,4486.153809,4356.538574,4410.128418,0.000000,4.000000,79.000000,,,,0.000000,4.000000,4.000000,4.000000,4.000000,4.000000,4.000000,4.000000,4.000000,4.000000,4.000000,4.000000,4.000000,4.000000,4.000000,100.000000,,,,,,,,,,,,,,,,,,,,,,,,,,,,,,,,,,,,,,,,,,,,,,,
1665722938.249842,1665722938.250249,31.000000,0.000000,4301.922852,4294.487305,4301.794922,4315.897461,4317.051270,4312.692383,4314.358887,4312.307617,4297.179688,4278.333496,4453.333496,4482.307617,4357.307617,4405.384766,0.000000,4.000000,79.000000,,,,0.000000,4.000000,4.000000,4.000000,4.000000,4.000000,4.000000,4.000000,4.000000,4.000000,4.000000,4.000000,4.000000,4.000000,4.000000,100.000000,,,,,,,,,,,,,,,,,,,,,,,,,,,,,,,,,,,,,,,,,,,,,,,
1665722938.257650,1665722938.258157,32.000000,0.000000,4298.205078,4296.538574,4299.487305,4310.000000,4312.051270,4310.769043,4309.358887,4310.128418,4298.589844,4280.000000,4454.358887,4482.948730,4359.230957,4408.077148,0.000000,4.000000,79.000000,,,,0.000000,4.000000,4.000000,4.000000,4.000000,4.000000,4.000000,4.000000,4.000000,4.000000,4.000000,4.000000,4.000000,4.000000,4.000000,100.000000,,,,,,,,,,,,,,,,,,,,,,,,,,,,,,,,,,,,,,,,,,,,,,,
1665722938.265458,1665722938.265966,33.000000,0.000000,4312.436035,4301.282227,4309.230957,4313.333496,4321.794922,4308.077148,4308.461426,4312.436035,4297.179688,4268.077148,4473.717773,4495.512695,4367.051270,4413.846191,0.000000,4.000000,79.000000,,,,0.000000,4.000000,4.000000,4.000000,4.000000,4.000000,4.000000,4.000000,4.000000,4.000000,4.000000,4.000000,4.000000,4.000000,4.000000,100.000000,,,,,,,,,,,,,,,,,,,,,,,,,,,,,,,,,,,,,,,,,,,,,,,
1665722938.273267,1665722938.273874,34.000000,0.000000,4316.153809,4296.282227,4315.769043,4316.410156,4320.256348,4307.307617,4311.025879,4311.922852,4294.487305,4270.256348,4464.871582,4504.358887,4365.128418,4411.153809,0.000000,4.000000,79.000000,,,,0.000000,4.000000,4.000000,4.000000,4.000000,4.000000,4.000000,4.000000,4.000000,4.000000,4.000000,4.000000,4.000000,4.000000,4.000000,100.000000,,,,,,,,,,,,,,,,,,,,,,,,,,,,,,,,,,,,,,,,,,,,,,,
1665722938.281075,1665722938.281683,35.000000,0.000000,4309.102539,4290.897461,4310.256348,4311.153809,4299.615234,4312.948730,4311.410156,4310.769043,4294.358887,4278.077148,4442.051270,4499.230957,4355.512695,4408.461426,0.000000,4.000000,79.000000,,,,0.000000,4.000000,4.000000,4.000000,4.000000,4.000000,4.000000,4.000000,4.000000,4.000000,4.000000,4.000000,4.000000,4.000000,4.000000,100.000000,,,,,,,,,,,,,,,,,,,,,,,,,,,,,,,,,,,,,,,,,,,,,,,
1665722938.288884,1665722938.289591,36.000000,0.000000,4309.102539,4291.153809,4302.051270,4309.743652,4298.205078,4311.025879,4307.051270,4312.051270,4297.563965,4280.256348,4455.256348,4487.436035,4356.922852,4406.922852,0.000000,4.000000,79.000000,,,,0.000000,4.000000,4.000000,4.000000,4.000000,4.000000,4.000000,4.000000,4.000000,4.000000,4.000000,4.000000,4.000000,4.000000,4.000000,100.000000,,,,,,,,,,,,,,,,,,,,,,,,,,,,,,,,,,,,,,,,,,,,,,,
1665722938.296692,1665722938.297399,37.000000,0.000000,4305.897461,4286.153809,4304.230957,4308.205078,4315.128418,4300.769043,4301.794922,4312.563965,4296.410156,4290.897461,4469.615234,4483.974121,4365.512695,4406.538574,0.000000,4.000000,79.000000,,,,0.000000,4.000000,4.000000,4.000000,4.000000,4.000000,4.000000,4.000000,4.000000,4.000000,4.000000,4.000000,4.000000,4.000000,4.000000,100.000000,,,,,,,,,,,,,,,,,,,,,,,,,,,,,,,,,,,,,,,,,,,,,,,
1665722938.304501,1665722938.305308,38.000000,0.000000,4301.025879,4288.589844,4309.743652,4308.717773,4315.384766,4306.025879,4307.307617,4314.487305,4297.692383,4297.436035,4458.846191,4493.333496,4368.461426,4410.256348,0.000000,4.000000,79.000000,,,,0.000000,4.000000,4.000000,4.000000,4.000000,4.000000,4.000000,4.000000,4.000000,4.000000,4.000000,4.000000,4.000000,4.000000,4.000000,100.000000,,,,,,,,,,,,,,,,,,,,,,,,,,,,,,,,,,,,,,,,,,,,,,,
1665722938.312309,1665722938.313116,39.000000,0.000000,4305.384766,4295.769043,4311.153809,4312.051270,4302.692383,4319.615234,4319.615234,4321.153809,4306.410156,4286.666504,4458.589844,4500.897461,4366.666504,4413.333496,0.000000,4.000000,79.000000,,,,0.000000,4.000000,4.000000,4.000000,4.000000,4.000000,4.000000,4.000000,4.000000,4.000000,4.000000,4.000000,4.000000,4.000000,4.000000,100.000000,,,,,,,,,,,,,,,,,,,,,,,,,,,,,,,,,,,,,,,,,,,,,,,
1665722938.320117,1665722938.321024,40.000000,0.000000,4308.205078,4290.512695,4312.436035,4311.282227,4307.948730,4317.436035,4321.025879,4320.769043,4306.538574,4289.743652,4466.282227,4491.922852,4362.436035,4409.871582,0.000000,4.000000,79.000000,,,,0.000000,4.000000,4.000000,4.000000,4.000000,4.000000,4.000000,4.000000,4.000000,4.000000,4.000000,4.000000,4.000000,4.000000,4.000000,100.000000,,,,,,,,,,,,,,,,,,,,,,,,,,,,,,,,,,,,,,,,,,,,,,,
1665722938.327926,1665722938.328833,41.000000,0.000000,4303.974121,4291.410156,4313.333496,4317.307617,4314.871582,4309.871582,4318.205078,4317.692383,4296.538574,4295.000000,4459.358887,4483.974121,4358.717773,4407.692383,0.000000,4.000000,79.000000,,,,0.000000,4.000000,4.000000,4.000000,4.000000,4.000000,4.000000,4.000000,4.000000,4.000000,4.000000,4.000000,4.000000,4.000000,4.000000,100.000000,,,,,,,,,,,,,,,,,,,,,,,,,,,,,,,,,,,,,,,,,,,,,,,
1665722938.335734,1665722938.336741,42.000000,0.000000,4296.282227,4296.922852,4311.025879,4323.077148,4302.307617,4312.820313,4319.102539,4316.538574,4293.846191,4271.666504,4459.358887,4486.666504,4359.102539,4409.230957,0.000000,4.000000,79.000000,,,,0.000000,4.000000,4.000000,4.000000,4.000000,4.000000,4.000000,4.000000,4.000000,4.000000,4.000000,4.000000,4.000000,4.000000,4.000000,100.000000,,,,,,,,,,,,,,,,,,,,,,,,,,,,,,,,,,,,,,,,,,,,,,,
1665722938.343543,1665722938.344550,43.000000,0.000000,4294.743652,4287.436035,4307.948730,4306.025879,4292.436035,4312.307617,4313.333496,4313.974121,4298.717773,4263.461426,4457.692383,4485.769043,4358.333496,4405.128418,0.000000,4.000000,79.000000,,,,0.000000,4.000000,4.000000,4.000000,4.000000,4.000000,4.000000,4.000000,4.000000,4.000000,4.000000,4.000000,4.000000,4.000000,4.000000,100.000000,,,,,,,,,,,,,,,,,,,,,,,,,,,,,,,,,,,,,,,,,,,,,,,
1665722938.351351,1665722938.352458,44.000000,0.000000,4296.922852,4279.743652,4308.205078,4293.589844,4295.769043,4302.820313,4305.512695,4313.589844,4302.179688,4285.769043,4450.512695,4482.179688,4355.384766,4402.051270,0.000000,4.000000,79.000000,,,,0.000000,4.000000,4.000000,4.000000,4.000000,4.000000,4.000000,4.000000,4.000000,4.000000,4.000000,4.000000,4.000000,4.000000,4.000000,100.000000,1.000000,91.666664,4.000000,4.000000,4.000000,4.000000,4.000000,4.000000,4.000000,4.000000,4.000000,3.000000,4.000000,4.000000,4.000000,4.000000,1.000000,0.780300,0.217372,-1.468330,0.645245,1.000000,0.048041,1.542536,1.274857,6.846686,0.276379,1.000000,0.250019,27.399467,-3.865716,107.677139,1.000000,0.140474,0.066041,0.058148,0.230241,1.000000,0.500472,4.330145,-1.223708,9.506239,1.000000,0.403535,0.403535,0.000000,1.000000
1665722938.359160,1665722938.360266,45.000000,0.000000,4288.077148,4278.717773,4305.384766,4302.436035,4298.077148,4294.102539,4300.641113,4310.641113,4300.256348,4288.846191,4454.358887,4477.563965,4349.230957,4399.358887,0.000000,4.000000,79.000000,,,,0.000000,4.000000,4.000000,4.000000,4.000000,4.000000,4.000000,4.000000,4.000000,4.000000,4.000000,4.000000,4.000000,4.000000,4.000000,100.000000,,,,,,,,,,,,,,,,,,,,,,,,,,,,,,,,,,,,,,,,,,,,,,,
1665722938.366968,1665722938.367975,46.000000,0.000000,4277.948730,4273.461426,4299.358887,4305.641113,4292.563965,4291.794922,4295.769043,4304.102539,4289.871582,4269.230957,4453.333496,4470.128418,4346.153809,4398.461426,0.000000,4.000000,79.000000,,,,0.000000,4.000000,4.000000,4.000000,4.000000,4.000000,4.000000,4.000000,4.000000,4.000000,4.000000,4.000000,4.000000,4.000000,4.000000,100.000000,,,,,,,,,,,,,,,,,,,,,,,,,,,,,,,,,,,,,,,,,,,,,,,
1665722938.374776,1665722938.375783,47.000000,0.000000,4284.743652,4274.871582,4300.384766,4300.769043,4290.256348,4299.102539,4295.897461,4304.230957,4283.589844,4268.077148,4449.102539,4470.897461,4354.487305,4402.820313,0.000000,4.000000,79.000000,,,,0.000000,4.000000,4.000000,4.000000,4.000000,4.000000,4.000000,4.000000,4.000000,4.000000,4.000000,4.000000,4.000000,4.000000,4.000000,100.000000,,,,,,,,,,,,,,,,,,,,,,,,,,,,,,,,,,,,,,,,,,,,,,,
1665722938.382585,1665722938.383492,48.000000,0.000000,4296.410156,4284.487305,4309.102539,4305.000000,4301.666504,4306.922852,4301.153809,4309.871582,4286.153809,4275.641113,4450.384766,4478.717773,4357.307617,4408.333496,0.000000,4.000000,79.000000,,,,0.000000,4.000000,4.000000,4.000000,4.000000,4.000000,4.000000,4.000000,4.000000,4.000000,4.000000,4.000000,4.000000,4.000000,4.000000,100.000000,,,,,,,,,,,,,,,,,,,,,,,,,,,,,,,,,,,,,,,,,,,,,,,
1665722938.390393,1665722938.391300,49.000000,0.000000,4296.410156,4288.717773,4308.717773,4313.717773,4312.051270,4306.666504,4302.051270,4306.282227,4285.641113,4270.897461,4445.641113,4477.563965,4353.077148,4407.820313,0.000000,4.000000,79.000000,,,,0.000000,4.000000,4.000000,4.000000,4.000000,4.000000,4.000000,4.000000,4.000000,4.000000,4.000000,4.000000,4.000000,4.000000,4.000000,100.000000,,,,,,,,,,,,,,,,,,,,,,,,,,,,,,,,,,,,,,,,,,,,,,,
1665722938.398202,1665722938.399009,50.000000,0.000000,4292.179688,4289.743652,4303.974121,4310.000000,4301.410156,4303.333496,4301.025879,4305.384766,4284.487305,4261.922852,4445.000000,4471.794922,4355.897461,4406.410156,0.000000,4.000000,79.000000,,,,0.000000,4.000000,4.000000,4.000000,4.000000,4.000000,4.000000,4.000000,4.000000,4.000000,4.000000,4.000000,4.000000,4.000000,4.000000,100.000000,,,,,,,,,,,,,,,,,,,,,,,,,,,,,,,,,,,,,,,,,,,,,,,
1665722938.406010,1665722938.406817,51.000000,0.000000,4296.410156,4293.717773,4308.205078,4303.205078,4290.256348,4303.974121,4303.205078,4313.974121,4291.025879,4262.436035,4463.974121,4474.487305,4361.794922,4406.153809,0.000000,4.000000,79.000000,,,,0.000000,4.000000,4.000000,4.000000,4.000000,4.000000,4.000000,4.000000,4.000000,4.000000,4.000000,4.000000,4.000000,4.000000,4.000000,100.000000,,,,,,,,,,,,,,,,,,,,,,,,,,,,,,,,,,,,,,,,,,,,,,,
1665722938.413818,1665722938.414526,52.000000,0.000000,4300.641113,4297.179688,4309.743652,4308.077148,4302.820313,4303.974121,4302.948730,4316.410156,4294.871582,4279.230957,4467.692383,4481.794922,4360.897461,4407.692383,0.000000,4.000000,79.000000,,,,0.000000,4.000000,4.000000,4.000000,4.000000,4.000000,4.000000,4.000000,4.000000,4.000000,4.000000,4.000000,4.000000,4.000000,4.000000,100.000000,,,,,,,,,,,,,,,,,,,,,,,,,,,,,,,,,,,,,,,,,,,,,,,
1665722938.421627,1665722938.422334,53.000000,0.000000,4301.025879,4297.820313,4305.641113,4316.025879,4308.717773,4306.410156,4305.897461,4310.769043,4291.794922,4296.282227,4450.897461,4482.948730,4360.128418,4411.538574,0.000000,4.000000,79.000000,,,,0.000000,4.000000,4.000000,4.000000,4.000000,4.000000,4.000000,4.000000,4.000000,4.000000,4.000000,4.000000,4.000000,4.000000,4.000000,100.000000,,,,,,,,,,,,,,,,,,,,,,,,,,,,,,,,,,,,,,,,,,,,,,,
1665722938.429435,1665722938.430043,54.000000,0.000000,4298.974121,4290.000000,4309.102539,4310.897461,4298.205078,4312.179688,4308.717773,4311.922852,4292.948730,4292.179688,4456.922852,4479.358887,4364.615234,4410.256348,0.000000,4.000000,79.000000,,,,0.000000,4.000000,4.000000,4.000000,4.000000,4.000000,4.000000,4.000000,4.000000,4.000000,4.000000,4.000000,4.000000,4.000000,4.000000,100.000000,,,,,,,,,,,,,,,,,,,,,,,,,,,,,,,,,,,,,,,,,,,,,,,
1665722938.437244,1665722938.437951,55.000000,0.000000,4296.410156,4288.205078,4308.461426,4299.615234,4308.717773,4302.948730,4302.179688,4317.436035,4294.871582,4277.179688,4466.410156,4479.871582,4366.153809,4404.230957,0.000000,4.000000,79.000000,,,,0.000000,4.000000,4.000000,4.000000,4.000000,4.000000,4.000000,4.000000,4.000000,4.000000,4.000000,4.000000,4.000000,4.000000,4.000000,100.000000,,,,,,,,,,,,,,,,,,,,,,,,,,,,,,,,,,,,,,,,,,,,,,,
1665722938.445052,1665722938.445760,56.000000,0.000000,4297.948730,4294.230957,4306.025879,4307.436035,4318.589844,4290.769043,4297.436035,4317.820313,4291.922852,4278.974121,4460.384766,4486.282227,4366.282227,4406.794922,0.000000,4.000000,79.000000,,,,0.000000,4.000000,4.000000,4.000000,4.000000,4.000000,4.000000,4.000000,4.000000,4.000000,4.000000,4.000000,4.000000,4.000000,4.000000,100.000000,,,,,,,,,,,,,,,,,,,,,,,,,,,,,,,,,,,,,,,,,,,,,,,
1665722938.452860,1665722938.453568,57.000000,0.000000,4298.846191,4284.615234,4309.358887,4314.487305,4299.230957,4300.769043,4306.025879,4314.615234,4293.077148,4282.820313,4460.000000,4485.641113,4367.948730,4410.000000,0.000000,4.000000,79.000000,,,,0.000000,4.000000,4.000000,4.000000,4.000000,4.000000,4.000000,4.000000,4.000000,4.000000,4.000000,4.000000,4.000000,4.000000,4.000000,100.000000,,,,,,,,,,,,,,,,,,,,,,,,,,,,,,,,,,,,,,,,,,,,,,,
1665722938.460669,1665722938.461277,58.000000,0.000000,4293.589844,4277.307617,4307.436035,4302.692383,4290.384766,4314.102539,4312.051270,4311.794922,4292.948730,4278.974121,4463.205078,4480.641113,4366.410156,4403.333496,0.000000,4.000000,79.000000,,,,0.000000,4.000000,4.000000,4.000000,4.000000,4.000000,4.000000,4.000000,4.000000,4.000000,4.000000,4.000000,4.000000,4.000000,4.000000,100.000000,,,,,,,,,,,,,,,,,,,,,,,,,,,,,,,,,,,,,,,,,,,,,,,
1665722938.468477,1665722938.469185,59.000000,0.000000,4295.000000,4290.512695,4302.051270,4304.871582,4304.358887,4312.436035,4302.307617,4308.077148,4286.282227,4282.820313,4459.743652,4476.282227,4364.230957,4399.102539,0.000000,4.000000,79.000000,,,,0.000000,4.000000,4.000000,4.000000,4.000000,4.000000,4.000000,4.000000,4.000000,4.000000,4.000000,4.000000,4.000000,4.000000,4.000000,100.000000,,,,,,,,,,,,,,,,,,,,,,,,,,,,,,,,,,,,,,,,,,,,,,,
1665722938.476286,1665722938.476994,60.000000,0.000000,4302.692383,4301.538574,4305.512695,4316.538574,4306.666504,4309.871582,4294.743652,4305.000000,4281.794922,4276.666504,4460.769043,4474.871582,4365.128418,4402.563965,0.000000,4.000000,79.000000,,,,0.000000,4.000000,4.000000,4.000000,4.000000,4.000000,4.000000,4.000000,4.000000,4.000000,4.000000,4.000000,4.000000,4.000000,4.000000,100.000000,,,,,,,,,,,,,,,,,,,,,,,,,,,,,,,,,,,,,,,,,,,,,,,
1665722938.484094,1665722938.484902,61.000000,0.000000,4301.153809,4297.692383,4310.128418,4315.256348,4301.666504,4304.615234,4295.769043,4305.769043,4285.256348,4268.717773,4456.025879,4479.102539,4363.974121,4402.307617,0.000000,4.000000,79.000000,,,,0.000000,4.000000,4.000000,4.000000,4.000000,4.000000,4.000000,4.000000,4.000000,4.000000,4.000000,4.000000,4.000000,4.000000,4.000000,100.000000,,,,,,,,,,,,,,,,,,,,,,,,,,,,,,,,,,,,,,,,,,,,,,,
1665722938.491902,1665722938.492710,62.000000,0.000000,4291.538574,4291.922852,4300.256348,4311.666504,4308.589844,4295.384766,4293.717773,4306.922852,4288.077148,4278.205078,4440.128418,4479.871582,4356.025879,4397.307617,0.000000,4.000000,79.000000,,,,0.000000,4.000000,4.000000,4.000000,4.000000,4.000000,4.000000,4.000000,4.000000,4.000000,4.000000,4.000000,4.000000,4.000000,4.000000,100.000000,,,,,,,,,,,,,,,,,,,,,,,,,,,,,,,,,,,,,,,,,,,,,,,
1665722938.499711,1665722938.500619,63.000000,0.000000,4293.333496,4295.769043,4297.563965,4313.077148,4309.102539,4299.230957,4293.974121,4307.820313,4286.282227,4282.692383,4446.794922,4475.256348,4351.410156,4400.000000,0.000000,4.000000,79.000000,,,,0.000000,4.000000,4.000000,4.000000,4.000000,4.000000,4.000000,4.000000,4.000000,4.000000,4.000000,4.000000,4.000000,4.000000,4.000000,100.000000,,,,,,,,,,,,,,,,,,,,,,,,,,,,,,,,,,,,,,,,,,,,,,,
1665722938.507519,1665722938.508427,64.000000,0.000000,4306.538574,4300.000000,4313.461426,4303.077148,4306.794922,4311.922852,4304.230957,4308.974121,4285.641113,4269.358887,4467.820313,4478.461426,4355.128418,4407.307617,1648.000000,4.000000,79.000000,,,,0.000000,4.000000,4.000000,4.000000,4.000000,4.000000,4.000000,4.000000,4.000000,4.000000,4.000000,4.000000,4.000000,4.000000,4.000000,100.000000,,,,,,,,,,,,,,,,,,,,,,,,,,,,,,,,,,,,,,,,,,,,,,,
1665722938.515328,1665722938.516336,65.000000,0.000000,4303.846191,4290.769043,4316.282227,4302.820313,4307.820313,4312.820313,4309.358887,4308.077148,4283.717773,4265.769043,4456.410156,4482.563965,4355.512695,4406.538574,1728.000000,4.000000,79.000000,,,,0.000000,4.000000,4.000000,4.000000,4.000000,4.000000,4.000000,4.000000,4.000000,4.000000,4.000000,4.000000,4.000000,4.000000,4.000000,100.000000,,,,,,,,,,,,,,,,,,,,,,,,,,,,,,,,,,,,,,,,,,,,,,,
1665722938.523136,1665722938.524144,66.000000,0.000000,4292.563965,4285.128418,4301.666504,4321.794922,4296.666504,4308.974121,4305.769043,4306.922852,4285.512695,4279.615234,4438.461426,4476.922852,4352.692383,4401.666504,2329.000000,4.000000,79.000000,,,,0.000000,4.000000,4.000000,4.000000,4.000000,4.000000,4.000000,4.000000,4.000000,4.000000,4.000000,4.000000,4.000000,4.000000,4.000000,100.000000,,,,,,,,,,,,,,,,,,,,,,,,,,,,,,,,,,,,,,,,,,,,,,,
1665722938.530945,1665722938.532052,67.000000,0.000000,4301.410156,4295.000000,4305.256348,4321.410156,4294.615234,4313.846191,4311.153809,4312.051270,4293.589844,4289.871582,4452.051270,4483.077148,4356.538574,4405.897461,2120.000000,4.000000,79.000000,,,,0.000000,4.000000,4.000000,4.000000,4.000000,4.000000,4.000000,4.000000,4.000000,4.000000,4.000000,4.000000,4.000000,4.000000,4.000000,100.000000,,,,,,,,,,,,,,,,,,,,,,,,,,,,,,,,,,,,,,,,,,,,,,,
1665722938.538753,1665722938.539861,68.000000,0.000000,4309.230957,4298.974121,4313.717773,4304.102539,4305.897461,4313.205078,4313.717773,4312.820313,4295.897461,4285.512695,4459.487305,4493.205078,4357.307617,4407.051270,1838.000000,4.000000,79.000000,,,,0.000000,4.000000,4.000000,4.000000,4.000000,4.000000,4.000000,4.000000,4.000000,4.000000,4.000000,4.000000,4.000000,4.000000,4.000000,100.000000,,,,,,,,,,,,,,,,,,,,,,,,,,,,,,,,,,,,,,,,,,,,,,,
1665722938.546561,1665722938.547569,69.000000,0.000000,4298.717773,4291.025879,4304.615234,4304.487305,4300.897461,4301.410156,4300.512695,4307.307617,4290.641113,4262.692383,4439.615234,4483.846191,4347.436035,4402.692383,2196.000000,4.000000,79.000000,,,,0.000000,4.000000,4.000000,4.000000,4.000000,4.000000,4.000000,4.000000,4.000000,4.000000,4.000000,4.000000,4.000000,4.000000,4.000000,100.000000,,,,,,,,,,,,,,,,,,,,,,,,,,,,,,,,,,,,,,,,,,,,,,,
1665722938.554370,1665722938.555378,70.000000,0.000000,4305.512695,4293.846191,4303.717773,4322.436035,4301.538574,4296.794922,4296.025879,4310.128418,4291.025879,4256.922852,4443.461426,4479.615234,4351.794922,4406.538574,2348.000000,4.000000,79.000000,,,,0.000000,4.000000,4.000000,4.000000,4.000000,4.000000,4.000000,4.000000,4.000000,4.000000,4.000000,4.000000,4.000000,4.000000,4.000000,100.000000,,,,,,,,,,,,,,,,,,,,,,,,,,,,,,,,,,,,,,,,,,,,,,,
1665722938.562178,1665722938.563086,71.000000,0.000000,4321.922852,4300.128418,4320.641113,4317.307617,4316.794922,4304.487305,4307.436035,4319.871582,4297.436035,4279.358887,4469.358887,4494.743652,4368.205078,4413.205078,1658.000000,4.000000,79.000000,,,,0.000000,4.000000,4.000000,4.000000,4.000000,4.000000,4.000000,4.000000,4.000000,4.000000,4.000000,4.000000,4.000000,4.000000,4.000000,100.000000,,,,,,,,,,,,,,,,,,,,,,,,,,,,,,,,,,,,,,,,,,,,,,,
1665722938.569987,1665722938.570895,72.000000,0.000000,4313.974121,4295.512695,4321.666504,4302.948730,4311.153809,4311.025879,4313.846191,4321.282227,4295.512695,4288.461426,4472.692383,4496.922852,4365.769043,4408.974121,2094.000000,4.000000,79.000000,,,,0.000000,4.000000,4.000000,4.000000,4.000000,4.000000,4.000000,4.000000,4.000000,4.000000,4.000000,4.000000,4.000000,4.000000,4.000000,100.000000,,,,,,,,,,,,,,,,,,,,,,,,,,,,,,,,,,,,,,,,,,,,,,,
1665722938.577795,1665722938.578603,73.000000,0.000000,4312.436035,4295.256348,4315.128418,4318.333496,4300.384766,4313.846191,4316.025879,4319.871582,4295.000000,4278.461426,4458.589844,4492.051270,4357.820313,4407.179688,2274.000000,4.000000,79.000000,,,,0.000000,4.000000,4.000000,4.000000,4.000000,4.000000,4.000000,4.000000,4.000000,4.000000,4.000000,4.000000,4.000000,4.000000,4.000000,100.000000,,,,,,,,,,,,,,,,,,,,,,,,,,,,,,,,,,,,,,,,,,,,,,,
1665722938.585604,1665722938.586412,74.000000,0.000000,4319.615234,4299.102539,4314.615234,4329.230957,4311.922852,4313.077148,4316.922852,4317.948730,4292.307617,4275.128418,4449.743652,4492.820313,4358.846191,4408.077148,2489.000000,4.000000,79.000000,,,,0.000000,4.000000,4.000000,4.000000,4.000000,4.000000,4.000000,4.000000,4.000000,4.000000,4.000000,4.000000,4.000000,4.000000,4.000000,100.000000,,,,,,,,,,,,,,,,,,,,,,,,,,,,,,,,,,,,,,,,,,,,,,,
1665722938.593412,1665722938.594120,75.000000,0.000000,4304.615234,4294.358887,4307.948730,4312.436035,4313.205078,4306.153809,4310.512695,4312.051270,4283.205078,4271.538574,4448.589844,4485.256348,4357.436035,4401.410156,1631.000000,4.000000,79.000000,,,,0.000000,4.000000,4.000000,4.000000,4.000000,4.000000,4.000000,4.000000,4.000000,4.000000,4.000000,4.000000,4.000000,4.000000,4.000000,100.000000,,,,,,,,,,,,,,,,,,,,,,,,,,,,,,,,,,,,,,,,,,,,,,,
1665722938.601220,1665722938.601929,76.000000,0.000000,4294.358887,4292.563965,4305.769043,4305.000000,4302.179688,4307.948730,4307.948730,4314.102539,4286.538574,4263.717773,4454.358887,4481.282227,4358.077148,4402.436035,2777.000000,4.000000,79.000000,,,,0.000000,4.000000,4.000000,4.000000,4.000000,4.000000,4.000000,4.000000,4.000000,4.000000,4.000000,4.000000,4.000000,4.000000,4.000000,100.000000,,,,,,,,,,,,,,,,,,,,,,,,,,,,,,,,,,,,,,,,,,,,,,,
1665722938.609029,1665722938.609637,77.000000,0.000000,4307.820313,4302.820313,4315.000000,4310.897461,4302.820313,4316.282227,4312.436035,4320.641113,4298.589844,4274.615234,4467.051270,4491.153809,4365.512695,4411.025879,2630.000000,4.000000,79.000000,,,,0.000000,4.000000,4.000000,4.000000,4.000000,4.000000,4.000000,4.000000,4.000000,4.000000,4.000000,4.000000,4.000000,4.000000,4.000000,100.000000,,,,,,,,,,,,,,,,,,,,,,,,,,,,,,,,,,,,,,,,,,,,,,,
1665722938.616837,1665722938.617446,78.000000,0.000000,4314.743652,4305.000000,4316.153809,4314.487305,4304.358887,4310.256348,4310.897461,4316.025879,4297.436035,4278.077148,4470.256348,4492.692383,4367.179688,4407.563965,2489.000000,4.000000,79.000000,,,,0.000000,4.000000,4.000000,4.000000,4.000000,4.000000,4.000000,4.000000,4.000000,4.000000,4.000000,4.000000,4.000000,4.000000,4.000000,100.000000,,,,,,,,,,,,,,,,,,,,,,,,,,,,,,,,,,,,,,,,,,,,,,,
1665722938.624646,1665722938.625154,79.000000,0.000000,4306.794922,4293.589844,4308.205078,4317.436035,4307.563965,4302.179688,4306.666504,4307.307617,4288.717773,4265.256348,4461.282227,4486.153809,4362.307617,4401.922852,1631.000000,4.000000,79.000000,,,,0.000000,4.000000,4.000000,4.000000,4.000000,4.000000,4.000000,4.000000,4.000000,4.000000,4.000000,4.000000,4.000000,4.000000,4.000000,100.000000,,,,,,,,,,,,,,,,,,,,,,,,,,,,,,,,,,,,,,,,,,,,,,,
1665722938.632454,1665722938.632963,80.000000,0.000000,4307.692383,4293.717773,4315.384766,4317.563965,4311.410156,4309.102539,4313.077148,4314.487305,4293.846191,4280.641113,4459.102539,4494.230957,4366.794922,4410.128418,2777.000000,4.000000,79.000000,,,,0.000000,4.000000,4.000000,4.000000,4.000000,4.000000,4.000000,4.000000,4.000000,4.000000,4.000000,4.000000,4.000000,4.000000,4.000000,100.000000,,,,,,,,,,,,,,,,,,,,,,,,,,,,,,,,,,,,,,,,,,,,,,,
1665722938.640262,1665722938.640671,81.000000,0.000000,4313.717773,4302.692383,4321.153809,4317.563965,4307.179688,4318.077148,4317.692383,4323.077148,4303.589844,4305.897461,4464.358887,4502.051270,4375.256348,4413.205078,2630.000000,4.000000,79.000000,,,,0.000000,4.000000,4.000000,4.000000,4.000000,4.000000,4.000000,4.000000,4.000000,4.000000,4.000000,4.000000,4.000000,4.000000,4.000000,100.000000,,,,,,,,,,,,,,,,,,,,,,,,,,,,,,,,,,,,,,,,,,,,,,,
1665722938.648071,1665722938.648480,82.000000,0.000000,4309.230957,4303.717773,4311.538574,4319.615234,4310.128418,4313.974121,4311.794922,4319.615234,4302.307617,4293.846191,4463.205078,4499.102539,4370.128418,4406.282227,2489.000000,4.000000,79.000000,,,,0.000000,4.000000,4.000000,4.000000,4.000000,4.000000,4.000000,4.000000,4.000000,4.000000,4.000000,4.000000,4.000000,4.000000,4.000000,100.000000,,,,,,,,,,,,,,,,,,,,,,,,,,,,,,,,,,,,,,,,,,,,,,,
1665722938.655879,1665722938.656188,83.000000,0.000000,4303.333496,4301.025879,4305.128418,4316.025879,4315.641113,4312.436035,4311.538574,4317.820313,4299.358887,4276.538574,4457.307617,4496.410156,4361.025879,4404.743652,1631.000000,4.000000,79.000000,,,,0.000000,4.000000,4.000000,4.000000,4.000000,4.000000,4.000000,4.000000,4.000000,4.000000,4.000000,4.000000,4.000000,4.000000,4.000000,100.000000,,,,,,,,,,,,,,,,,,,,,,,,,,,,,,,,,,,,,,,,,,,,,,,
1665722938.663688,1665722938.664097,84.000000,0.000000,4307.436035,4298.077148,4312.692383,4311.153809,4306.025879,4317.820313,4318.974121,4321.794922,4303.333496,4287.307617,4469.102539,4499.487305,4364.358887,4410.384766,2777.000000,4.000000,79.000000,,,,0.000000,4.000000,4.000000,4.000000,4.000000,4.000000,4.000000,4.000000,4.000000,4.000000,4.000000,4.000000,4.000000,4.000000,4.000000,100.000000,,,,,,,,,,,,,,,,,,,,,,,,,,,,,,,,,,,,,,,,,,,,,,,
1665722938.671496,1665722938.671905,85.000000,0.000000,4311.538574,4297.307617,4316.025879,4311.153809,4300.641113,4315.128418,4314.743652,4318.846191,4304.102539,4294.871582,4478.974121,4497.692383,4370.512695,4410.897461,2630.000000,4.000000,79.000000,,,,0.000000,4.000000,4.000000,4.000000,4.000000,4.000000,4.000000,4.000000,4.000000,4.000000,4.000000,4.000000,4.000000,4.000000,4.000000,100.000000,,,,,,,,,,,,,,,,,,,,,,,,,,,,,,,,,,,,,,,,,,,,,,,
1665722938.679304,1665722938.679813,86.000000,0.000000,4304.358887,4298.846191,4308.974121,4311.153809,4314.615234,4308.589844,4301.410156,4310.384766,4294.615234,4283.974121,4469.487305,4489.743652,4364.743652,4407.692383,2489.000000,4.000000,79.000000,,,,0.000000,4.000000,4.000000,4.000000,4.000000,4.000000,4.000000,4.000000,4.000000,4.000000,4.000000,4.000000,4.000000,4.000000,4.000000,100.000000,,,,,,,,,,,,,,,,,,,,,,,,,,,,,,,,,,,,,,,,,,,,,,,
1665722938.687113,1665722938.687622,87.000000,0.000000,4302.692383,4302.179688,4305.128418,4316.666504,4324.487305,4310.256348,4302.692383,4309.487305,4291.025879,4275.512695,4462.563965,4490.128418,4362.692383,4409.487305,1631.000000,4.000000,79.000000,,,,0.000000,4.000000,4.000000,4.000000,4.000000,4.000000,4.000000,4.000000,4.000000,4.000000,4.000000,4.000000,4.000000,4.000000,4.000000,100.000000,,,,,,,,,,,,,,,,,,,,,,,,,,,,,,,,,,,,,,,,,,,,,,,
1665722938.694921,1665722938.695530,88.000000,0.000000,4314.487305,4308.717773,4313.077148,4325.000000,4315.641113,4314.871582,4313.589844,4317.307617,4301.538574,4283.717773,4465.128418,4500.512695,4367.820313,4414.615234,2777.000000,4.000000,79.000000,,,,0.000000,4.000000,4.000000,4.000000,4.000000,4.000000,4.000000,4.000000,4.000000,4.000000,4.000000,4.000000,4.000000,4.000000,4.000000,100.000000,,,,,,,,,,,,,,,,,,,,,,,,,,,,,,,,,,,,,,,,,,,,,,,
1665722938.702730,1665722938.703339,89.000000,0.000000,4317.948730,4306.410156,4320.000000,4315.384766,4297.563965,4312.948730,4312.820313,4318.974121,4303.974121,4294.358887,4462.692383,4499.743652,4364.230957,4411.794922,2630.000000,4.000000,79.000000,,,,0.000000,4.000000,4.000000,4.000000,4.000000,4.000000,4.000000,4.000000,4.000000,4.000000,4.000000,4.000000,4.000000,4.000000,4.000000,100.000000,,,,,,,,,,,,,,,,,,,,,,,,,,,,,,,,,,,,,,,,,,,,,,,
1665722938.710538,1665722938.711247,90.000000,0.000000,4307.051270,4294.871582,4313.333496,4305.512695,4300.256348,4311.025879,4308.589844,4313.205078,4296.282227,4297.692383,4459.102539,4486.538574,4360.769043,4407.563965,2489.000000,4.000000,79.000000,,,,0.000000,4.000000,4.000000,4.000000,4.000000,4.000000,4.000000,4.000000,4.000000,4.000000,4.000000,4.000000,4.000000,4.000000,4.000000,100.000000,,,,,,,,,,,,,,,,,,,,,,,,,,,,,,,,,,,,,,,,,,,,,,,
1665722938.718346,1665722938.719055,91.000000,0.000000,4303.846191,4295.641113,4311.153809,4315.512695,4315.000000,4305.769043,4311.538574,4310.641113,4291.666504,4290.000000,4463.846191,4485.128418,4365.897461,4409.871582,1631.000000,4.000000,79.000000,,,,0.000000,4.000000,4.000000,4.000000,4.000000,4.000000,4.000000,4.000000,4.000000,4.000000,4.000000,4.000000,4.000000,4.000000,4.000000,100.000000,,,,,,,,,,,,,,,,,,,,,,,,,,,,,,,,,,,,,,,,,,,,,,,
1665722938.726155,1665722938.726964,92.000000,0.000000,4316.153809,4305.897461,4320.769043,4329.871582,4303.589844,4298.205078,4306.025879,4308.461426,4284.743652,4270.769043,4463.974121,4490.256348,4366.666504,4411.025879,2777.000000,4.000000,79.000000,,,,0.000000,4.000000,4.000000,4.000000,4.000000,4.000000,4.000000,4.000000,4.000000,4.000000,4.000000,4.000000,4.000000,4.000000,4.000000,100.000000,,,,,,,,,,,,,,,,,,,,,,,,,,,,,,,,,,,,,,,,,,,,,,,
1665722938.733963,1665722938.734772,93.000000,0.000000,4318.846191,4306.153809,4320.512695,4327.692383,4298.589844,4301.666504,4293.846191,4303.333496,4275.641113,4264.230957,4458.205078,4485.641113,4358.077148,4408.589844,2630.000000,4.000000,79.000000,,,,0.000000,4.000000,4.000000,4.000000,4.000000,4.000000,4.000000,4.000000,4.000000,4.000000,4.000000,4.000000,4.000000,4.000000,4.000000,100.000000,,,,,,,,,,,,,,,,,,,,,,,,,,,,,,,,,,,,,,,,,,,,,,,
1665722938.741772,1665722938.742481,94.000000,0.000000,4310.897461,4306.282227,4313.333496,4317.563965,4321.282227,4310.897461,4300.256348,4307.307617,4281.666504,4277.948730,4455.000000,4487.563965,4355.000000,4407.179688,2489.000000,4.000000,79.000000,,,,0.000000,4.000000,4.000000,4.000000,4.000000,4.000000,4.000000,4.000000,4.000000,4.000000,4.000000,4.000000,4.000000,4.000000,4.000000,100.000000,,,,,,,,,,,,,,,,,,,,,,,,,,,,,,,,,,,,,,,,,,,,,,,
1665722938.749580,1665722938.750289,95.000000,0.000000,4316.025879,4313.077148,4320.256348,4315.512695,4321.666504,4312.820313,4313.461426,4318.589844,4295.512695,4283.974121,4456.922852,4499.487305,4359.487305,4408.077148,1631.000000,4.000000,79.000000,,,,0.000000,4.000000,4.000000,4.000000,4.000000,4.000000,4.000000,4.000000,4.000000,4.000000,4.000000,4.000000,4.000000,4.000000,4.000000,100.000000,,,,,,,,,,,,,,,,,,,,,,,,,,,,,,,,,,,,,,,,,,,,,,,
1665722938.757389,1665722938.757998,96.000000,0.000000,4322.179688,4311.666504,4324.487305,4318.717773,4301.538574,4308.589844,4310.128418,4315.897461,4295.512695,4272.436035,4460.256348,4494.230957,4362.948730,4407.692383,2777.000000,4.000000,79.000000,,,,0.000000,4.000000,4.000000,4.000000,4.000000,4.000000,4.000000,4.000000,4.000000,4.000000,4.000000,4.000000,4.000000,4.000000,4.000000,100.000000,,,,,,,,,,,,,,,,,,,,,,,,,,,,,,,,,,,,,,,,,,,,,,,
1665722938.765197,1665722938.765806,97.000000,0.000000,4313.717773,4303.846191,4314.230957,4323.461426,4304.230957,4308.717773,4306.666504,4311.794922,4292.051270,4270.512695,4459.230957,4480.641113,4366.410156,4407.179688,2630.000000,4.000000,79.000000,,,,0.000000,4.000000,4.000000,4.000000,4.000000,4.000000,4.000000,4.000000,4.000000,4.000000,4.000000,4.000000,4.000000,4.000000,4.000000,100.000000,,,,,,,,,,,,,,,,,,,,,,,,,,,,,,,,,,,,,,,,,,,,,,,
1665722938.773005,1665722938.773515,98.000000,0.000000,4307.436035,4303.717773,4305.897461,4320.641113,4313.717773,4312.179688,4311.282227,4317.436035,4295.384766,4278.717773,4458.077148,4482.436035,4366.922852,4406.282227,2489.000000,4.000000,79.000000,,,,0.000000,4.000000,4.000000,4.000000,4.000000,4.000000,4.000000,4.000000,4.000000,4.000000,4.000000,4.000000,4.000000,4.000000,4.000000,100.000000,,,,,,,,,,,,,,,,,,,,,,,,,,,,,,,,,,,,,,,,,,,,,,,
1665722938.780814,1665722938.781323,99.000000,0.000000,4311.025879,4304.743652,4308.205078,4312.563965,4307.051270,4308.077148,4307.179688,4319.871582,4295.384766,4276.538574,4462.307617,4487.307617,4362.563965,4407.051270,1631.000000,4.000000,79.000000,,,,0.000000,4.000000,4.000000,4.000000,4.000000,4.000000,4.000000,4.000000,4.000000,4.000000,4.000000,4.000000,4.000000,4.000000,4.000000,100.000000,,,,,,,,,,,,,,,,,,,,,,,,,,,,,,,,,,,,,,,,,,,,,,,
1665722938.788622,1665722938.789032,100.000000,0.000000,4306.922852,4295.384766,4307.179688,4306.922852,4306.410156,4296.794922,4296.153809,4311.025879,4290.769043,4274.487305,4461.922852,4478.205078,4364.102539,4405.384766,2777.000000,4.000000,79.000000,,,,0.000000,4.000000,4.000000,4.000000,4.000000,4.000000,4.000000,4.000000,4.000000,4.000000,4.000000,4.000000,4.000000,4.000000,4.000000,100.000000,,,,,,,,,,,,,,,,,,,,,,,,,,,,,,,,,,,,,,,,,,,,,,,
1665722938.796431,1665722938.796840,101.000000,0.000000,4301.922852,4291.922852,4301.538574,4310.384766,4307.820313,4296.666504,4293.461426,4307.051270,4290.000000,4281.153809,4444.230957,4473.846191,4364.487305,4404.102539,2630.000000,4.000000,79.000000,,,,0.000000,4.000000,4.000000,4.000000,4.000000,4.000000,4.000000,4.000000,4.000000,4.000000,4.000000,4.000000,4.000000,4.000000,4.000000,100.000000,,,,,,,,,,,,,,,,,,,,,,,,,,,,,,,,,,,,,,,,,,,,,,,
1665722938.804239,1665722938.804549,102.000000,0.000000,4313.205078,4305.384766,4304.871582,4324.487305,4305.384766,4309.230957,4304.615234,4315.384766,4295.384766,4286.538574,4443.717773,4485.897461,4362.179688,4408.589844,2489.000000,4.000000,79.000000,,,,0.000000,4.000000,4.000000,4.000000,4.000000,4.000000,4.000000,4.000000,4.000000,4.000000,4.000000,4.000000,4.000000,4.000000,4.000000,100.000000,,,,,,,,,,,,,,,,,,,,,,,,,,,,,,,,,,,,,,,,,,,,,,,
