title:Psychopy_Shane_Speakers_Blinking, start timestamp:1665779957.990235, stop timestamp:1665780019.012912, headset type:EPOCX, headset serial:E2020A42, headset firmware:720, channels:86, sampling rate:eeg_128;pm_2, samples:7816      , version:2.1, 
Timestamp,OriginalTimestamp,EEG.Counter,EEG.Interpolated,EEG.AF3,EEG.F7,EEG.F3,EEG.FC5,EEG.T7,EEG.P7,EEG.O1,EEG.O2,EEG.P8,EEG.T8,EEG.FC6,EEG.F4,EEG.F8,EEG.AF4,EEG.RawCq,EEG.Battery,EEG.BatteryPercent,MarkerIndex,MarkerType,MarkerValueInt,EEG.MarkerHardware,CQ.AF3,CQ.F7,CQ.F3,CQ.FC5,CQ.T7,CQ.P7,CQ.O1,CQ.O2,CQ.P8,CQ.T8,CQ.FC6,CQ.F4,CQ.F8,CQ.AF4,CQ.Overall,EQ.SampleRateQuality,EQ.OVERALL,EQ.AF3,EQ.F7,EQ.F3,EQ.FC5,EQ.T7,EQ.P7,EQ.O1,EQ.O2,EQ.P8,EQ.T8,EQ.FC6,EQ.F4,EQ.F8,EQ.AF4,PM.Engagement.IsActive,PM.Engagement.Scaled,PM.Engagement.Raw,PM.Engagement.Min,PM.Engagement.Max,PM.Excitement.IsActive,PM.Excitement.Scaled,PM.Excitement.Raw,PM.Excitement.Min,PM.Excitement.Max,PM.LongTermExcitement,PM.Stress.IsActive,PM.Stress.Scaled,PM.Stress.Raw,PM.Stress.Min,PM.Stress.Max,PM.Relaxation.IsActive,PM.Relaxation.Scaled,PM.Relaxation.Raw,PM.Relaxation.Min,PM.Relaxation.Max,PM.Interest.IsActive,PM.Interest.Scaled,PM.Interest.Raw,PM.Interest.Min,PM.Interest.Max,PM.Focus.IsActive,PM.Focus.Scaled,PM.Focus.Raw,PM.Focus.Min,PM.Focus.Max
1665779957.990235,1665779957.990276,15.000000,0.000000,4309.487305,4325.512695,4322.948730,4313.717773,4308.077148,4309.358887,4313.205078,4323.077148,4317.051270,4276.410156,4486.922852,4499.230957,4370.641113,4418.846191,2630.000000,2.000000,51.000000,,,,0.000000,4.000000,4.000000,4.000000,4.000000,4.000000,4.000000,4.000000,4.000000,4.000000,4.000000,4.000000,4.000000,4.000000,4.000000,100.000000,,,,,,,,,,,,,,,,,,,,,,,,,,,,,,,,,,,,,,,,,,,,,,,
1665779957.998043,1665779957.998184,16.000000,0.000000,4318.974121,4330.128418,4329.102539,4322.436035,4316.025879,4319.615234,4312.179688,4321.538574,4322.692383,4284.230957,4490.641113,4510.128418,4384.871582,4429.102539,0.000000,2.000000,51.000000,,,,0.000000,4.000000,4.000000,4.000000,4.000000,4.000000,4.000000,4.000000,4.000000,4.000000,4.000000,4.000000,4.000000,4.000000,4.000000,100.000000,,,,,,,,,,,,,,,,,,,,,,,,,,,,,,,,,,,,,,,,,,,,,,,
1665779958.005852,1665779958.005992,17.000000,0.000000,4321.666504,4329.743652,4332.307617,4331.025879,4316.153809,4319.743652,4303.589844,4317.820313,4321.666504,4295.769043,4490.769043,4515.256348,4395.641113,4435.384766,0.000000,2.000000,51.000000,,,,0.000000,4.000000,4.000000,4.000000,4.000000,4.000000,4.000000,4.000000,4.000000,4.000000,4.000000,4.000000,4.000000,4.000000,4.000000,100.000000,,,,,,,,,,,,,,,,,,,,,,,,,,,,,,,,,,,,,,,,,,,,,,,
1665779958.013660,1665779958.013801,18.000000,0.000000,4322.692383,4327.436035,4331.794922,4332.563965,4309.487305,4318.846191,4298.589844,4310.641113,4318.077148,4307.820313,4490.512695,4513.717773,4393.846191,4441.922852,0.000000,2.000000,51.000000,,,,0.000000,4.000000,4.000000,4.000000,4.000000,4.000000,4.000000,4.000000,4.000000,4.000000,4.000000,4.000000,4.000000,4.000000,4.000000,100.000000,,,,,,,,,,,,,,,,,,,,,,,,,,,,,,,,,,,,,,,,,,,,,,,
1665779958.021469,1665779958.021609,19.000000,0.000000,4327.436035,4325.641113,4332.948730,4331.794922,4309.102539,4319.615234,4306.794922,4305.384766,4316.922852,4308.974121,4489.230957,4508.846191,4388.846191,4443.846191,0.000000,2.000000,51.000000,,,,0.000000,4.000000,4.000000,4.000000,4.000000,4.000000,4.000000,4.000000,4.000000,4.000000,4.000000,4.000000,4.000000,4.000000,4.000000,100.000000,,,,,,,,,,,,,,,,,,,,,,,,,,,,,,,,,,,,,,,,,,,,,,,
1665779958.029277,1665779958.029318,20.000000,0.000000,4322.051270,4325.000000,4334.230957,4328.333496,4318.846191,4317.563965,4320.128418,4315.512695,4320.384766,4295.769043,4487.820313,4506.153809,4382.051270,4433.974121,0.000000,2.000000,51.000000,,,,0.000000,4.000000,4.000000,4.000000,4.000000,4.000000,4.000000,4.000000,4.000000,4.000000,4.000000,4.000000,4.000000,4.000000,4.000000,100.000000,,,,,,,,,,,,,,,,,,,,,,,,,,,,,,,,,,,,,,,,,,,,,,,
1665779958.037085,1665779958.037126,21.000000,0.000000,4312.179688,4330.000000,4339.743652,4325.128418,4317.948730,4323.846191,4332.820313,4334.230957,4327.948730,4294.358887,4490.384766,4515.897461,4380.641113,4432.307617,0.000000,2.000000,51.000000,,,,0.000000,4.000000,4.000000,4.000000,4.000000,4.000000,4.000000,4.000000,4.000000,4.000000,4.000000,4.000000,4.000000,4.000000,4.000000,100.000000,,,,,,,,,,,,,,,,,,,,,,,,,,,,,,,,,,,,,,,,,,,,,,,
1665779958.044894,1665779958.044835,22.000000,0.000000,4310.641113,4332.692383,4343.589844,4326.922852,4303.333496,4324.487305,4336.410156,4341.538574,4330.384766,4296.282227,4491.025879,4519.358887,4382.563965,4437.692383,0.000000,2.000000,51.000000,,,,0.000000,4.000000,4.000000,4.000000,4.000000,4.000000,4.000000,4.000000,4.000000,4.000000,4.000000,4.000000,4.000000,4.000000,4.000000,100.000000,,,,,,,,,,,,,,,,,,,,,,,,,,,,,,,,,,,,,,,,,,,,,,,
1665779958.052702,1665779958.052643,23.000000,0.000000,4308.333496,4327.307617,4333.717773,4323.974121,4301.025879,4309.102539,4328.333496,4337.563965,4327.179688,4284.487305,4481.794922,4508.717773,4376.410156,4428.589844,0.000000,2.000000,51.000000,,,,0.000000,4.000000,4.000000,4.000000,4.000000,4.000000,4.000000,4.000000,4.000000,4.000000,4.000000,4.000000,4.000000,4.000000,4.000000,100.000000,,,,,,,,,,,,,,,,,,,,,,,,,,,,,,,,,,,,,,,,,,,,,,,
1665779958.060511,1665779958.060352,24.000000,0.000000,4304.102539,4323.717773,4324.871582,4320.384766,4312.436035,4305.512695,4320.641113,4334.230957,4326.410156,4279.358887,4471.794922,4506.282227,4370.128418,4419.358887,0.000000,2.000000,51.000000,,,,0.000000,4.000000,4.000000,4.000000,4.000000,4.000000,4.000000,4.000000,4.000000,4.000000,4.000000,4.000000,4.000000,4.000000,4.000000,100.000000,,,,,,,,,,,,,,,,,,,,,,,,,,,,,,,,,,,,,,,,,,,,,,,
1665779958.068319,1665779958.068160,25.000000,0.000000,4302.307617,4320.256348,4325.897461,4325.000000,4312.179688,4315.128418,4316.666504,4329.487305,4321.282227,4281.538574,4472.051270,4508.333496,4372.563965,4424.358887,0.000000,2.000000,51.000000,,,,0.000000,4.000000,4.000000,4.000000,4.000000,4.000000,4.000000,4.000000,4.000000,4.000000,4.000000,4.000000,4.000000,4.000000,4.000000,100.000000,,,,,,,,,,,,,,,,,,,,,,,,,,,,,,,,,,,,,,,,,,,,,,,
1665779958.076127,1665779958.075869,26.000000,0.000000,4299.487305,4313.333496,4319.230957,4326.666504,4305.000000,4313.461426,4308.333496,4320.128418,4313.205078,4278.974121,4472.436035,4496.666504,4372.692383,4428.461426,0.000000,2.000000,51.000000,,,,0.000000,4.000000,4.000000,4.000000,4.000000,4.000000,4.000000,4.000000,4.000000,4.000000,4.000000,4.000000,4.000000,4.000000,4.000000,100.000000,,,,,,,,,,,,,,,,,,,,,,,,,,,,,,,,,,,,,,,,,,,,,,,
1665779958.083936,1665779958.083777,27.000000,0.000000,4303.461426,4310.897461,4312.179688,4325.128418,4314.358887,4308.077148,4304.102539,4321.025879,4315.128418,4279.230957,4470.128418,4487.563965,4370.897461,4426.666504,0.000000,2.000000,51.000000,,,,0.000000,4.000000,4.000000,4.000000,4.000000,4.000000,4.000000,4.000000,4.000000,4.000000,4.000000,4.000000,4.000000,4.000000,4.000000,100.000000,,,,,,,,,,,,,,,,,,,,,,,,,,,,,,,,,,,,,,,,,,,,,,,
1665779958.091744,1665779958.091586,28.000000,0.000000,4312.820313,4313.717773,4318.846191,4327.820313,4327.563965,4310.000000,4304.487305,4329.615234,4320.897461,4283.717773,4474.358887,4495.384766,4373.846191,4428.589844,0.000000,2.000000,51.000000,,,,0.000000,4.000000,4.000000,4.000000,4.000000,4.000000,4.000000,4.000000,4.000000,4.000000,4.000000,4.000000,4.000000,4.000000,4.000000,100.000000,,,,,,,,,,,,,,,,,,,,,,,,,,,,,,,,,,,,,,,,,,,,,,,
1665779958.099553,1665779958.099494,29.000000,0.000000,4311.282227,4314.615234,4321.538574,4327.820313,4320.256348,4310.000000,4300.641113,4322.307617,4316.666504,4279.615234,4475.512695,4493.333496,4369.102539,4423.846191,0.000000,2.000000,51.000000,,,,0.000000,4.000000,4.000000,4.000000,4.000000,4.000000,4.000000,4.000000,4.000000,4.000000,4.000000,4.000000,4.000000,4.000000,4.000000,100.000000,,,,,,,,,,,,,,,,,,,,,,,,,,,,,,,,,,,,,,,,,,,,,,,
1665779958.107361,1665779958.107302,30.000000,0.000000,4306.538574,4312.948730,4318.974121,4322.820313,4307.179688,4308.205078,4304.615234,4306.794922,4310.512695,4273.589844,4473.589844,4485.769043,4367.563965,4416.153809,0.000000,2.000000,51.000000,,,,0.000000,4.000000,4.000000,4.000000,4.000000,4.000000,4.000000,4.000000,4.000000,4.000000,4.000000,4.000000,4.000000,4.000000,4.000000,100.000000,,,,,,,,,,,,,,,,,,,,,,,,,,,,,,,,,,,,,,,,,,,,,,,
1665779958.115169,1665779958.115211,31.000000,0.000000,4309.102539,4313.333496,4326.538574,4326.410156,4313.333496,4312.692383,4314.487305,4306.410156,4311.794922,4283.846191,4477.307617,4499.487305,4380.897461,4423.717773,0.000000,2.000000,51.000000,,,,0.000000,4.000000,4.000000,4.000000,4.000000,4.000000,4.000000,4.000000,4.000000,4.000000,4.000000,4.000000,4.000000,4.000000,4.000000,100.000000,,,,,,,,,,,,,,,,,,,,,,,,,,,,,,,,,,,,,,,,,,,,,,,
1665779958.122978,1665779958.123019,32.000000,0.000000,4307.436035,4311.666504,4331.025879,4329.615234,4319.230957,4317.051270,4313.846191,4310.128418,4313.205078,4295.769043,4472.436035,4509.615234,4385.000000,4428.717773,0.000000,2.000000,51.000000,,,,0.000000,4.000000,4.000000,4.000000,4.000000,4.000000,4.000000,4.000000,4.000000,4.000000,4.000000,4.000000,4.000000,4.000000,4.000000,100.000000,,,,,,,,,,,,,,,,,,,,,,,,,,,,,,,,,,,,,,,,,,,,,,,
1665779958.130786,1665779958.130928,33.000000,0.000000,4297.948730,4299.743652,4318.589844,4317.307617,4300.897461,4313.333496,4310.641113,4306.794922,4315.128418,4292.563965,4455.897461,4496.410156,4374.743652,4417.307617,0.000000,2.000000,51.000000,,,,0.000000,4.000000,4.000000,4.000000,4.000000,4.000000,4.000000,4.000000,4.000000,4.000000,4.000000,4.000000,4.000000,4.000000,4.000000,100.000000,,,,,,,,,,,,,,,,,,,,,,,,,,,,,,,,,,,,,,,,,,,,,,,
1665779958.138595,1665779958.138736,34.000000,0.000000,4287.948730,4281.025879,4309.230957,4309.102539,4289.102539,4310.384766,4310.128418,4309.102539,4317.307617,4280.769043,4458.077148,4488.077148,4372.307617,4409.615234,0.000000,2.000000,51.000000,,,,0.000000,4.000000,4.000000,4.000000,4.000000,4.000000,4.000000,4.000000,4.000000,4.000000,4.000000,4.000000,4.000000,4.000000,4.000000,100.000000,,,,,,,,,,,,,,,,,,,,,,,,,,,,,,,,,,,,,,,,,,,,,,,
1665779958.146403,1665779958.146644,35.000000,0.000000,4282.307617,4265.384766,4308.333496,4310.897461,4299.615234,4307.307617,4302.436035,4314.871582,4312.948730,4275.384766,4462.563965,4493.205078,4370.384766,4409.102539,0.000000,2.000000,51.000000,,,,0.000000,4.000000,4.000000,4.000000,4.000000,4.000000,4.000000,4.000000,4.000000,4.000000,4.000000,4.000000,4.000000,4.000000,4.000000,100.000000,,,,,,,,,,,,,,,,,,,,,,,,,,,,,,,,,,,,,,,,,,,,,,,
1665779958.154211,1665779958.154453,36.000000,0.000000,4279.743652,4260.128418,4307.563965,4305.897461,4305.641113,4298.846191,4294.615234,4322.307617,4310.000000,4273.461426,4443.205078,4490.769043,4360.897461,4405.384766,0.000000,2.000000,51.000000,,,,0.000000,4.000000,4.000000,4.000000,4.000000,4.000000,4.000000,4.000000,4.000000,4.000000,4.000000,4.000000,4.000000,4.000000,4.000000,100.000000,,,,,,,,,,,,,,,,,,,,,,,,,,,,,,,,,,,,,,,,,,,,,,,
1665779958.162020,1665779958.162361,37.000000,0.000000,4280.512695,4264.743652,4308.461426,4302.436035,4296.025879,4295.256348,4297.179688,4329.230957,4314.487305,4270.641113,4445.384766,4482.563965,4359.743652,4400.897461,0.000000,2.000000,51.000000,,,,0.000000,4.000000,4.000000,4.000000,4.000000,4.000000,4.000000,4.000000,4.000000,4.000000,4.000000,4.000000,4.000000,4.000000,4.000000,100.000000,,,,,,,,,,,,,,,,,,,,,,,,,,,,,,,,,,,,,,,,,,,,,,,
1665779958.169828,1665779958.170170,38.000000,0.000000,4277.563965,4259.487305,4303.205078,4300.256348,4285.000000,4292.820313,4297.563965,4322.051270,4312.179688,4264.615234,4464.743652,4473.205078,4355.000000,4389.230957,0.000000,2.000000,51.000000,,,,0.000000,4.000000,4.000000,4.000000,4.000000,4.000000,4.000000,4.000000,4.000000,4.000000,4.000000,4.000000,4.000000,4.000000,4.000000,100.000000,,,,,,,,,,,,,,,,,,,,,,,,,,,,,,,,,,,,,,,,,,,,,,,
1665779958.177637,1665779958.178078,39.000000,0.000000,4265.128418,4246.538574,4293.717773,4288.717773,4280.641113,4284.871582,4293.974121,4309.102539,4306.025879,4254.230957,4453.077148,4460.769043,4346.666504,4374.358887,0.000000,2.000000,51.000000,,,,0.000000,4.000000,4.000000,4.000000,4.000000,4.000000,4.000000,4.000000,4.000000,4.000000,4.000000,4.000000,4.000000,4.000000,4.000000,100.000000,,,,,,,,,,,,,,,,,,,,,,,,,,,,,,,,,,,,,,,,,,,,,,,
1665779958.185445,1665779958.185886,40.000000,0.000000,4258.461426,4243.333496,4290.641113,4282.179688,4278.846191,4282.563965,4292.820313,4302.820313,4306.922852,4248.333496,4437.307617,4458.461426,4348.974121,4373.846191,0.000000,2.000000,51.000000,,,,0.000000,4.000000,4.000000,4.000000,4.000000,4.000000,4.000000,4.000000,4.000000,4.000000,4.000000,4.000000,4.000000,4.000000,4.000000,100.000000,,,,,,,,,,,,,,,,,,,,,,,,,,,,,,,,,,,,,,,,,,,,,,,
1665779958.193253,1665779958.193595,41.000000,0.000000,4260.256348,4238.846191,4288.717773,4288.077148,4278.333496,4285.128418,4286.410156,4296.025879,4304.230957,4249.487305,4442.051270,4462.051270,4347.948730,4377.692383,0.000000,2.000000,51.000000,,,,0.000000,4.000000,4.000000,4.000000,4.000000,4.000000,4.000000,4.000000,4.000000,4.000000,4.000000,4.000000,4.000000,4.000000,4.000000,100.000000,,,,,,,,,,,,,,,,,,,,,,,,,,,,,,,,,,,,,,,,,,,,,,,
1665779958.201062,1665779958.201403,42.000000,0.000000,4261.410156,4231.794922,4285.256348,4290.897461,4279.487305,4280.512695,4276.666504,4287.948730,4295.256348,4249.230957,4439.230957,4457.179688,4337.692383,4374.743652,0.000000,2.000000,51.000000,,,,0.000000,4.000000,4.000000,4.000000,4.000000,4.000000,4.000000,4.000000,4.000000,4.000000,4.000000,4.000000,4.000000,4.000000,4.000000,100.000000,,,,,,,,,,,,,,,,,,,,,,,,,,,,,,,,,,,,,,,,,,,,,,,
1665779958.208870,1665779958.209112,43.000000,0.000000,4267.948730,4238.974121,4290.897461,4295.384766,4284.102539,4278.717773,4275.128418,4287.563965,4293.461426,4249.358887,4435.384766,4456.153809,4341.153809,4381.666504,0.000000,2.000000,51.000000,,,,0.000000,4.000000,4.000000,4.000000,4.000000,4.000000,4.000000,4.000000,4.000000,4.000000,4.000000,4.000000,4.000000,4.000000,4.000000,100.000000,,,,,,,,,,,,,,,,,,,,,,,,,,,,,,,,,,,,,,,,,,,,,,,
1665779958.216679,1665779958.216920,44.000000,0.000000,4278.461426,4245.769043,4302.820313,4306.538574,4282.307617,4278.205078,4278.846191,4292.179688,4299.871582,4256.666504,4448.846191,4466.666504,4351.282227,4395.512695,0.000000,2.000000,51.000000,,,,0.000000,4.000000,4.000000,4.000000,4.000000,4.000000,4.000000,4.000000,4.000000,4.000000,4.000000,4.000000,4.000000,4.000000,4.000000,100.000000,,,,,,,,,,,,,,,,,,,,,,,,,,,,,,,,,,,,,,,,,,,,,,,
1665779958.224487,1665779958.224629,45.000000,0.000000,4283.205078,4248.846191,4312.051270,4310.256348,4278.205078,4275.000000,4285.641113,4301.538574,4306.410156,4266.153809,4459.230957,4480.769043,4353.461426,4400.384766,0.000000,2.000000,51.000000,,,,0.000000,4.000000,4.000000,4.000000,4.000000,4.000000,4.000000,4.000000,4.000000,4.000000,4.000000,4.000000,4.000000,4.000000,4.000000,100.000000,,,,,,,,,,,,,,,,,,,,,,,,,,,,,,,,,,,,,,,,,,,,,,,
1665779958.232295,1665779958.232537,46.000000,0.000000,4282.436035,4256.153809,4314.487305,4303.589844,4285.769043,4278.461426,4297.051270,4313.974121,4309.615234,4264.871582,4459.102539,4486.153809,4353.205078,4397.948730,0.000000,2.000000,51.000000,,,,0.000000,4.000000,4.000000,4.000000,4.000000,4.000000,4.000000,4.000000,4.000000,4.000000,4.000000,4.000000,4.000000,4.000000,4.000000,100.000000,,,,,,,,,,,,,,,,,,,,,,,,,,,,,,,,,,,,,,,,,,,,,,,
1665779958.240104,1665779958.240346,47.000000,0.000000,4275.641113,4254.358887,4311.666504,4295.897461,4288.717773,4283.589844,4305.000000,4320.641113,4310.897461,4264.615234,4453.333496,4482.436035,4353.461426,4397.563965,0.000000,2.000000,51.000000,,,,0.000000,4.000000,4.000000,4.000000,4.000000,4.000000,4.000000,4.000000,4.000000,4.000000,4.000000,4.000000,4.000000,4.000000,4.000000,100.000000,,,,,,,,,,,,,,,,,,,,,,,,,,,,,,,,,,,,,,,,,,,,,,,
1665779958.247912,1665779958.248154,48.000000,0.000000,4266.794922,4247.692383,4309.615234,4292.948730,4280.769043,4282.563965,4301.794922,4322.179688,4314.487305,4271.153809,4447.820313,4480.000000,4356.666504,4398.974121,0.000000,2.000000,51.000000,,,,0.000000,4.000000,4.000000,4.000000,4.000000,4.000000,4.000000,4.000000,4.000000,4.000000,4.000000,4.000000,4.000000,4.000000,4.000000,100.000000,,,,,,,,,,,,,,,,,,,,,,,,,,,,,,,,,,,,,,,,,,,,,,,
1665779958.255721,1665779958.255863,49.000000,0.000000,4263.205078,4247.051270,4299.871582,4293.589844,4277.307617,4282.820313,4291.410156,4315.256348,4310.256348,4269.487305,4441.794922,4473.974121,4353.077148,4391.538574,0.000000,2.000000,51.000000,,,,0.000000,4.000000,4.000000,4.000000,4.000000,4.000000,4.000000,4.000000,4.000000,4.000000,4.000000,4.000000,4.000000,4.000000,4.000000,100.000000,,,,,,,,,,,,,,,,,,,,,,,,,,,,,,,,,,,,,,,,,,,,,,,
1665779958.263529,1665779958.263671,50.000000,0.000000,4262.948730,4246.410156,4282.948730,4293.333496,4282.307617,4278.589844,4276.282227,4301.538574,4298.333496,4263.846191,4429.230957,4456.794922,4344.743652,4383.205078,0.000000,2.000000,51.000000,,,,0.000000,4.000000,4.000000,4.000000,4.000000,4.000000,4.000000,4.000000,4.000000,4.000000,4.000000,4.000000,4.000000,4.000000,4.000000,100.000000,,,,,,,,,,,,,,,,,,,,,,,,,,,,,,,,,,,,,,,,,,,,,,,
1665779958.271337,1665779958.271380,51.000000,0.000000,4262.563965,4242.436035,4277.051270,4293.974121,4284.615234,4267.820313,4265.512695,4294.743652,4299.615234,4258.717773,4426.153809,4444.358887,4345.000000,4381.666504,0.000000,2.000000,51.000000,,,,0.000000,4.000000,4.000000,4.000000,4.000000,4.000000,4.000000,4.000000,4.000000,4.000000,4.000000,4.000000,4.000000,4.000000,4.000000,100.000000,,,,,,,,,,,,,,,,,,,,,,,,,,,,,,,,,,,,,,,,,,,,,,,
1665779958.279146,1665779958.279188,52.000000,0.000000,4260.128418,4231.794922,4278.974121,4291.153809,4279.230957,4266.794922,4270.000000,4297.820313,4303.205078,4252.179688,4438.589844,4442.692383,4344.230957,4375.512695,0.000000,2.000000,51.000000,,,,0.000000,4.000000,4.000000,4.000000,4.000000,4.000000,4.000000,4.000000,4.000000,4.000000,4.000000,4.000000,4.000000,4.000000,4.000000,100.000000,,,,,,,,,,,,,,,,,,,,,,,,,,,,,,,,,,,,,,,,,,,,,,,
1665779958.286954,1665779958.286897,53.000000,0.000000,4260.384766,4236.153809,4283.333496,4293.846191,4276.538574,4279.615234,4280.897461,4298.205078,4297.692383,4257.051270,4444.615234,4444.102539,4343.205078,4373.717773,0.000000,2.000000,51.000000,,,,0.000000,4.000000,4.000000,4.000000,4.000000,4.000000,4.000000,4.000000,4.000000,4.000000,4.000000,4.000000,4.000000,4.000000,4.000000,100.000000,,,,,,,,,,,,,,,,,,,,,,,,,,,,,,,,,,,,,,,,,,,,,,,
1665779958.294763,1665779958.294705,54.000000,0.000000,4263.077148,4258.589844,4288.205078,4299.743652,4280.256348,4282.948730,4284.871582,4289.487305,4291.282227,4258.846191,4432.179688,4444.743652,4341.794922,4376.538574,0.000000,2.000000,51.000000,,,,0.000000,4.000000,4.000000,4.000000,4.000000,4.000000,4.000000,4.000000,4.000000,4.000000,4.000000,4.000000,4.000000,4.000000,4.000000,100.000000,,,,,,,,,,,,,,,,,,,,,,,,,,,,,,,,,,,,,,,,,,,,,,,
1665779958.302571,1665779958.302414,55.000000,0.000000,4263.077148,4267.563965,4289.743652,4297.179688,4285.128418,4271.666504,4280.128418,4276.025879,4284.871582,4246.410156,4422.051270,4441.666504,4331.538574,4368.205078,0.000000,2.000000,51.000000,,,,0.000000,4.000000,4.000000,4.000000,4.000000,4.000000,4.000000,4.000000,4.000000,4.000000,4.000000,4.000000,4.000000,4.000000,4.000000,100.000000,,,,,,,,,,,,,,,,,,,,,,,,,,,,,,,,,,,,,,,,,,,,,,,
1665779958.310380,1665779958.310322,56.000000,0.000000,4263.846191,4261.794922,4293.333496,4296.282227,4277.948730,4270.128418,4278.205078,4270.512695,4285.384766,4251.794922,4429.487305,4446.922852,4330.769043,4367.563965,0.000000,2.000000,51.000000,,,,0.000000,4.000000,4.000000,4.000000,4.000000,4.000000,4.000000,4.000000,4.000000,4.000000,4.000000,4.000000,4.000000,4.000000,4.000000,100.000000,,,,,,,,,,,,,,,,,,,,,,,,,,,,,,,,,,,,,,,,,,,,,,,
1665779958.318188,1665779958.318131,57.000000,0.000000,4277.051270,4258.846191,4300.512695,4305.897461,4272.692383,4286.666504,4285.512695,4288.717773,4304.102539,4274.743652,4444.230957,4470.769043,4349.743652,4390.897461,0.000000,2.000000,51.000000,,,,0.000000,4.000000,4.000000,4.000000,4.000000,4.000000,4.000000,4.000000,4.000000,4.000000,4.000000,4.000000,4.000000,4.000000,4.000000,100.000000,,,,,,,,,,,,,,,,,,,,,,,,,,,,,,,,,,,,,,,,,,,,,,,
1665779958.325996,1665779958.326039,58.000000,0.000000,4285.641113,4254.358887,4302.436035,4308.077148,4288.333496,4296.538574,4288.333496,4306.025879,4317.948730,4278.205078,4448.589844,4480.128418,4350.512695,4400.641113,0.000000,2.000000,51.000000,,,,0.000000,4.000000,4.000000,4.000000,4.000000,4.000000,4.000000,4.000000,4.000000,4.000000,4.000000,4.000000,4.000000,4.000000,4.000000,100.000000,,,,,,,,,,,,,,,,,,,,,,,,,,,,,,,,,,,,,,,,,,,,,,,
1665779958.333805,1665779958.333847,59.000000,0.000000,4274.871582,4247.307617,4292.948730,4298.205078,4296.410156,4286.025879,4280.641113,4301.282227,4306.410156,4258.461426,4438.077148,4462.436035,4328.461426,4388.077148,0.000000,2.000000,51.000000,,,,0.000000,4.000000,4.000000,4.000000,4.000000,4.000000,4.000000,4.000000,4.000000,4.000000,4.000000,4.000000,4.000000,4.000000,4.000000,100.000000,,,,,,,,,,,,,,,,,,,,,,,,,,,,,,,,,,,,,,,,,,,,,,,
1665779958.341613,1665779958.341756,60.000000,0.000000,4263.974121,4245.000000,4281.666504,4296.410156,4282.948730,4274.615234,4276.025879,4298.205078,4294.615234,4234.358887,4426.794922,4450.256348,4313.333496,4380.000000,0.000000,2.000000,51.000000,,,,0.000000,4.000000,4.000000,4.000000,4.000000,4.000000,4.000000,4.000000,4.000000,4.000000,4.000000,4.000000,4.000000,4.000000,4.000000,100.000000,,,,,,,,,,,,,,,,,,,,,,,,,,,,,,,,,,,,,,,,,,,,,,,
1665779958.349422,1665779958.349564,61.000000,0.000000,4264.102539,4247.948730,4281.538574,4299.230957,4283.846191,4278.205078,4280.512695,4308.589844,4300.256348,4232.692383,4426.410156,4453.205078,4311.410156,4376.410156,0.000000,2.000000,51.000000,,,,0.000000,4.000000,4.000000,4.000000,4.000000,4.000000,4.000000,4.000000,4.000000,4.000000,4.000000,4.000000,4.000000,4.000000,4.000000,100.000000,,,,,,,,,,,,,,,,,,,,,,,,,,,,,,,,,,,,,,,,,,,,,,,
1665779958.357230,1665779958.357472,62.000000,0.000000,4267.307617,4257.692383,4286.922852,4295.897461,4296.153809,4281.666504,4281.410156,4309.230957,4306.666504,4257.307617,4430.384766,4449.358887,4319.102539,4371.538574,0.000000,2.000000,51.000000,,,,0.000000,4.000000,4.000000,4.000000,4.000000,4.000000,4.000000,4.000000,4.000000,4.000000,4.000000,4.000000,4.000000,4.000000,4.000000,100.000000,,,,,,,,,,,,,,,,,,,,,,,,,,,,,,,,,,,,,,,,,,,,,,,
1665779958.365038,1665779958.365281,63.000000,0.000000,4262.948730,4264.358887,4280.128418,4295.641113,4288.974121,4278.333496,4279.102539,4300.000000,4304.102539,4267.436035,4431.410156,4444.102539,4324.871582,4369.615234,0.000000,2.000000,51.000000,,,,0.000000,4.000000,4.000000,4.000000,4.000000,4.000000,4.000000,4.000000,4.000000,4.000000,4.000000,4.000000,4.000000,4.000000,4.000000,100.000000,,,,,,,,,,,,,,,,,,,,,,,,,,,,,,,,,,,,,,,,,,,,,,,
1665779958.372847,1665779958.373189,64.000000,0.000000,4263.077148,4263.333496,4276.025879,4304.743652,4285.641113,4284.487305,4280.512695,4297.436035,4301.666504,4258.974121,4433.846191,4453.461426,4327.692383,4375.000000,2307.000000,2.000000,51.000000,,,,0.000000,4.000000,4.000000,4.000000,4.000000,4.000000,4.000000,4.000000,4.000000,4.000000,4.000000,4.000000,4.000000,4.000000,4.000000,100.000000,,,,,,,,,,,,,,,,,,,,,,,,,,,,,,,,,,,,,,,,,,,,,,,
1665779958.380655,1665779958.380998,65.000000,0.000000,4272.051270,4265.000000,4287.179688,4311.794922,4299.615234,4296.538574,4280.897461,4289.743652,4302.179688,4260.512695,4435.128418,4460.000000,4332.820313,4383.461426,2289.000000,2.000000,51.000000,,,,0.000000,4.000000,4.000000,4.000000,4.000000,4.000000,4.000000,4.000000,4.000000,4.000000,4.000000,4.000000,4.000000,4.000000,4.000000,100.000000,,,,,,,,,,,,,,,,,,,,,,,,,,,,,,,,,,,,,,,,,,,,,,,
1665779958.388464,1665779958.388706,66.000000,0.000000,4273.717773,4262.436035,4288.205078,4308.205078,4299.358887,4296.282227,4279.102539,4270.897461,4290.128418,4259.487305,4427.820313,4446.410156,4329.102539,4381.666504,2152.000000,2.000000,51.000000,,,,0.000000,4.000000,4.000000,4.000000,4.000000,4.000000,4.000000,4.000000,4.000000,4.000000,4.000000,4.000000,4.000000,4.000000,4.000000,100.000000,,,,,,,,,,,,,,,,,,,,,,,,,,,,,,,,,,,,,,,,,,,,,,,
1665779958.396272,1665779958.396515,67.000000,0.000000,4274.487305,4257.563965,4283.846191,4308.205078,4291.410156,4291.666504,4279.230957,4260.641113,4277.051270,4241.410156,4423.717773,4436.025879,4321.666504,4379.102539,2317.000000,2.000000,51.000000,,,,0.000000,4.000000,4.000000,4.000000,4.000000,4.000000,4.000000,4.000000,4.000000,4.000000,4.000000,4.000000,4.000000,4.000000,4.000000,100.000000,,,,,,,,,,,,,,,,,,,,,,,,,,,,,,,,,,,,,,,,,,,,,,,
1665779958.404080,1665779958.404223,68.000000,0.000000,4280.128418,4260.897461,4290.897461,4313.461426,4295.897461,4290.897461,4283.333496,4271.025879,4285.384766,4238.077148,4431.282227,4446.153809,4325.128418,4385.897461,2286.000000,2.000000,51.000000,,,,0.000000,4.000000,4.000000,4.000000,4.000000,4.000000,4.000000,4.000000,4.000000,4.000000,4.000000,4.000000,4.000000,4.000000,4.000000,100.000000,,,,,,,,,,,,,,,,,,,,,,,,,,,,,,,,,,,,,,,,,,,,,,,
1665779958.411889,1665779958.412032,69.000000,0.000000,4282.436035,4266.538574,4298.717773,4314.871582,4296.282227,4290.641113,4290.256348,4292.692383,4297.307617,4255.897461,4442.692383,4458.974121,4329.358887,4387.307617,2341.000000,2.000000,51.000000,,,,0.000000,4.000000,4.000000,4.000000,4.000000,4.000000,4.000000,4.000000,4.000000,4.000000,4.000000,4.000000,4.000000,4.000000,4.000000,100.000000,1.000000,100.000000,4.000000,4.000000,4.000000,4.000000,4.000000,4.000000,4.000000,4.000000,4.000000,4.000000,4.000000,4.000000,4.000000,4.000000,1.000000,0.443219,-0.561325,-1.309951,0.188033,1.000000,0.225622,3.467461,1.946833,8.686537,0.305728,1.000000,0.328660,49.925713,-32.868565,198.951004,1.000000,0.308383,0.120324,0.088781,0.322936,1.000000,0.441985,4.046171,-4.431706,15.655682,1.000000,0.392759,0.392759,0.000000,1.000000
1665779958.419697,1665779958.419740,70.000000,0.000000,4283.461426,4268.077148,4301.538574,4312.436035,4293.461426,4293.333496,4296.410156,4308.974121,4297.307617,4263.846191,4446.538574,4467.692383,4327.307617,4385.769043,2105.000000,2.000000,51.000000,,,,0.000000,4.000000,4.000000,4.000000,4.000000,4.000000,4.000000,4.000000,4.000000,4.000000,4.000000,4.000000,4.000000,4.000000,4.000000,100.000000,,,,,,,,,,,,,,,,,,,,,,,,,,,,,,,,,,,,,,,,,,,,,,,
1665779958.427506,1665779958.427549,71.000000,0.000000,4291.410156,4270.000000,4303.974121,4311.794922,4302.948730,4297.692383,4299.358887,4314.358887,4300.000000,4258.461426,4443.205078,4477.563965,4332.820313,4393.589844,1932.000000,2.000000,51.000000,,,,0.000000,4.000000,4.000000,4.000000,4.000000,4.000000,4.000000,4.000000,4.000000,4.000000,4.000000,4.000000,4.000000,4.000000,4.000000,100.000000,,,,,,,,,,,,,,,,,,,,,,,,,,,,,,,,,,,,,,,,,,,,,,,
1665779958.435314,1665779958.435257,72.000000,0.000000,4296.794922,4275.256348,4307.948730,4316.922852,4308.205078,4299.743652,4299.230957,4315.512695,4306.922852,4261.922852,4448.333496,4488.589844,4345.384766,4401.538574,1315.000000,2.000000,51.000000,,,,0.000000,4.000000,4.000000,4.000000,4.000000,4.000000,4.000000,4.000000,4.000000,4.000000,4.000000,4.000000,4.000000,4.000000,4.000000,100.000000,,,,,,,,,,,,,,,,,,,,,,,,,,,,,,,,,,,,,,,,,,,,,,,
1665779958.443122,1665779958.443066,73.000000,0.000000,4295.641113,4275.000000,4306.410156,4321.410156,4301.538574,4303.333496,4292.820313,4317.948730,4305.256348,4269.358887,4459.358887,4491.025879,4353.205078,4405.384766,2399.000000,2.000000,51.000000,,,,0.000000,4.000000,4.000000,4.000000,4.000000,4.000000,4.000000,4.000000,4.000000,4.000000,4.000000,4.000000,4.000000,4.000000,4.000000,100.000000,,,,,,,,,,,,,,,,,,,,,,,,,,,,,,,,,,,,,,,,,,,,,,,
1665779958.450931,1665779958.450774,74.000000,0.000000,4295.769043,4266.666504,4298.846191,4315.512695,4300.128418,4300.897461,4281.025879,4312.307617,4302.948730,4262.436035,4462.307617,4481.153809,4351.666504,4405.769043,2677.000000,2.000000,51.000000,,,,0.000000,4.000000,4.000000,4.000000,4.000000,4.000000,4.000000,4.000000,4.000000,4.000000,4.000000,4.000000,4.000000,4.000000,4.000000,100.000000,,,,,,,,,,,,,,,,,,,,,,,,,,,,,,,,,,,,,,,,,,,,,,,
1665779958.458739,1665779958.458583,75.000000,0.000000,4299.358887,4267.051270,4296.025879,4312.051270,4306.025879,4293.333496,4278.846191,4306.538574,4308.461426,4261.025879,4460.897461,4474.743652,4348.974121,4403.717773,2643.000000,2.000000,51.000000,,,,0.000000,4.000000,4.000000,4.000000,4.000000,4.000000,4.000000,4.000000,4.000000,4.000000,4.000000,4.000000,4.000000,4.000000,4.000000,100.000000,,,,,,,,,,,,,,,,,,,,,,,,,,,,,,,,,,,,,,,,,,,,,,,
1665779958.466548,1665779958.466291,76.000000,0.000000,4302.051270,4276.922852,4302.563965,4316.922852,4308.461426,4293.205078,4288.974121,4312.563965,4313.333496,4274.871582,4463.077148,4477.820313,4352.307617,4406.282227,2748.000000,2.000000,51.000000,,,,0.000000,4.000000,4.000000,4.000000,4.000000,4.000000,4.000000,4.000000,4.000000,4.000000,4.000000,4.000000,4.000000,4.000000,4.000000,100.000000,,,,,,,,,,,,,,,,,,,,,,,,,,,,,,,,,,,,,,,,,,,,,,,
1665779958.474356,1665779958.474100,77.000000,0.000000,4299.743652,4277.948730,4305.128418,4313.205078,4309.102539,4293.589844,4294.487305,4310.384766,4311.922852,4273.333496,4460.769043,4476.025879,4353.589844,4408.717773,3032.000000,2.000000,51.000000,,,,0.000000,4.000000,4.000000,4.000000,4.000000,4.000000,4.000000,4.000000,4.000000,4.000000,4.000000,4.000000,4.000000,4.000000,4.000000,100.000000,,,,,,,,,,,,,,,,,,,,,,,,,,,,,,,,,,,,,,,,,,,,,,,
1665779958.482165,1665779958.481808,78.000000,0.000000,4301.025879,4281.282227,4305.897461,4310.512695,4304.102539,4291.922852,4295.128418,4298.589844,4304.615234,4264.871582,4458.846191,4473.333496,4353.205078,4403.461426,2677.000000,2.000000,51.000000,,,,0.000000,4.000000,4.000000,4.000000,4.000000,4.000000,4.000000,4.000000,4.000000,4.000000,4.000000,4.000000,4.000000,4.000000,4.000000,100.000000,,,,,,,,,,,,,,,,,,,,,,,,,,,,,,,,,,,,,,,,,,,,,,,
1665779958.489973,1665779958.489717,79.000000,0.000000,4303.333496,4287.948730,4312.436035,4317.307617,4293.974121,4296.153809,4297.051270,4295.769043,4298.205078,4271.922852,4459.102539,4477.692383,4356.922852,4402.307617,2643.000000,2.000000,51.000000,,,,0.000000,4.000000,4.000000,4.000000,4.000000,4.000000,4.000000,4.000000,4.000000,4.000000,4.000000,4.000000,4.000000,4.000000,4.000000,100.000000,,,,,,,,,,,,,,,,,,,,,,,,,,,,,,,,,,,,,,,,,,,,,,,
1665779958.497781,1665779958.497525,80.000000,0.000000,4301.153809,4282.948730,4309.230957,4317.692383,4297.948730,4298.717773,4295.384766,4290.000000,4296.282227,4275.897461,4452.563965,4478.077148,4360.641113,4406.666504,2748.000000,2.000000,51.000000,,,,0.000000,4.000000,4.000000,4.000000,4.000000,4.000000,4.000000,4.000000,4.000000,4.000000,4.000000,4.000000,4.000000,4.000000,4.000000,100.000000,,,,,,,,,,,,,,,,,,,,,,,,,,,,,,,,,,,,,,,,,,,,,,,
1665779958.505590,1665779958.505433,81.000000,0.000000,4303.461426,4282.948730,4305.641113,4317.820313,4305.769043,4300.128418,4293.205078,4276.153809,4294.230957,4267.820313,4449.230957,4480.641113,4359.102539,4408.717773,3032.000000,2.000000,51.000000,,,,0.000000,4.000000,4.000000,4.000000,4.000000,4.000000,4.000000,4.000000,4.000000,4.000000,4.000000,4.000000,4.000000,4.000000,4.000000,100.000000,,,,,,,,,,,,,,,,,,,,,,,,,,,,,,,,,,,,,,,,,,,,,,,
1665779958.513398,1665779958.513242,82.000000,0.000000,4315.256348,4295.641113,4317.179688,4330.769043,4305.128418,4304.871582,4294.871582,4281.025879,4293.077148,4272.820313,4456.410156,4490.897461,4357.563965,4417.948730,2677.000000,2.000000,51.000000,,,,0.000000,4.000000,4.000000,4.000000,4.000000,4.000000,4.000000,4.000000,4.000000,4.000000,4.000000,4.000000,4.000000,4.000000,4.000000,100.000000,,,,,,,,,,,,,,,,,,,,,,,,,,,,,,,,,,,,,,,,,,,,,,,
1665779958.521207,1665779958.521150,83.000000,0.000000,4318.205078,4298.589844,4320.897461,4338.589844,4310.384766,4301.794922,4291.794922,4297.820313,4297.692383,4278.333496,4464.102539,4494.358887,4360.256348,4427.563965,2643.000000,2.000000,51.000000,,,,0.000000,4.000000,4.000000,4.000000,4.000000,4.000000,4.000000,4.000000,4.000000,4.000000,4.000000,4.000000,4.000000,4.000000,4.000000,100.000000,,,,,,,,,,,,,,,,,,,,,,,,,,,,,,,,,,,,,,,,,,,,,,,
1665779958.529015,1665779958.528959,84.000000,0.000000,4313.205078,4293.717773,4311.410156,4333.333496,4322.179688,4295.000000,4284.615234,4308.974121,4303.974121,4270.641113,4471.666504,4491.282227,4365.256348,4425.000000,2748.000000,2.000000,51.000000,,,,0.000000,4.000000,4.000000,4.000000,4.000000,4.000000,4.000000,4.000000,4.000000,4.000000,4.000000,4.000000,4.000000,4.000000,4.000000,100.000000,,,,,,,,,,,,,,,,,,,,,,,,,,,,,,,,,,,,,,,,,,,,,,,
1665779958.536823,1665779958.536867,85.000000,0.000000,4312.692383,4294.743652,4309.615234,4326.282227,4318.846191,4293.461426,4280.128418,4315.384766,4304.358887,4272.436035,4478.717773,4491.282227,4368.077148,4418.077148,3032.000000,2.000000,51.000000,,,,0.000000,4.000000,4.000000,4.000000,4.000000,4.000000,4.000000,4.000000,4.000000,4.000000,4.000000,4.000000,4.000000,4.000000,4.000000,100.000000,,,,,,,,,,,,,,,,,,,,,,,,,,,,,,,,,,,,,,,,,,,,,,,
1665779958.544632,1665779958.544675,86.000000,0.000000,4303.974121,4294.743652,4312.563965,4317.307617,4301.410156,4288.461426,4278.846191,4316.153809,4302.692383,4280.641113,4473.077148,4489.230957,4364.487305,4413.077148,2677.000000,2.000000,51.000000,,,,0.000000,4.000000,4.000000,4.000000,4.000000,4.000000,4.000000,4.000000,4.000000,4.000000,4.000000,4.000000,4.000000,4.000000,4.000000,100.000000,,,,,,,,,,,,,,,,,,,,,,,,,,,,,,,,,,,,,,,,,,,,,,,
1665779958.552440,1665779958.552584,87.000000,0.000000,4296.153809,4294.615234,4312.948730,4314.487305,4295.512695,4288.333496,4281.282227,4313.589844,4304.102539,4280.512695,4462.051270,4487.820313,4363.974121,4410.512695,2643.000000,2.000000,51.000000,,,,0.000000,4.000000,4.000000,4.000000,4.000000,4.000000,4.000000,4.000000,4.000000,4.000000,4.000000,4.000000,4.000000,4.000000,4.000000,100.000000,,,,,,,,,,,,,,,,,,,,,,,,,,,,,,,,,,,,,,,,,,,,,,,
1665779958.560248,1665779958.560392,88.000000,0.000000,4303.589844,4296.922852,4311.922852,4321.666504,4296.666504,4296.025879,4283.333496,4312.820313,4304.487305,4278.205078,4465.128418,4491.538574,4370.641113,4411.282227,2748.000000,2.000000,51.000000,,,,0.000000,4.000000,4.000000,4.000000,4.000000,4.000000,4.000000,4.000000,4.000000,4.000000,4.000000,4.000000,4.000000,4.000000,4.000000,100.000000,,,,,,,,,,,,,,,,,,,,,,,,,,,,,,,,,,,,,,,,,,,,,,,
1665779958.568057,1665779958.568301,89.000000,0.000000,4312.051270,4295.512695,4309.615234,4326.410156,4294.743652,4297.179688,4281.538574,4307.948730,4301.153809,4280.384766,4472.179688,4491.410156,4375.256348,4418.717773,3032.000000,2.000000,51.000000,,,,0.000000,4.000000,4.000000,4.000000,4.000000,4.000000,4.000000,4.000000,4.000000,4.000000,4.000000,4.000000,4.000000,4.000000,4.000000,100.000000,,,,,,,,,,,,,,,,,,,,,,,,,,,,,,,,,,,,,,,,,,,,,,,
1665779958.575865,1665779958.576109,90.000000,0.000000,4309.358887,4293.333496,4308.974121,4328.077148,4301.538574,4298.333496,4281.153809,4300.000000,4302.179688,4282.563965,4473.846191,4488.077148,4372.436035,4425.256348,2677.000000,2.000000,51.000000,,,,0.000000,4.000000,4.000000,4.000000,4.000000,4.000000,4.000000,4.000000,4.000000,4.000000,4.000000,4.000000,4.000000,4.000000,4.000000,100.000000,,,,,,,,,,,,,,,,,,,,,,,,,,,,,,,,,,,,,,,,,,,,,,,
1665779958.583674,1665779958.583818,91.000000,0.000000,4309.230957,4293.205078,4310.512695,4328.461426,4315.512695,4302.948730,4281.794922,4296.410156,4306.282227,4280.000000,4472.563965,4488.461426,4366.922852,4428.205078,2643.000000,2.000000,51.000000,,,,0.000000,4.000000,4.000000,4.000000,4.000000,4.000000,4.000000,4.000000,4.000000,4.000000,4.000000,4.000000,4.000000,4.000000,4.000000,100.000000,,,,,,,,,,,,,,,,,,,,,,,,,,,,,,,,,,,,,,,,,,,,,,,
1665779958.591482,1665779958.591626,92.000000,0.000000,4314.230957,4296.794922,4311.282227,4328.717773,4311.922852,4300.000000,4277.692383,4295.384766,4304.743652,4275.384766,4474.230957,4488.974121,4364.230957,4427.436035,2748.000000,2.000000,51.000000,,,,0.000000,4.000000,4.000000,4.000000,4.000000,4.000000,4.000000,4.000000,4.000000,4.000000,4.000000,4.000000,4.000000,4.000000,4.000000,100.000000,,,,,,,,,,,,,,,,,,,,,,,,,,,,,,,,,,,,,,,,,,,,,,,
1665779958.599290,1665779958.599335,93.000000,0.000000,4313.974121,4305.641113,4318.077148,4331.282227,4302.307617,4296.922852,4278.077148,4295.384766,4301.794922,4275.512695,4482.820313,4490.641113,4367.563965,4423.974121,3032.000000,2.000000,51.000000,,,,0.000000,4.000000,4.000000,4.000000,4.000000,4.000000,4.000000,4.000000,4.000000,4.000000,4.000000,4.000000,4.000000,4.000000,4.000000,100.000000,,,,,,,,,,,,,,,,,,,,,,,,,,,,,,,,,,,,,,,,,,,,,,,
1665779958.607099,1665779958.607143,94.000000,0.000000,4318.846191,4314.358887,4329.230957,4334.615234,4317.948730,4305.384766,4286.666504,4302.179688,4305.641113,4289.615234,4494.743652,4499.743652,4385.641113,4435.256348,2677.000000,2.000000,51.000000,,,,0.000000,4.000000,4.000000,4.000000,4.000000,4.000000,4.000000,4.000000,4.000000,4.000000,4.000000,4.000000,4.000000,4.000000,4.000000,100.000000,,,,,,,,,,,,,,,,,,,,,,,,,,,,,,,,,,,,,,,,,,,,,,,
1665779958.614907,1665779958.614852,95.000000,0.000000,4324.102539,4313.205078,4328.717773,4333.077148,4331.794922,4314.487305,4296.410156,4314.358887,4312.436035,4302.563965,4492.051270,4510.769043,4388.589844,4443.846191,2643.000000,2.000000,51.000000,,,,0.000000,4.000000,4.000000,4.000000,4.000000,4.000000,4.000000,4.000000,4.000000,4.000000,4.000000,4.000000,4.000000,4.000000,4.000000,100.000000,,,,,,,,,,,,,,,,,,,,,,,,,,,,,,,,,,,,,,,,,,,,,,,
1665779958.622716,1665779958.622660,96.000000,0.000000,4321.538574,4310.512695,4323.846191,4337.820313,4326.282227,4320.512695,4304.871582,4327.820313,4320.897461,4308.717773,4484.102539,4520.256348,4372.820313,4436.153809,2748.000000,2.000000,51.000000,,,,0.000000,4.000000,4.000000,4.000000,4.000000,4.000000,4.000000,4.000000,4.000000,4.000000,4.000000,4.000000,4.000000,4.000000,4.000000,100.000000,,,,,,,,,,,,,,,,,,,,,,,,,,,,,,,,,,,,,,,,,,,,,,,
1665779958.630524,1665779958.630369,97.000000,0.000000,4325.641113,4316.794922,4328.589844,4347.051270,4323.717773,4320.769043,4303.717773,4331.666504,4327.563965,4313.205078,4496.410156,4526.410156,4386.538574,4441.666504,3032.000000,2.000000,51.000000,,,,0.000000,4.000000,4.000000,4.000000,4.000000,4.000000,4.000000,4.000000,4.000000,4.000000,4.000000,4.000000,4.000000,4.000000,4.000000,100.000000,,,,,,,,,,,,,,,,,,,,,,,,,,,,,,,,,,,,,,,,,,,,,,,
1665779958.638332,1665779958.638177,98.000000,0.000000,4339.487305,4322.692383,4336.666504,4345.512695,4327.436035,4316.794922,4297.307617,4330.000000,4324.615234,4315.897461,4512.307617,4527.179688,4419.743652,4463.974121,2677.000000,2.000000,51.000000,,,,0.000000,4.000000,4.000000,4.000000,4.000000,4.000000,4.000000,4.000000,4.000000,4.000000,4.000000,4.000000,4.000000,4.000000,4.000000,100.000000,,,,,,,,,,,,,,,,,,,,,,,,,,,,,,,,,,,,,,,,,,,,,,,
1665779958.646141,1665779958.645886,99.000000,0.000000,4346.410156,4318.333496,4337.563965,4341.794922,4327.563965,4312.179688,4294.230957,4328.333496,4321.025879,4315.512695,4511.666504,4525.769043,4421.282227,4469.102539,2643.000000,2.000000,51.000000,,,,0.000000,4.000000,4.000000,4.000000,4.000000,4.000000,4.000000,4.000000,4.000000,4.000000,4.000000,4.000000,4.000000,4.000000,4.000000,100.000000,,,,,,,,,,,,,,,,,,,,,,,,,,,,,,,,,,,,,,,,,,,,,,,
1665779958.653949,1665779958.653794,100.000000,0.000000,4340.384766,4312.948730,4331.153809,4340.769043,4325.769043,4303.974121,4286.794922,4321.666504,4321.282227,4306.922852,4502.307617,4519.743652,4401.025879,4455.128418,2748.000000,2.000000,51.000000,,,,0.000000,4.000000,4.000000,4.000000,4.000000,4.000000,4.000000,4.000000,4.000000,4.000000,4.000000,4.000000,4.000000,4.000000,4.000000,100.000000,,,,,,,,,,,,,,,,,,,,,,,,,,,,,,,,,,,,,,,,,,,,,,,
1665779958.661758,1665779958.661602,101.000000,0.000000,4335.512695,4310.641113,4328.717773,4331.538574,4320.641113,4298.205078,4277.948730,4309.487305,4316.282227,4291.794922,4493.974121,4507.563965,4395.128418,4446.922852,3032.000000,2.000000,51.000000,,,,0.000000,4.000000,4.000000,4.000000,4.000000,4.000000,4.000000,4.000000,4.000000,4.000000,4.000000,4.000000,4.000000,4.000000,4.000000,100.000000,,,,,,,,,,,,,,,,,,,,,,,,,,,,,,,,,,,,,,,,,,,,,,,
1665779958.669566,1665779958.669511,102.000000,0.000000,4333.077148,4308.589844,4330.897461,4323.589844,4304.102539,4299.487305,4278.205078,4300.128418,4306.794922,4280.897461,4486.666504,4498.717773,4391.538574,4439.743652,2677.000000,2.000000,51.000000,,,,0.000000,4.000000,4.000000,4.000000,4.000000,4.000000,4.000000,4.000000,4.000000,4.000000,4.000000,4.000000,4.000000,4.000000,4.000000,100.000000,,,,,,,,,,,,,,,,,,,,,,,,,,,,,,,,,,,,,,,,,,,,,,,
1665779958.677374,1665779958.677319,103.000000,0.000000,4338.333496,4319.871582,4338.077148,4333.589844,4298.846191,4308.205078,4291.410156,4306.025879,4309.743652,4290.897461,4492.692383,4508.717773,4393.717773,4443.717773,2643.000000,2.000000,51.000000,,,,0.000000,4.000000,4.000000,4.000000,4.000000,4.000000,4.000000,4.000000,4.000000,4.000000,4.000000,4.000000,4.000000,4.000000,4.000000,100.000000,,,,,,,,,,,,,,,,,,,,,,,,,,,,,,,,,,,,,,,,,,,,,,,
1665779958.685183,1665779958.685227,104.000000,0.000000,4348.205078,4335.128418,4347.692383,4345.256348,4317.563965,4318.077148,4304.743652,4315.897461,4320.000000,4308.717773,4501.666504,4524.102539,4408.589844,4457.436035,2748.000000,2.000000,51.000000,,,,0.000000,4.000000,4.000000,4.000000,4.000000,4.000000,4.000000,4.000000,4.000000,4.000000,4.000000,4.000000,4.000000,4.000000,4.000000,100.000000,,,,,,,,,,,,,,,,,,,,,,,,,,,,,,,,,,,,,,,,,,,,,,,
1665779958.692991,1665779958.693036,105.000000,0.000000,4340.512695,4328.846191,4346.282227,4341.794922,4325.128418,4320.384766,4303.974121,4314.230957,4320.897461,4308.461426,4494.871582,4524.615234,4412.436035,4457.436035,3032.000000,2.000000,51.000000,,,,0.000000,4.000000,4.000000,4.000000,4.000000,4.000000,4.000000,4.000000,4.000000,4.000000,4.000000,4.000000,4.000000,4.000000,4.000000,100.000000,,,,,,,,,,,,,,,,,,,,,,,,,,,,,,,,,,,,,,,,,,,,,,,
1665779958.700800,1665779958.700944,106.000000,0.000000,4331.410156,4315.512695,4339.487305,4340.000000,4313.333496,4321.025879,4296.282227,4313.461426,4321.794922,4300.000000,4490.641113,4521.794922,4405.769043,4455.641113,2677.000000,2.000000,51.000000,,,,0.000000,4.000000,4.000000,4.000000,4.000000,4.000000,4.000000,4.000000,4.000000,4.000000,4.000000,4.000000,4.000000,4.000000,4.000000,100.000000,,,,,,,,,,,,,,,,,,,,,,,,,,,,,,,,,,,,,,,,,,,,,,,
1665779958.708608,1665779958.708753,107.000000,0.000000,4335.384766,4318.077148,4337.948730,4345.384766,4319.871582,4325.384766,4298.077148,4318.846191,4329.358887,4299.615234,4494.615234,4520.128418,4396.922852,4454.230957,2643.000000,2.000000,51.000000,,,,0.000000,4.000000,4.000000,4.000000,4.000000,4.000000,4.000000,4.000000,4.000000,4.000000,4.000000,4.000000,4.000000,4.000000,4.000000,100.000000,,,,,,,,,,,,,,,,,,,,,,,,,,,,,,,,,,,,,,,,,,,,,,,
1665779958.716416,1665779958.716661,108.000000,0.000000,4333.846191,4321.794922,4336.410156,4342.948730,4345.384766,4328.846191,4299.743652,4322.179688,4328.974121,4303.077148,4493.589844,4510.641113,4389.230957,4448.205078,2748.000000,2.000000,51.000000,,,,0.000000,4.000000,4.000000,4.000000,4.000000,4.000000,4.000000,4.000000,4.000000,4.000000,4.000000,4.000000,4.000000,4.000000,4.000000,100.000000,,,,,,,,,,,,,,,,,,,,,,,,,,,,,,,,,,,,,,,,,,,,,,,
1665779958.724225,1665779958.724469,109.000000,0.000000,4325.897461,4316.794922,4333.974121,4335.641113,4347.179688,4327.051270,4299.230957,4323.077148,4316.025879,4293.974121,4489.871582,4503.205078,4383.589844,4441.666504,3032.000000,2.000000,51.000000,,,,0.000000,4.000000,4.000000,4.000000,4.000000,4.000000,4.000000,4.000000,4.000000,4.000000,4.000000,4.000000,4.000000,4.000000,4.000000,100.000000,,,,,,,,,,,,,,,,,,,,,,,,,,,,,,,,,,,,,,,,,,,,,,,
1665779958.732033,1665779958.732378,110.000000,0.000000,4325.000000,4313.205078,4333.974121,4332.820313,4330.384766,4327.948730,4307.692383,4326.153809,4311.666504,4286.666504,4490.641113,4504.230957,4382.563965,4435.512695,2677.000000,2.000000,51.000000,,,,0.000000,4.000000,4.000000,4.000000,4.000000,4.000000,4.000000,4.000000,4.000000,4.000000,4.000000,4.000000,4.000000,4.000000,4.000000,100.000000,,,,,,,,,,,,,,,,,,,,,,,,,,,,,,,,,,,,,,,,,,,,,,,
1665779958.739842,1665779958.740186,111.000000,0.000000,4323.333496,4313.974121,4327.436035,4327.948730,4324.615234,4327.179688,4308.717773,4327.563965,4321.538574,4297.563965,4489.358887,4504.487305,4387.051270,4428.717773,2643.000000,2.000000,51.000000,,,,0.000000,4.000000,4.000000,4.000000,4.000000,4.000000,4.000000,4.000000,4.000000,4.000000,4.000000,4.000000,4.000000,4.000000,4.000000,100.000000,,,,,,,,,,,,,,,,,,,,,,,,,,,,,,,,,,,,,,,,,,,,,,,
1665779958.747650,1665779958.748095,112.000000,0.000000,4318.974121,4316.282227,4318.974121,4322.820313,4323.077148,4319.487305,4294.743652,4325.256348,4330.000000,4308.974121,4487.436035,4505.897461,4392.948730,4426.666504,2748.000000,2.000000,51.000000,,,,0.000000,4.000000,4.000000,4.000000,4.000000,4.000000,4.000000,4.000000,4.000000,4.000000,4.000000,4.000000,4.000000,4.000000,4.000000,100.000000,,,,,,,,,,,,,,,,,,,,,,,,,,,,,,,,,,,,,,,,,,,,,,,
1665779958.755458,1665779958.755903,113.000000,0.000000,4320.128418,4314.871582,4315.641113,4322.820313,4317.436035,4311.410156,4284.230957,4317.179688,4324.615234,4308.205078,4488.846191,4503.717773,4397.179688,4429.230957,3032.000000,2.000000,51.000000,,,,0.000000,4.000000,4.000000,4.000000,4.000000,4.000000,4.000000,4.000000,4.000000,4.000000,4.000000,4.000000,4.000000,4.000000,4.000000,100.000000,,,,,,,,,,,,,,,,,,,,,,,,,,,,,,,,,,,,,,,,,,,,,,,
1665779958.763267,1665779958.763612,114.000000,0.000000,4320.769043,4308.589844,4312.179688,4322.563965,4314.358887,4312.820313,4278.974121,4306.794922,4312.051270,4300.769043,4489.743652,4497.563965,4396.153809,4431.666504,2677.000000,2.000000,51.000000,,,,0.000000,4.000000,4.000000,4.000000,4.000000,4.000000,4.000000,4.000000,4.000000,4.000000,4.000000,4.000000,4.000000,4.000000,4.000000,100.000000,,,,,,,,,,,,,,,,,,,,,,,,,,,,,,,,,,,,,,,,,,,,,,,
1665779958.771075,1665779958.771420,115.000000,0.000000,4323.717773,4308.333496,4313.333496,4324.230957,4321.025879,4322.563965,4276.025879,4309.102539,4313.846191,4298.846191,4492.179688,4499.871582,4396.410156,4441.666504,2643.000000,2.000000,51.000000,,,,0.000000,4.000000,4.000000,4.000000,4.000000,4.000000,4.000000,4.000000,4.000000,4.000000,4.000000,4.000000,4.000000,4.000000,4.000000,100.000000,,,,,,,,,,,,,,,,,,,,,,,,,,,,,,,,,,,,,,,,,,,,,,,
1665779958.778884,1665779958.779129,116.000000,0.000000,4326.538574,4312.563965,4319.615234,4327.692383,4326.538574,4322.692383,4283.846191,4312.820313,4321.538574,4294.871582,4491.922852,4504.230957,4390.769043,4445.000000,2748.000000,2.000000,51.000000,,,,0.000000,4.000000,4.000000,4.000000,4.000000,4.000000,4.000000,4.000000,4.000000,4.000000,4.000000,4.000000,4.000000,4.000000,4.000000,100.000000,,,,,,,,,,,,,,,,,,,,,,,,,,,,,,,,,,,,,,,,,,,,,,,
1665779958.786692,1665779958.786937,117.000000,0.000000,4320.128418,4310.641113,4322.692383,4326.410156,4318.077148,4316.794922,4293.077148,4310.256348,4318.974121,4283.205078,4495.769043,4501.538574,4380.000000,4434.743652,3032.000000,2.000000,51.000000,,,,0.000000,4.000000,4.000000,4.000000,4.000000,4.000000,4.000000,4.000000,4.000000,4.000000,4.000000,4.000000,4.000000,4.000000,4.000000,100.000000,,,,,,,,,,,,,,,,,,,,,,,,,,,,,,,,,,,,,,,,,,,,,,,
1665779958.794500,1665779958.794646,118.000000,0.000000,4318.589844,4311.025879,4327.692383,4325.256348,4302.948730,4316.410156,4297.307617,4315.384766,4317.692383,4277.307617,4506.922852,4504.102539,4383.077148,4433.077148,2677.000000,2.000000,51.000000,,,,0.000000,4.000000,4.000000,4.000000,4.000000,4.000000,4.000000,4.000000,4.000000,4.000000,4.000000,4.000000,4.000000,4.000000,4.000000,100.000000,,,,,,,,,,,,,,,,,,,,,,,,,,,,,,,,,,,,,,,,,,,,,,,
1665779958.802309,1665779958.802554,119.000000,0.000000,4322.948730,4318.333496,4333.974121,4325.384766,4300.256348,4318.589844,4301.025879,4323.205078,4324.743652,4289.102539,4513.589844,4515.256348,4394.102539,4441.282227,2643.000000,2.000000,51.000000,,,,0.000000,4.000000,4.000000,4.000000,4.000000,4.000000,4.000000,4.000000,4.000000,4.000000,4.000000,4.000000,4.000000,4.000000,4.000000,100.000000,,,,,,,,,,,,,,,,,,,,,,,,,,,,,,,,,,,,,,,,,,,,,,,
1665779958.810117,1665779958.810362,120.000000,0.000000,4321.922852,4321.153809,4332.051270,4325.000000,4310.384766,4322.948730,4302.692383,4321.922852,4327.820313,4307.820313,4513.846191,4525.897461,4399.871582,4446.794922,2748.000000,2.000000,51.000000,,,,0.000000,4.000000,4.000000,4.000000,4.000000,4.000000,4.000000,4.000000,4.000000,4.000000,4.000000,4.000000,4.000000,4.000000,4.000000,100.000000,,,,,,,,,,,,,,,,,,,,,,,,,,,,,,,,,,,,,,,,,,,,,,,
1665779958.817926,1665779958.818171,121.000000,0.000000,4317.820313,4317.051270,4327.051270,4327.820313,4313.461426,4326.666504,4304.102539,4319.487305,4323.846191,4310.256348,4515.512695,4521.794922,4400.384766,4443.974121,3032.000000,2.000000,51.000000,,,,0.000000,4.000000,4.000000,4.000000,4.000000,4.000000,4.000000,4.000000,4.000000,4.000000,4.000000,4.000000,4.000000,4.000000,4.000000,100.000000,,,,,,,,,,,,,,,,,,,,,,,,,,,,,,,,,,,,,,,,,,,,,,,
1665779958.825734,1665779958.825879,122.000000,0.000000,4319.102539,4316.153809,4323.461426,4332.563965,4312.051270,4327.563965,4303.205078,4323.974121,4325.256348,4308.589844,4518.461426,4508.461426,4399.743652,4441.025879,2677.000000,2.000000,51.000000,,,,0.000000,4.000000,4.000000,4.000000,4.000000,4.000000,4.000000,4.000000,4.000000,4.000000,4.000000,4.000000,4.000000,4.000000,4.000000,100.000000,,,,,,,,,,,,,,,,,,,,,,,,,,,,,,,,,,,,,,,,,,,,,,,
1665779958.833542,1665779958.833688,123.000000,0.000000,4326.282227,4317.948730,4323.205078,4335.128418,4315.769043,4332.307617,4300.256348,4335.897461,4336.922852,4322.436035,4523.077148,4515.128418,4402.179688,4449.487305,2643.000000,2.000000,51.000000,1,1,1,0.000000,4.000000,4.000000,4.000000,4.000000,4.000000,4.000000,4.000000,4.000000,4.000000,4.000000,4.000000,4.000000,4.000000,4.000000,100.000000,,,,,,,,,,,,,,,,,,,,,,,,,,,,,,,,,,,,,,,,,,,,,,,
1665779958.841351,1665779958.841396,124.000000,0.000000,4326.282227,4318.333496,4325.512695,4333.589844,4323.974121,4331.922852,4296.794922,4342.179688,4343.846191,4331.410156,4526.666504,4526.410156,4402.820313,4453.461426,2748.000000,2.000000,51.000000,,,,0.000000,4.000000,4.000000,4.000000,4.000000,4.000000,4.000000,4.000000,4.000000,4.000000,4.000000,4.000000,4.000000,4.000000,4.000000,100.000000,,,,,,,,,,,,,,,,,,,,,,,,,,,,,,,,,,,,,,,,,,,,,,,
1665779958.849159,1665779958.849205,125.000000,0.000000,4319.358887,4320.897461,4324.102539,4331.153809,4328.205078,4316.794922,4295.128418,4336.153809,4338.974121,4317.563965,4524.615234,4513.974121,4396.666504,4445.000000,3032.000000,2.000000,51.000000,,,,0.000000,4.000000,4.000000,4.000000,4.000000,4.000000,4.000000,4.000000,4.000000,4.000000,4.000000,4.000000,4.000000,4.000000,4.000000,100.000000,,,,,,,,,,,,,,,,,,,,,,,,,,,,,,,,,,,,,,,,,,,,,,,
1665779958.856968,1665779958.856913,126.000000,0.000000,4321.282227,4325.512695,4323.589844,4331.666504,4320.897461,4311.922852,4293.333496,4325.769043,4334.102539,4305.897461,4522.948730,4502.051270,4393.589844,4439.743652,2677.000000,2.000000,51.000000,,,,0.000000,4.000000,4.000000,4.000000,4.000000,4.000000,4.000000,4.000000,4.000000,4.000000,4.000000,4.000000,4.000000,4.000000,4.000000,100.000000,,,,,,,,,,,,,,,,,,,,,,,,,,,,,,,,,,,,,,,,,,,,,,,
1665779958.864776,1665779958.864822,127.000000,0.000000,4331.410156,4331.153809,4331.025879,4335.512695,4311.410156,4320.769043,4290.256348,4319.102539,4330.128418,4311.025879,4522.563965,4510.512695,4403.205078,4444.487305,51.000000,2.000000,51.000000,,,,0.000000,4.000000,4.000000,4.000000,4.000000,4.000000,4.000000,4.000000,4.000000,4.000000,4.000000,4.000000,4.000000,4.000000,4.000000,100.000000,,,,,,,,,,,,,,,,,,,,,,,,,,,,,,,,,,,,,,,,,,,,,,,
1665779958.872585,1665779958.872630,0.000000,0.000000,4336.794922,4336.282227,4337.563965,4336.666504,4320.641113,4319.102539,4293.461426,4314.102539,4321.153809,4314.487305,4523.333496,4521.025879,4412.307617,4451.922852,2322.000000,2.000000,51.000000,,,,0.000000,4.000000,4.000000,4.000000,4.000000,4.000000,4.000000,4.000000,4.000000,4.000000,4.000000,4.000000,4.000000,4.000000,4.000000,100.000000,,,,,,,,,,,,,,,,,,,,,,,,,,,,,,,,,,,,,,,,,,,,,,,
1665779958.880393,1665779958.880539,1.000000,0.000000,4338.974121,4335.128418,4335.641113,4333.589844,4330.000000,4314.487305,4292.563965,4302.307617,4316.922852,4311.410156,4520.641113,4522.692383,4412.436035,4459.230957,2294.000000,2.000000,51.000000,,,,0.000000,4.000000,4.000000,4.000000,4.000000,4.000000,4.000000,4.000000,4.000000,4.000000,4.000000,4.000000,4.000000,4.000000,4.000000,100.000000,,,,,,,,,,,,,,,,,,,,,,,,,,,,,,,,,,,,,,,,,,,,,,,
1665779958.888201,1665779958.888347,2.000000,0.000000,4340.641113,4330.512695,4336.025879,4338.077148,4324.358887,4322.948730,4286.153809,4293.077148,4322.051270,4308.333496,4512.307617,4520.000000,4407.436035,4461.794922,2169.000000,2.000000,51.000000,,,,0.000000,4.000000,4.000000,4.000000,4.000000,4.000000,4.000000,4.000000,4.000000,4.000000,4.000000,4.000000,4.000000,4.000000,4.000000,100.000000,,,,,,,,,,,,,,,,,,,,,,,,,,,,,,,,,,,,,,,,,,,,,,,
1665779958.896010,1665779958.896255,3.000000,0.000000,4332.692383,4322.051270,4333.205078,4343.077148,4317.436035,4327.307617,4285.897461,4299.871582,4324.615234,4304.102539,4507.179688,4511.153809,4397.820313,4453.717773,2321.000000,2.000000,51.000000,,,,0.000000,4.000000,4.000000,4.000000,4.000000,4.000000,4.000000,4.000000,4.000000,4.000000,4.000000,4.000000,4.000000,4.000000,4.000000,100.000000,,,,,,,,,,,,,,,,,,,,,,,,,,,,,,,,,,,,,,,,,,,,,,,
1665779958.903818,1665779958.904064,4.000000,0.000000,4322.563965,4309.358887,4325.512695,4336.025879,4314.743652,4324.358887,4293.461426,4320.769043,4327.692383,4301.153809,4508.461426,4507.307617,4387.051270,4448.717773,2312.000000,2.000000,51.000000,,,,0.000000,4.000000,4.000000,4.000000,4.000000,4.000000,4.000000,4.000000,4.000000,4.000000,4.000000,4.000000,4.000000,4.000000,4.000000,100.000000,,,,,,,,,,,,,,,,,,,,,,,,,,,,,,,,,,,,,,,,,,,,,,,
1665779958.911627,1665779958.911972,5.000000,0.000000,4319.743652,4307.179688,4323.461426,4328.846191,4319.230957,4326.538574,4298.333496,4338.717773,4332.563965,4292.436035,4503.461426,4508.846191,4375.641113,4444.615234,2341.000000,2.000000,51.000000,,,,0.000000,4.000000,4.000000,4.000000,4.000000,4.000000,4.000000,4.000000,4.000000,4.000000,4.000000,4.000000,4.000000,4.000000,4.000000,100.000000,1.000000,100.000000,4.000000,4.000000,4.000000,4.000000,4.000000,4.000000,4.000000,4.000000,4.000000,4.000000,4.000000,4.000000,4.000000,4.000000,1.000000,0.450610,-0.590796,-1.309901,0.187888,1.000000,0.237868,3.549992,1.946833,8.686537,0.302627,1.000000,0.323841,48.897041,-32.866581,198.912720,1.000000,0.294928,0.164803,0.088800,0.322896,1.000000,0.427511,3.884266,-4.430881,15.653028,1.000000,0.396064,0.396064,0.000000,1.000000
1665779958.919435,1665779958.919781,6.000000,0.000000,4315.384766,4310.897461,4318.974121,4323.846191,4323.846191,4321.666504,4296.794922,4342.820313,4331.666504,4271.922852,4491.153809,4503.974121,4364.871582,4433.205078,2110.000000,2.000000,51.000000,,,,0.000000,4.000000,4.000000,4.000000,4.000000,4.000000,4.000000,4.000000,4.000000,4.000000,4.000000,4.000000,4.000000,4.000000,4.000000,100.000000,,,,,,,,,,,,,,,,,,,,,,,,,,,,,,,,,,,,,,,,,,,,,,,
1665779958.927243,1665779958.927689,7.000000,0.000000,4307.436035,4307.179688,4312.436035,4315.512695,4317.179688,4311.666504,4296.666504,4340.000000,4326.153809,4264.743652,4487.179688,4498.077148,4361.538574,4425.769043,1942.000000,2.000000,51.000000,,,,0.000000,4.000000,4.000000,4.000000,4.000000,4.000000,4.000000,4.000000,4.000000,4.000000,4.000000,4.000000,4.000000,4.000000,4.000000,100.000000,,,,,,,,,,,,,,,,,,,,,,,,,,,,,,,,,,,,,,,,,,,,,,,
1665779958.935052,1665779958.935497,8.000000,0.000000,4306.794922,4308.589844,4312.307617,4316.153809,4311.410156,4314.871582,4296.410156,4333.333496,4327.051270,4285.000000,4494.487305,4499.743652,4371.410156,4424.871582,1322.000000,2.000000,51.000000,,,,0.000000,4.000000,4.000000,4.000000,4.000000,4.000000,4.000000,4.000000,4.000000,4.000000,4.000000,4.000000,4.000000,4.000000,4.000000,100.000000,,,,,,,,,,,,,,,,,,,,,,,,,,,,,,,,,,,,,,,,,,,,,,,
1665779958.942860,1665779958.943406,9.000000,0.000000,4312.307617,4319.358887,4313.846191,4326.538574,4324.102539,4326.153809,4295.641113,4328.974121,4334.871582,4306.666504,4504.615234,4506.410156,4388.589844,4428.974121,2383.000000,2.000000,51.000000,,,,0.000000,4.000000,4.000000,4.000000,4.000000,4.000000,4.000000,4.000000,4.000000,4.000000,4.000000,4.000000,4.000000,4.000000,4.000000,100.000000,,,,,,,,,,,,,,,,,,,,,,,,,,,,,,,,,,,,,,,,,,,,,,,
1665779958.950669,1665779958.951214,10.000000,0.000000,4312.307617,4325.384766,4311.410156,4332.051270,4334.230957,4329.487305,4293.974121,4325.641113,4336.025879,4312.948730,4507.179688,4506.794922,4398.461426,4435.000000,2672.000000,2.000000,51.000000,,,,0.000000,4.000000,4.000000,4.000000,4.000000,4.000000,4.000000,4.000000,4.000000,4.000000,4.000000,4.000000,4.000000,4.000000,4.000000,100.000000,,,,,,,,,,,,,,,,,,,,,,,,,,,,,,,,,,,,,,,,,,,,,,,
1665779958.958477,1665779958.958923,11.000000,0.000000,4310.512695,4321.922852,4311.538574,4333.461426,4330.769043,4328.077148,4286.538574,4317.179688,4330.384766,4311.666504,4498.717773,4498.333496,4391.922852,4436.282227,2636.000000,2.000000,51.000000,,,,0.000000,4.000000,4.000000,4.000000,4.000000,4.000000,4.000000,4.000000,4.000000,4.000000,4.000000,4.000000,4.000000,4.000000,4.000000,100.000000,,,,,,,,,,,,,,,,,,,,,,,,,,,,,,,,,,,,,,,,,,,,,,,
1665779958.966285,1665779958.966731,12.000000,0.000000,4310.897461,4314.743652,4310.128418,4329.743652,4327.563965,4325.000000,4276.666504,4305.769043,4323.589844,4302.307617,4488.846191,4488.974121,4376.153809,4429.487305,2743.000000,2.000000,51.000000,,,,0.000000,4.000000,4.000000,4.000000,4.000000,4.000000,4.000000,4.000000,4.000000,4.000000,4.000000,4.000000,4.000000,4.000000,4.000000,100.000000,,,,,,,,,,,,,,,,,,,,,,,,,,,,,,,,,,,,,,,,,,,,,,,
1665779958.974094,1665779958.974440,13.000000,0.000000,4309.230957,4317.820313,4309.358887,4322.820313,4328.333496,4321.025879,4274.615234,4303.461426,4320.641113,4291.025879,4492.179688,4486.794922,4372.307617,4425.641113,3019.000000,2.000000,51.000000,,,,0.000000,4.000000,4.000000,4.000000,4.000000,4.000000,4.000000,4.000000,4.000000,4.000000,4.000000,4.000000,4.000000,4.000000,4.000000,100.000000,,,,,,,,,,,,,,,,,,,,,,,,,,,,,,,,,,,,,,,,,,,,,,,
1665779958.981902,1665779958.982248,14.000000,0.000000,4316.025879,4338.717773,4326.153809,4334.871582,4338.717773,4326.794922,4288.461426,4316.282227,4328.846191,4298.461426,4506.666504,4497.948730,4388.461426,4438.333496,2672.000000,2.000000,51.000000,,,,0.000000,4.000000,4.000000,4.000000,4.000000,4.000000,4.000000,4.000000,4.000000,4.000000,4.000000,4.000000,4.000000,4.000000,4.000000,100.000000,,,,,,,,,,,,,,,,,,,,,,,,,,,,,,,,,,,,,,,,,,,,,,,
1665779958.989711,1665779958.989957,15.000000,0.000000,4322.436035,4344.871582,4339.615234,4342.307617,4331.410156,4328.205078,4296.922852,4321.282227,4333.974121,4305.256348,4511.282227,4508.333496,4395.641113,4447.820313,2636.000000,2.000000,51.000000,,,,0.000000,4.000000,4.000000,4.000000,4.000000,4.000000,4.000000,4.000000,4.000000,4.000000,4.000000,4.000000,4.000000,4.000000,4.000000,100.000000,,,,,,,,,,,,,,,,,,,,,,,,,,,,,,,,,,,,,,,,,,,,,,,
1665779958.997519,1665779958.997765,16.000000,0.000000,4313.461426,4327.179688,4328.974121,4324.487305,4299.358887,4315.769043,4289.487305,4315.512695,4327.051270,4297.563965,4503.333496,4505.769043,4382.307617,4437.563965,0.000000,2.000000,51.000000,,,,0.000000,4.000000,4.000000,4.000000,4.000000,4.000000,4.000000,4.000000,4.000000,4.000000,4.000000,4.000000,4.000000,4.000000,4.000000,100.000000,,,,,,,,,,,,,,,,,,,,,,,,,,,,,,,,,,,,,,,,,,,,,,,
1665779959.005327,1665779959.005474,17.000000,0.000000,4304.230957,4321.282227,4316.794922,4317.436035,4286.025879,4312.051270,4288.717773,4320.000000,4325.128418,4301.538574,4498.846191,4501.666504,4380.512695,4429.871582,0.000000,2.000000,51.000000,,,,0.000000,4.000000,4.000000,4.000000,4.000000,4.000000,4.000000,4.000000,4.000000,4.000000,4.000000,4.000000,4.000000,4.000000,4.000000,100.000000,,,,,,,,,,,,,,,,,,,,,,,,,,,,,,,,,,,,,,,,,,,,,,,
1665779959.013136,1665779959.013282,18.000000,0.000000,4307.307617,4326.666504,4318.846191,4327.051270,4308.205078,4321.282227,4297.436035,4332.692383,4332.820313,4309.743652,4504.230957,4507.179688,4390.512695,4441.282227,0.000000,2.000000,51.000000,,,,0.000000,4.000000,4.000000,4.000000,4.000000,4.000000,4.000000,4.000000,4.000000,4.000000,4.000000,4.000000,4.000000,4.000000,4.000000,100.000000,,,,,,,,,,,,,,,,,,,,,,,,,,,,,,,,,,,,,,,,,,,,,,,
1665779959.020944,1665779959.020991,19.000000,0.000000,4309.743652,4320.000000,4320.641113,4326.794922,4324.358887,4325.641113,4298.717773,4337.179688,4331.538574,4298.974121,4508.974121,4512.692383,4386.153809,4449.487305,0.000000,2.000000,51.000000,,,,0.000000,4.000000,4.000000,4.000000,4.000000,4.000000,4.000000,4.000000,4.000000,4.000000,4.000000,4.000000,4.000000,4.000000,4.000000,100.000000,,,,,,,,,,,,,,,,,,,,,,,,,,,,,,,,,,,,,,,,,,,,,,,
1665779959.028753,1665779959.028799,20.000000,0.000000,4307.307617,4308.589844,4315.641113,4320.512695,4317.179688,4320.256348,4292.948730,4333.077148,4323.205078,4288.205078,4501.922852,4502.051270,4374.615234,4441.538574,0.000000,2.000000,51.000000,,,,0.000000,4.000000,4.000000,4.000000,4.000000,4.000000,4.000000,4.000000,4.000000,4.000000,4.000000,4.000000,4.000000,4.000000,4.000000,100.000000,,,,,,,,,,,,,,,,,,,,,,,,,,,,,,,,,,,,,,,,,,,,,,,
1665779959.036561,1665779959.036508,21.000000,0.000000,4310.512695,4313.205078,4319.743652,4324.743652,4320.641113,4319.230957,4295.641113,4335.256348,4324.358887,4295.384766,4498.717773,4496.922852,4377.179688,4441.282227,0.000000,2.000000,51.000000,,,,0.000000,4.000000,4.000000,4.000000,4.000000,4.000000,4.000000,4.000000,4.000000,4.000000,4.000000,4.000000,4.000000,4.000000,4.000000,100.000000,,,,,,,,,,,,,,,,,,,,,,,,,,,,,,,,,,,,,,,,,,,,,,,
1665779959.044370,1665779959.044416,22.000000,0.000000,4312.051270,4322.820313,4327.307617,4325.000000,4327.436035,4321.538574,4300.897461,4335.641113,4328.333496,4298.589844,4507.820313,4504.487305,4381.794922,4441.410156,0.000000,2.000000,51.000000,,,,0.000000,4.000000,4.000000,4.000000,4.000000,4.000000,4.000000,4.000000,4.000000,4.000000,4.000000,4.000000,4.000000,4.000000,4.000000,100.000000,,,,,,,,,,,,,,,,,,,,,,,,,,,,,,,,,,,,,,,,,,,,,,,
1665779959.052178,1665779959.052224,23.000000,0.000000,4309.358887,4326.153809,4324.230957,4322.051270,4321.025879,4320.256348,4295.384766,4322.948730,4325.512695,4287.948730,4508.205078,4501.410156,4380.128418,4431.153809,0.000000,2.000000,51.000000,,,,0.000000,4.000000,4.000000,4.000000,4.000000,4.000000,4.000000,4.000000,4.000000,4.000000,4.000000,4.000000,4.000000,4.000000,4.000000,100.000000,,,,,,,,,,,,,,,,,,,,,,,,,,,,,,,,,,,,,,,,,,,,,,,
1665779959.059986,1665779959.060133,24.000000,0.000000,4310.000000,4328.077148,4321.794922,4323.974121,4315.256348,4321.025879,4283.846191,4307.692383,4319.230957,4285.256348,4495.384766,4494.743652,4386.282227,4433.077148,0.000000,2.000000,51.000000,,,,0.000000,4.000000,4.000000,4.000000,4.000000,4.000000,4.000000,4.000000,4.000000,4.000000,4.000000,4.000000,4.000000,4.000000,4.000000,100.000000,,,,,,,,,,,,,,,,,,,,,,,,,,,,,,,,,,,,,,,,,,,,,,,
1665779959.067795,1665779959.067941,25.000000,0.000000,4313.461426,4330.769043,4327.307617,4328.717773,4314.615234,4322.436035,4278.974121,4299.871582,4316.538574,4300.384766,4491.410156,4499.871582,4394.871582,4446.025879,0.000000,2.000000,51.000000,,,,0.000000,4.000000,4.000000,4.000000,4.000000,4.000000,4.000000,4.000000,4.000000,4.000000,4.000000,4.000000,4.000000,4.000000,4.000000,100.000000,,,,,,,,,,,,,,,,,,,,,,,,,,,,,,,,,,,,,,,,,,,,,,,
1665779959.075603,1665779959.075850,26.000000,0.000000,4313.461426,4327.051270,4325.128418,4333.846191,4310.384766,4320.384766,4280.000000,4298.461426,4323.461426,4309.358887,4497.820313,4503.717773,4392.051270,4445.897461,0.000000,2.000000,51.000000,,,,0.000000,4.000000,4.000000,4.000000,4.000000,4.000000,4.000000,4.000000,4.000000,4.000000,4.000000,4.000000,4.000000,4.000000,4.000000,100.000000,,,,,,,,,,,,,,,,,,,,,,,,,,,,,,,,,,,,,,,,,,,,,,,
1665779959.083412,1665779959.083658,27.000000,0.000000,4311.538574,4319.743652,4318.205078,4333.205078,4308.205078,4317.436035,4280.512695,4307.692383,4333.205078,4300.000000,4504.871582,4500.128418,4387.820313,4438.461426,0.000000,2.000000,51.000000,,,,0.000000,4.000000,4.000000,4.000000,4.000000,4.000000,4.000000,4.000000,4.000000,4.000000,4.000000,4.000000,4.000000,4.000000,4.000000,100.000000,,,,,,,,,,,,,,,,,,,,,,,,,,,,,,,,,,,,,,,,,,,,,,,
1665779959.091220,1665779959.091566,28.000000,0.000000,4313.333496,4314.487305,4321.282227,4329.743652,4315.512695,4319.102539,4281.666504,4326.153809,4337.179688,4303.974121,4510.641113,4506.282227,4392.051270,4444.871582,0.000000,2.000000,51.000000,,,,0.000000,4.000000,4.000000,4.000000,4.000000,4.000000,4.000000,4.000000,4.000000,4.000000,4.000000,4.000000,4.000000,4.000000,4.000000,100.000000,,,,,,,,,,,,,,,,,,,,,,,,,,,,,,,,,,,,,,,,,,,,,,,
1665779959.099028,1665779959.099375,29.000000,0.000000,4313.333496,4308.333496,4321.794922,4326.282227,4313.846191,4314.102539,4280.000000,4328.077148,4332.436035,4311.538574,4505.384766,4508.589844,4388.974121,4445.384766,0.000000,2.000000,51.000000,,,,0.000000,4.000000,4.000000,4.000000,4.000000,4.000000,4.000000,4.000000,4.000000,4.000000,4.000000,4.000000,4.000000,4.000000,4.000000,100.000000,,,,,,,,,,,,,,,,,,,,,,,,,,,,,,,,,,,,,,,,,,,,,,,
1665779959.106837,1665779959.107283,30.000000,0.000000,4300.769043,4299.487305,4313.846191,4315.512695,4298.846191,4301.025879,4279.102539,4316.282227,4321.153809,4292.436035,4493.077148,4491.922852,4376.794922,4425.512695,0.000000,2.000000,51.000000,,,,0.000000,4.000000,4.000000,4.000000,4.000000,4.000000,4.000000,4.000000,4.000000,4.000000,4.000000,4.000000,4.000000,4.000000,4.000000,100.000000,,,,,,,,,,,,,,,,,,,,,,,,,,,,,,,,,,,,,,,,,,,,,,,
1665779959.114645,1665779959.115092,31.000000,0.000000,4282.436035,4285.641113,4303.846191,4296.666504,4288.846191,4294.871582,4275.512695,4311.410156,4309.871582,4270.000000,4482.179688,4475.897461,4366.538574,4407.051270,0.000000,2.000000,51.000000,,,,0.000000,4.000000,4.000000,4.000000,4.000000,4.000000,4.000000,4.000000,4.000000,4.000000,4.000000,4.000000,4.000000,4.000000,4.000000,100.000000,,,,,,,,,,,,,,,,,,,,,,,,,,,,,,,,,,,,,,,,,,,,,,,
1665779959.122454,1665779959.123000,32.000000,0.000000,4276.538574,4276.025879,4296.666504,4289.358887,4294.743652,4296.666504,4268.333496,4307.179688,4309.102539,4266.153809,4475.641113,4472.307617,4364.230957,4402.179688,0.000000,2.000000,51.000000,,,,0.000000,4.000000,4.000000,4.000000,4.000000,4.000000,4.000000,4.000000,4.000000,4.000000,4.000000,4.000000,4.000000,4.000000,4.000000,100.000000,,,,,,,,,,,,,,,,,,,,,,,,,,,,,,,,,,,,,,,,,,,,,,,
1665779959.130262,1665779959.130808,33.000000,0.000000,4282.563965,4276.282227,4295.128418,4296.922852,4302.307617,4299.615234,4265.256348,4299.743652,4314.102539,4264.871582,4473.974121,4472.436035,4369.102539,4403.461426,0.000000,2.000000,51.000000,,,,0.000000,4.000000,4.000000,4.000000,4.000000,4.000000,4.000000,4.000000,4.000000,4.000000,4.000000,4.000000,4.000000,4.000000,4.000000,100.000000,,,,,,,,,,,,,,,,,,,,,,,,,,,,,,,,,,,,,,,,,,,,,,,
1665779959.138070,1665779959.138717,34.000000,0.000000,4282.692383,4269.743652,4288.846191,4297.179688,4289.102539,4292.436035,4257.307617,4291.538574,4305.641113,4261.410156,4465.512695,4460.000000,4365.128418,4398.333496,0.000000,2.000000,51.000000,,,,0.000000,4.000000,4.000000,4.000000,4.000000,4.000000,4.000000,4.000000,4.000000,4.000000,4.000000,4.000000,4.000000,4.000000,4.000000,100.000000,,,,,,,,,,,,,,,,,,,,,,,,,,,,,,,,,,,,,,,,,,,,,,,
1665779959.145879,1665779959.146525,35.000000,0.000000,4275.769043,4251.666504,4278.974121,4292.051270,4278.461426,4283.589844,4245.256348,4283.333496,4294.615234,4261.025879,4450.769043,4445.512695,4349.743652,4393.205078,0.000000,2.000000,51.000000,,,,0.000000,4.000000,4.000000,4.000000,4.000000,4.000000,4.000000,4.000000,4.000000,4.000000,4.000000,4.000000,4.000000,4.000000,4.000000,100.000000,,,,,,,,,,,,,,,,,,,,,,,,,,,,,,,,,,,,,,,,,,,,,,,
1665779959.153687,1665779959.154234,36.000000,0.000000,4274.487305,4242.692383,4277.051270,4292.179688,4287.948730,4286.282227,4242.179688,4276.025879,4294.615234,4251.025879,4447.051270,4441.922852,4340.769043,4394.102539,0.000000,2.000000,51.000000,,,,0.000000,4.000000,4.000000,4.000000,4.000000,4.000000,4.000000,4.000000,4.000000,4.000000,4.000000,4.000000,4.000000,4.000000,4.000000,100.000000,,,,,,,,,,,,,,,,,,,,,,,,,,,,,,,,,,,,,,,,,,,,,,,
1665779959.161496,1665779959.162042,37.000000,0.000000,4279.358887,4253.205078,4282.948730,4298.589844,4298.589844,4293.333496,4246.666504,4278.589844,4295.512695,4243.589844,4454.743652,4441.922852,4343.333496,4395.897461,0.000000,2.000000,51.000000,,,,0.000000,4.000000,4.000000,4.000000,4.000000,4.000000,4.000000,4.000000,4.000000,4.000000,4.000000,4.000000,4.000000,4.000000,4.000000,100.000000,,,,,,,,,,,,,,,,,,,,,,,,,,,,,,,,,,,,,,,,,,,,,,,
1665779959.169304,1665779959.169751,38.000000,0.000000,4281.282227,4265.128418,4289.102539,4304.358887,4299.102539,4296.666504,4254.615234,4290.897461,4298.974121,4254.615234,4459.487305,4450.256348,4349.230957,4395.769043,0.000000,2.000000,51.000000,,,,0.000000,4.000000,4.000000,4.000000,4.000000,4.000000,4.000000,4.000000,4.000000,4.000000,4.000000,4.000000,4.000000,4.000000,4.000000,100.000000,,,,,,,,,,,,,,,,,,,,,,,,,,,,,,,,,,,,,,,,,,,,,,,
1665779959.177112,1665779959.177559,39.000000,0.000000,4279.871582,4266.153809,4293.717773,4302.820313,4299.230957,4295.641113,4262.820313,4297.179688,4308.461426,4263.461426,4463.846191,4458.974121,4354.615234,4396.666504,0.000000,2.000000,51.000000,,,,0.000000,4.000000,4.000000,4.000000,4.000000,4.000000,4.000000,4.000000,4.000000,4.000000,4.000000,4.000000,4.000000,4.000000,4.000000,100.000000,,,,,,,,,,,,,,,,,,,,,,,,,,,,,,,,,,,,,,,,,,,,,,,
1665779959.184921,1665779959.185268,40.000000,0.000000,4277.820313,4265.512695,4292.179688,4297.563965,4296.282227,4295.256348,4264.230957,4295.000000,4310.769043,4263.461426,4467.692383,4460.769043,4355.769043,4400.256348,0.000000,2.000000,51.000000,,,,0.000000,4.000000,4.000000,4.000000,4.000000,4.000000,4.000000,4.000000,4.000000,4.000000,4.000000,4.000000,4.000000,4.000000,4.000000,100.000000,,,,,,,,,,,,,,,,,,,,,,,,,,,,,,,,,,,,,,,,,,,,,,,
1665779959.192729,1665779959.193076,41.000000,0.000000,4280.128418,4270.000000,4292.820313,4303.461426,4284.230957,4294.102539,4261.282227,4295.897461,4308.589844,4273.333496,4468.077148,4467.820313,4360.641113,4405.128418,0.000000,2.000000,51.000000,,,,0.000000,4.000000,4.000000,4.000000,4.000000,4.000000,4.000000,4.000000,4.000000,4.000000,4.000000,4.000000,4.000000,4.000000,4.000000,100.000000,,,,,,,,,,,,,,,,,,,,,,,,,,,,,,,,,,,,,,,,,,,,,,,
1665779959.200538,1665779959.200785,42.000000,0.000000,4284.358887,4269.743652,4295.256348,4311.282227,4277.563965,4293.461426,4258.077148,4299.615234,4309.615234,4280.128418,4467.948730,4475.384766,4366.922852,4407.307617,0.000000,2.000000,51.000000,,,,0.000000,4.000000,4.000000,4.000000,4.000000,4.000000,4.000000,4.000000,4.000000,4.000000,4.000000,4.000000,4.000000,4.000000,4.000000,100.000000,,,,,,,,,,,,,,,,,,,,,,,,,,,,,,,,,,,,,,,,,,,,,,,
1665779959.208346,1665779959.208693,43.000000,0.000000,4282.179688,4261.922852,4286.538574,4301.794922,4277.948730,4291.538574,4250.256348,4295.769043,4303.846191,4266.538574,4466.410156,4463.974121,4361.538574,4402.948730,0.000000,2.000000,51.000000,,,,0.000000,4.000000,4.000000,4.000000,4.000000,4.000000,4.000000,4.000000,4.000000,4.000000,4.000000,4.000000,4.000000,4.000000,4.000000,100.000000,,,,,,,,,,,,,,,,,,,,,,,,,,,,,,,,,,,,,,,,,,,,,,,
1665779959.216154,1665779959.216502,44.000000,0.000000,4280.256348,4259.102539,4282.692383,4295.897461,4280.512695,4286.282227,4247.563965,4296.153809,4298.717773,4259.487305,4467.051270,4456.410156,4357.307617,4405.000000,0.000000,2.000000,51.000000,,,,0.000000,4.000000,4.000000,4.000000,4.000000,4.000000,4.000000,4.000000,4.000000,4.000000,4.000000,4.000000,4.000000,4.000000,4.000000,100.000000,,,,,,,,,,,,,,,,,,,,,,,,,,,,,,,,,,,,,,,,,,,,,,,
1665779959.223963,1665779959.224410,45.000000,0.000000,4288.077148,4263.077148,4291.025879,4304.230957,4282.948730,4280.512695,4251.922852,4307.179688,4302.307617,4268.846191,4472.692383,4470.641113,4363.077148,4412.307617,0.000000,2.000000,51.000000,,,,0.000000,4.000000,4.000000,4.000000,4.000000,4.000000,4.000000,4.000000,4.000000,4.000000,4.000000,4.000000,4.000000,4.000000,4.000000,100.000000,,,,,,,,,,,,,,,,,,,,,,,,,,,,,,,,,,,,,,,,,,,,,,,
1665779959.231771,1665779959.232218,46.000000,0.000000,4296.538574,4271.794922,4300.512695,4309.487305,4278.846191,4280.384766,4257.307617,4310.256348,4305.769043,4273.846191,4478.077148,4479.487305,4372.051270,4414.230957,0.000000,2.000000,51.000000,,,,0.000000,4.000000,4.000000,4.000000,4.000000,4.000000,4.000000,4.000000,4.000000,4.000000,4.000000,4.000000,4.000000,4.000000,4.000000,100.000000,,,,,,,,,,,,,,,,,,,,,,,,,,,,,,,,,,,,,,,,,,,,,,,
1665779959.239580,1665779959.240127,47.000000,0.000000,4298.461426,4281.538574,4308.589844,4310.512695,4278.717773,4289.615234,4264.871582,4304.743652,4307.692383,4273.974121,4479.487305,4477.563965,4379.871582,4416.666504,0.000000,2.000000,51.000000,,,,0.000000,4.000000,4.000000,4.000000,4.000000,4.000000,4.000000,4.000000,4.000000,4.000000,4.000000,4.000000,4.000000,4.000000,4.000000,100.000000,,,,,,,,,,,,,,,,,,,,,,,,,,,,,,,,,,,,,,,,,,,,,,,
1665779959.247388,1665779959.247935,48.000000,0.000000,4297.692383,4283.589844,4313.461426,4312.179688,4287.692383,4296.794922,4266.922852,4298.717773,4311.794922,4283.846191,4476.794922,4479.487305,4383.461426,4420.384766,0.000000,2.000000,51.000000,,,,0.000000,4.000000,4.000000,4.000000,4.000000,4.000000,4.000000,4.000000,4.000000,4.000000,4.000000,4.000000,4.000000,4.000000,4.000000,100.000000,,,,,,,,,,,,,,,,,,,,,,,,,,,,,,,,,,,,,,,,,,,,,,,
1665779959.255196,1665779959.255843,49.000000,0.000000,4297.948730,4282.563965,4311.025879,4312.820313,4296.282227,4298.717773,4262.563965,4289.487305,4308.077148,4294.615234,4472.179688,4482.179688,4380.512695,4420.641113,0.000000,2.000000,51.000000,,,,0.000000,4.000000,4.000000,4.000000,4.000000,4.000000,4.000000,4.000000,4.000000,4.000000,4.000000,4.000000,4.000000,4.000000,4.000000,100.000000,,,,,,,,,,,,,,,,,,,,,,,,,,,,,,,,,,,,,,,,,,,,,,,
1665779959.263005,1665779959.263652,50.000000,0.000000,4302.307617,4285.512695,4311.666504,4320.000000,4305.128418,4308.589844,4265.384766,4287.307617,4304.230957,4292.436035,4475.256348,4489.487305,4380.897461,4426.538574,0.000000,2.000000,51.000000,,,,0.000000,4.000000,4.000000,4.000000,4.000000,4.000000,4.000000,4.000000,4.000000,4.000000,4.000000,4.000000,4.000000,4.000000,4.000000,100.000000,,,,,,,,,,,,,,,,,,,,,,,,,,,,,,,,,,,,,,,,,,,,,,,
1665779959.270813,1665779959.271560,51.000000,0.000000,4304.487305,4285.769043,4313.589844,4326.666504,4315.512695,4316.794922,4267.820313,4298.077148,4311.666504,4284.743652,4475.000000,4493.077148,4379.102539,4430.769043,0.000000,2.000000,51.000000,,,,0.000000,4.000000,4.000000,4.000000,4.000000,4.000000,4.000000,4.000000,4.000000,4.000000,4.000000,4.000000,4.000000,4.000000,4.000000,100.000000,,,,,,,,,,,,,,,,,,,,,,,,,,,,,,,,,,,,,,,,,,,,,,,
1665779959.278622,1665779959.279369,52.000000,0.000000,4298.205078,4276.538574,4301.410156,4315.384766,4311.666504,4304.615234,4254.487305,4304.102539,4313.846191,4276.153809,4461.025879,4480.128418,4361.666504,4417.948730,0.000000,2.000000,51.000000,,,,0.000000,4.000000,4.000000,4.000000,4.000000,4.000000,4.000000,4.000000,4.000000,4.000000,4.000000,4.000000,4.000000,4.000000,4.000000,100.000000,,,,,,,,,,,,,,,,,,,,,,,,,,,,,,,,,,,,,,,,,,,,,,,
1665779959.286430,1665779959.287277,53.000000,0.000000,4292.179688,4268.205078,4295.384766,4307.307617,4295.641113,4288.974121,4243.077148,4296.153809,4306.794922,4264.358887,4452.820313,4467.179688,4347.179688,4406.922852,0.000000,2.000000,51.000000,,,,0.000000,4.000000,4.000000,4.000000,4.000000,4.000000,4.000000,4.000000,4.000000,4.000000,4.000000,4.000000,4.000000,4.000000,4.000000,100.000000,,,,,,,,,,,,,,,,,,,,,,,,,,,,,,,,,,,,,,,,,,,,,,,
1665779959.294238,1665779959.295085,54.000000,0.000000,4298.077148,4275.897461,4306.794922,4316.538574,4291.922852,4291.538574,4253.589844,4295.256348,4305.000000,4260.000000,4457.820313,4471.794922,4354.358887,4412.051270,0.000000,2.000000,51.000000,,,,0.000000,4.000000,4.000000,4.000000,4.000000,4.000000,4.000000,4.000000,4.000000,4.000000,4.000000,4.000000,4.000000,4.000000,4.000000,100.000000,,,,,,,,,,,,,,,,,,,,,,,,,,,,,,,,,,,,,,,,,,,,,,,
1665779959.302047,1665779959.302894,55.000000,0.000000,4303.589844,4287.179688,4314.358887,4320.641113,4303.589844,4296.794922,4263.974121,4305.512695,4308.846191,4267.948730,4459.615234,4481.410156,4364.487305,4416.025879,0.000000,2.000000,51.000000,,,,0.000000,4.000000,4.000000,4.000000,4.000000,4.000000,4.000000,4.000000,4.000000,4.000000,4.000000,4.000000,4.000000,4.000000,4.000000,100.000000,,,,,,,,,,,,,,,,,,,,,,,,,,,,,,,,,,,,,,,,,,,,,,,
1665779959.309855,1665779959.310702,56.000000,0.000000,4299.102539,4283.461426,4310.000000,4312.436035,4309.358887,4297.563965,4265.641113,4306.794922,4308.205078,4274.743652,4455.384766,4485.128418,4367.307617,4413.717773,0.000000,2.000000,51.000000,,,,0.000000,4.000000,4.000000,4.000000,4.000000,4.000000,4.000000,4.000000,4.000000,4.000000,4.000000,4.000000,4.000000,4.000000,4.000000,100.000000,,,,,,,,,,,,,,,,,,,,,,,,,,,,,,,,,,,,,,,,,,,,,,,
1665779959.317664,1665779959.318411,57.000000,0.000000,4296.410156,4276.538574,4306.538574,4307.820313,4301.025879,4305.769043,4273.846191,4301.666504,4307.307617,4274.615234,4455.641113,4487.948730,4374.230957,4418.077148,0.000000,2.000000,51.000000,,,,0.000000,4.000000,4.000000,4.000000,4.000000,4.000000,4.000000,4.000000,4.000000,4.000000,4.000000,4.000000,4.000000,4.000000,4.000000,100.000000,,,,,,,,,,,,,,,,,,,,,,,,,,,,,,,,,,,,,,,,,,,,,,,
1665779959.325472,1665779959.326219,58.000000,0.000000,4302.948730,4280.769043,4309.102539,4313.974121,4294.615234,4312.948730,4281.153809,4304.102539,4308.974121,4278.333496,4463.461426,4492.436035,4381.794922,4427.692383,0.000000,2.000000,51.000000,,,,0.000000,4.000000,4.000000,4.000000,4.000000,4.000000,4.000000,4.000000,4.000000,4.000000,4.000000,4.000000,4.000000,4.000000,4.000000,100.000000,,,,,,,,,,,,,,,,,,,,,,,,,,,,,,,,,,,,,,,,,,,,,,,
1665779959.333280,1665779959.333928,59.000000,0.000000,4309.743652,4283.974121,4311.410156,4319.743652,4305.128418,4312.948730,4281.538574,4311.282227,4312.436035,4287.820313,4476.153809,4497.563965,4383.846191,4431.025879,0.000000,2.000000,51.000000,,,,0.000000,4.000000,4.000000,4.000000,4.000000,4.000000,4.000000,4.000000,4.000000,4.000000,4.000000,4.000000,4.000000,4.000000,4.000000,100.000000,,,,,,,,,,,,,,,,,,,,,,,,,,,,,,,,,,,,,,,,,,,,,,,
1665779959.341089,1665779959.341836,60.000000,0.000000,4305.641113,4281.282227,4310.641113,4318.205078,4316.410156,4308.333496,4278.333496,4311.410156,4316.922852,4291.025879,4477.692383,4495.897461,4380.641113,4429.230957,0.000000,2.000000,51.000000,,,,0.000000,4.000000,4.000000,4.000000,4.000000,4.000000,4.000000,4.000000,4.000000,4.000000,4.000000,4.000000,4.000000,4.000000,4.000000,100.000000,,,,,,,,,,,,,,,,,,,,,,,,,,,,,,,,,,,,,,,,,,,,,,,
1665779959.348897,1665779959.349645,61.000000,0.000000,4308.205078,4285.769043,4316.410156,4318.974121,4306.410156,4302.563965,4277.692383,4311.153809,4318.205078,4289.230957,4476.282227,4495.256348,4379.358887,4433.846191,0.000000,2.000000,51.000000,,,,0.000000,4.000000,4.000000,4.000000,4.000000,4.000000,4.000000,4.000000,4.000000,4.000000,4.000000,4.000000,4.000000,4.000000,4.000000,100.000000,,,,,,,,,,,,,,,,,,,,,,,,,,,,,,,,,,,,,,,,,,,,,,,
1665779959.356706,1665779959.357553,62.000000,0.000000,4325.128418,4302.179688,4336.538574,4330.256348,4299.871582,4308.077148,4291.538574,4325.512695,4323.717773,4306.282227,4498.461426,4514.871582,4390.384766,4448.205078,0.000000,2.000000,51.000000,,,,0.000000,4.000000,4.000000,4.000000,4.000000,4.000000,4.000000,4.000000,4.000000,4.000000,4.000000,4.000000,4.000000,4.000000,4.000000,100.000000,,,,,,,,,,,,,,,,,,,,,,,,,,,,,,,,,,,,,,,,,,,,,,,
1665779959.364514,1665779959.365362,63.000000,0.000000,4329.615234,4310.384766,4344.743652,4335.769043,4305.000000,4315.384766,4299.743652,4332.179688,4330.384766,4323.717773,4511.153809,4527.820313,4400.641113,4453.205078,0.000000,2.000000,51.000000,,,,0.000000,4.000000,4.000000,4.000000,4.000000,4.000000,4.000000,4.000000,4.000000,4.000000,4.000000,4.000000,4.000000,4.000000,4.000000,100.000000,,,,,,,,,,,,,,,,,,,,,,,,,,,,,,,,,,,,,,,,,,,,,,,
1665779959.372322,1665779959.373270,64.000000,0.000000,4314.102539,4302.948730,4332.436035,4328.461426,4304.102539,4309.743652,4285.641113,4318.077148,4322.820313,4306.666504,4488.461426,4513.461426,4387.436035,4438.333496,2312.000000,2.000000,51.000000,,,,0.000000,4.000000,4.000000,4.000000,4.000000,4.000000,4.000000,4.000000,4.000000,4.000000,4.000000,4.000000,4.000000,4.000000,4.000000,100.000000,,,,,,,,,,,,,,,,,,,,,,,,,,,,,,,,,,,,,,,,,,,,,,,
1665779959.380131,1665779959.381078,65.000000,0.000000,4300.769043,4293.846191,4322.307617,4323.205078,4303.077148,4308.974121,4277.692383,4309.230957,4309.615234,4280.897461,4470.897461,4500.000000,4371.153809,4425.384766,2302.000000,2.000000,51.000000,,,,0.000000,4.000000,4.000000,4.000000,4.000000,4.000000,4.000000,4.000000,4.000000,4.000000,4.000000,4.000000,4.000000,4.000000,4.000000,100.000000,,,,,,,,,,,,,,,,,,,,,,,,,,,,,,,,,,,,,,,,,,,,,,,
1665779959.387939,1665779959.388887,66.000000,0.000000,4302.179688,4285.769043,4319.358887,4323.589844,4310.128418,4319.743652,4284.871582,4316.282227,4308.205078,4278.205078,4476.025879,4503.717773,4372.051270,4427.563965,2165.000000,2.000000,51.000000,,,,0.000000,4.000000,4.000000,4.000000,4.000000,4.000000,4.000000,4.000000,4.000000,4.000000,4.000000,4.000000,4.000000,4.000000,4.000000,100.000000,,,,,,,,,,,,,,,,,,,,,,,,,,,,,,,,,,,,,,,,,,,,,,,
1665779959.395748,1665779959.396595,67.000000,0.000000,4306.282227,4279.487305,4320.000000,4325.256348,4316.282227,4321.794922,4284.230957,4318.846191,4312.436035,4281.025879,4477.051270,4507.563965,4370.000000,4431.025879,2319.000000,2.000000,51.000000,,,,0.000000,4.000000,4.000000,4.000000,4.000000,4.000000,4.000000,4.000000,4.000000,4.000000,4.000000,4.000000,4.000000,4.000000,4.000000,100.000000,,,,,,,,,,,,,,,,,,,,,,,,,,,,,,,,,,,,,,,,,,,,,,,
1665779959.403556,1665779959.404404,68.000000,0.000000,4308.974121,4283.717773,4324.230957,4327.820313,4322.563965,4318.974121,4280.897461,4314.871582,4311.538574,4275.897461,4471.922852,4500.512695,4364.358887,4430.897461,2296.000000,2.000000,51.000000,,,,0.000000,4.000000,4.000000,4.000000,4.000000,4.000000,4.000000,4.000000,4.000000,4.000000,4.000000,4.000000,4.000000,4.000000,4.000000,100.000000,,,,,,,,,,,,,,,,,,,,,,,,,,,,,,,,,,,,,,,,,,,,,,,
1665779959.411364,1665779959.412112,69.000000,0.000000,4308.974121,4291.538574,4326.794922,4327.307617,4327.307617,4317.948730,4281.538574,4316.410156,4309.743652,4272.436035,4474.487305,4495.769043,4362.948730,4428.589844,2343.000000,2.000000,51.000000,,,,0.000000,4.000000,4.000000,4.000000,4.000000,4.000000,4.000000,4.000000,4.000000,4.000000,4.000000,4.000000,4.000000,4.000000,4.000000,100.000000,1.000000,100.000000,4.000000,4.000000,4.000000,4.000000,4.000000,4.000000,4.000000,4.000000,4.000000,4.000000,4.000000,4.000000,4.000000,4.000000,1.000000,0.455979,-0.653306,-1.309843,0.187741,1.000000,0.244778,3.596565,1.946833,8.686537,0.299642,1.000000,0.318173,47.678574,-32.866009,198.874588,1.000000,0.284583,0.162025,0.088817,0.322855,1.000000,0.421724,4.118430,-4.430191,15.650399,1.000000,0.397464,0.397464,0.000000,1.000000
1665779959.419173,1665779959.419921,70.000000,0.000000,4309.102539,4292.436035,4329.743652,4326.025879,4321.922852,4317.307617,4286.666504,4323.077148,4309.615234,4275.641113,4483.205078,4502.051270,4366.922852,4427.692383,2105.000000,2.000000,51.000000,,,,0.000000,4.000000,4.000000,4.000000,4.000000,4.000000,4.000000,4.000000,4.000000,4.000000,4.000000,4.000000,4.000000,4.000000,4.000000,100.000000,,,,,,,,,,,,,,,,,,,,,,,,,,,,,,,,,,,,,,,,,,,,,,,
1665779959.426981,1665779959.427629,71.000000,0.000000,4314.871582,4298.333496,4336.666504,4330.641113,4319.358887,4322.436035,4296.794922,4327.820313,4310.641113,4278.846191,4489.487305,4512.692383,4378.974121,4434.871582,1940.000000,2.000000,51.000000,,,,0.000000,4.000000,4.000000,4.000000,4.000000,4.000000,4.000000,4.000000,4.000000,4.000000,4.000000,4.000000,4.000000,4.000000,4.000000,100.000000,,,,,,,,,,,,,,,,,,,,,,,,,,,,,,,,,,,,,,,,,,,,,,,
1665779959.434790,1665779959.435438,72.000000,0.000000,4312.179688,4301.666504,4330.512695,4328.077148,4318.846191,4320.769043,4293.974121,4319.230957,4311.025879,4279.358887,4483.333496,4508.205078,4381.153809,4435.256348,1315.000000,2.000000,51.000000,,,,0.000000,4.000000,4.000000,4.000000,4.000000,4.000000,4.000000,4.000000,4.000000,4.000000,4.000000,4.000000,4.000000,4.000000,4.000000,100.000000,,,,,,,,,,,,,,,,,,,,,,,,,,,,,,,,,,,,,,,,,,,,,,,
1665779959.442598,1665779959.443146,73.000000,0.000000,4298.717773,4286.153809,4314.871582,4312.820313,4306.538574,4310.512695,4279.615234,4301.794922,4308.846191,4282.692383,4469.102539,4494.230957,4369.615234,4421.794922,2381.000000,2.000000,51.000000,,,,0.000000,4.000000,4.000000,4.000000,4.000000,4.000000,4.000000,4.000000,4.000000,4.000000,4.000000,4.000000,4.000000,4.000000,4.000000,100.000000,,,,,,,,,,,,,,,,,,,,,,,,,,,,,,,,,,,,,,,,,,,,,,,
1665779959.450406,1665779959.451055,74.000000,0.000000,4292.692383,4277.436035,4310.256348,4307.563965,4301.538574,4308.717773,4273.333496,4297.436035,4308.205078,4284.615234,4467.436035,4490.000000,4368.846191,4419.487305,2668.000000,2.000000,51.000000,,,,0.000000,4.000000,4.000000,4.000000,4.000000,4.000000,4.000000,4.000000,4.000000,4.000000,4.000000,4.000000,4.000000,4.000000,4.000000,100.000000,,,,,,,,,,,,,,,,,,,,,,,,,,,,,,,,,,,,,,,,,,,,,,,
1665779959.458215,1665779959.458863,75.000000,0.000000,4298.974121,4286.282227,4312.307617,4317.948730,4308.846191,4312.051270,4273.717773,4306.410156,4311.922852,4282.692383,4473.846191,4494.615234,4374.487305,4428.717773,2643.000000,2.000000,51.000000,,,,0.000000,4.000000,4.000000,4.000000,4.000000,4.000000,4.000000,4.000000,4.000000,4.000000,4.000000,4.000000,4.000000,4.000000,4.000000,100.000000,,,,,,,,,,,,,,,,,,,,,,,,,,,,,,,,,,,,,,,,,,,,,,,
1665779959.466023,1665779959.466771,76.000000,0.000000,4304.871582,4288.589844,4313.974121,4324.487305,4309.487305,4308.974121,4275.641113,4316.922852,4317.051270,4288.589844,4474.615234,4500.384766,4366.794922,4428.333496,2737.000000,2.000000,51.000000,,,,0.000000,4.000000,4.000000,4.000000,4.000000,4.000000,4.000000,4.000000,4.000000,4.000000,4.000000,4.000000,4.000000,4.000000,4.000000,100.000000,,,,,,,,,,,,,,,,,,,,,,,,,,,,,,,,,,,,,,,,,,,,,,,
1665779959.473832,1665779959.474580,77.000000,0.000000,4308.205078,4290.128418,4320.256348,4324.743652,4308.205078,4308.205078,4280.897461,4326.282227,4321.794922,4298.717773,4480.769043,4505.384766,4367.307617,4428.589844,3026.000000,2.000000,51.000000,,,,0.000000,4.000000,4.000000,4.000000,4.000000,4.000000,4.000000,4.000000,4.000000,4.000000,4.000000,4.000000,4.000000,4.000000,4.000000,100.000000,,,,,,,,,,,,,,,,,,,,,,,,,,,,,,,,,,,,,,,,,,,,,,,
1665779959.481640,1665779959.482488,78.000000,0.000000,4314.230957,4302.563965,4328.589844,4327.820313,4311.282227,4308.077148,4283.461426,4330.256348,4319.358887,4293.333496,4488.717773,4509.230957,4375.512695,4433.974121,2668.000000,2.000000,51.000000,,,,0.000000,4.000000,4.000000,4.000000,4.000000,4.000000,4.000000,4.000000,4.000000,4.000000,4.000000,4.000000,4.000000,4.000000,4.000000,100.000000,,,,,,,,,,,,,,,,,,,,,,,,,,,,,,,,,,,,,,,,,,,,,,,
1665779959.489448,1665779959.490297,79.000000,0.000000,4316.282227,4306.922852,4328.461426,4327.948730,4310.512695,4303.846191,4280.256348,4323.333496,4308.717773,4280.897461,4479.230957,4506.025879,4367.179688,4426.538574,2643.000000,2.000000,51.000000,,,,0.000000,4.000000,4.000000,4.000000,4.000000,4.000000,4.000000,4.000000,4.000000,4.000000,4.000000,4.000000,4.000000,4.000000,4.000000,100.000000,,,,,,,,,,,,,,,,,,,,,,,,,,,,,,,,,,,,,,,,,,,,,,,
1665779959.497257,1665779959.498105,80.000000,0.000000,4311.794922,4305.641113,4325.512695,4327.051270,4314.487305,4309.230957,4284.487305,4316.410156,4305.256348,4278.846191,4468.461426,4501.025879,4366.538574,4421.666504,2737.000000,2.000000,51.000000,,,,0.000000,4.000000,4.000000,4.000000,4.000000,4.000000,4.000000,4.000000,4.000000,4.000000,4.000000,4.000000,4.000000,4.000000,4.000000,100.000000,,,,,,,,,,,,,,,,,,,,,,,,,,,,,,,,,,,,,,,,,,,,,,,
1665779959.505065,1665779959.505914,81.000000,0.000000,4308.846191,4311.153809,4327.307617,4327.820313,4325.128418,4320.641113,4291.282227,4316.410156,4310.897461,4283.589844,4473.974121,4502.820313,4381.666504,4429.487305,3026.000000,2.000000,51.000000,,,,0.000000,4.000000,4.000000,4.000000,4.000000,4.000000,4.000000,4.000000,4.000000,4.000000,4.000000,4.000000,4.000000,4.000000,4.000000,100.000000,,,,,,,,,,,,,,,,,,,,,,,,,,,,,,,,,,,,,,,,,,,,,,,
1665779959.512874,1665779959.513622,82.000000,0.000000,4313.077148,4310.256348,4328.589844,4328.205078,4328.333496,4326.922852,4288.846191,4313.717773,4312.179688,4290.000000,4475.128418,4506.153809,4382.563965,4431.538574,2668.000000,2.000000,51.000000,,,,0.000000,4.000000,4.000000,4.000000,4.000000,4.000000,4.000000,4.000000,4.000000,4.000000,4.000000,4.000000,4.000000,4.000000,4.000000,100.000000,,,,,,,,,,,,,,,,,,,,,,,,,,,,,,,,,,,,,,,,,,,,,,,
1665779959.520682,1665779959.521431,83.000000,0.000000,4316.538574,4305.512695,4327.692383,4333.205078,4324.615234,4324.615234,4285.897461,4306.538574,4308.077148,4295.512695,4468.333496,4503.205078,4375.897461,4433.717773,2643.000000,2.000000,51.000000,,,,0.000000,4.000000,4.000000,4.000000,4.000000,4.000000,4.000000,4.000000,4.000000,4.000000,4.000000,4.000000,4.000000,4.000000,4.000000,100.000000,,,,,,,,,,,,,,,,,,,,,,,,,,,,,,,,,,,,,,,,,,,,,,,
1665779959.528490,1665779959.529139,84.000000,0.000000,4314.102539,4307.051270,4322.948730,4334.743652,4324.743652,4317.820313,4285.641113,4307.948730,4308.205078,4295.512695,4473.461426,4494.487305,4381.153809,4443.333496,2737.000000,2.000000,51.000000,,,,0.000000,4.000000,4.000000,4.000000,4.000000,4.000000,4.000000,4.000000,4.000000,4.000000,4.000000,4.000000,4.000000,4.000000,4.000000,100.000000,,,,,,,,,,,,,,,,,,,,,,,,,,,,,,,,,,,,,,,,,,,,,,,
1665779959.536299,1665779959.536948,85.000000,0.000000,4310.769043,4308.589844,4319.871582,4327.179688,4326.538574,4315.769043,4282.948730,4316.025879,4312.692383,4288.589844,4478.333496,4491.538574,4380.000000,4441.794922,3026.000000,2.000000,51.000000,,,,0.000000,4.000000,4.000000,4.000000,4.000000,4.000000,4.000000,4.000000,4.000000,4.000000,4.000000,4.000000,4.000000,4.000000,4.000000,100.000000,,,,,,,,,,,,,,,,,,,,,,,,,,,,,,,,,,,,,,,,,,,,,,,
1665779959.544107,1665779959.544656,86.000000,0.000000,4309.743652,4309.871582,4326.025879,4323.461426,4324.358887,4315.000000,4286.922852,4318.589844,4313.974121,4280.128418,4475.256348,4497.179688,4370.512695,4429.102539,2668.000000,2.000000,51.000000,,,,0.000000,4.000000,4.000000,4.000000,4.000000,4.000000,4.000000,4.000000,4.000000,4.000000,4.000000,4.000000,4.000000,4.000000,4.000000,100.000000,,,,,,,,,,,,,,,,,,,,,,,,,,,,,,,,,,,,,,,,,,,,,,,
1665779959.551916,1665779959.552465,87.000000,0.000000,4311.794922,4310.512695,4334.871582,4325.512695,4318.461426,4311.794922,4297.051270,4319.743652,4310.384766,4277.820313,4473.333496,4504.615234,4369.871582,4427.307617,2643.000000,2.000000,51.000000,,,,0.000000,4.000000,4.000000,4.000000,4.000000,4.000000,4.000000,4.000000,4.000000,4.000000,4.000000,4.000000,4.000000,4.000000,4.000000,100.000000,,,,,,,,,,,,,,,,,,,,,,,,,,,,,,,,,,,,,,,,,,,,,,,
1665779959.559724,1665779959.560173,88.000000,0.000000,4318.077148,4312.692383,4341.282227,4325.000000,4311.153809,4313.077148,4298.333496,4325.128418,4315.000000,4286.794922,4479.615234,4513.077148,4378.717773,4437.436035,2737.000000,2.000000,51.000000,,,,0.000000,4.000000,4.000000,4.000000,4.000000,4.000000,4.000000,4.000000,4.000000,4.000000,4.000000,4.000000,4.000000,4.000000,4.000000,100.000000,,,,,,,,,,,,,,,,,,,,,,,,,,,,,,,,,,,,,,,,,,,,,,,
1665779959.567533,1665779959.567982,89.000000,0.000000,4325.641113,4316.410156,4344.230957,4325.000000,4305.897461,4318.333496,4295.769043,4328.846191,4326.538574,4298.717773,4485.769043,4523.461426,4388.589844,4445.384766,3026.000000,2.000000,51.000000,,,,0.000000,4.000000,4.000000,4.000000,4.000000,4.000000,4.000000,4.000000,4.000000,4.000000,4.000000,4.000000,4.000000,4.000000,4.000000,100.000000,,,,,,,,,,,,,,,,,,,,,,,,,,,,,,,,,,,,,,,,,,,,,,,
1665779959.575341,1665779959.575690,90.000000,0.000000,4326.153809,4314.743652,4340.512695,4328.717773,4309.487305,4321.153809,4297.307617,4327.179688,4324.615234,4298.846191,4480.384766,4527.436035,4386.922852,4446.153809,2668.000000,2.000000,51.000000,,,,0.000000,4.000000,4.000000,4.000000,4.000000,4.000000,4.000000,4.000000,4.000000,4.000000,4.000000,4.000000,4.000000,4.000000,4.000000,100.000000,,,,,,,,,,,,,,,,,,,,,,,,,,,,,,,,,,,,,,,,,,,,,,,
1665779959.583149,1665779959.583499,91.000000,0.000000,4322.051270,4310.128418,4333.846191,4327.179688,4315.384766,4325.000000,4294.487305,4324.871582,4317.051270,4292.051270,4471.794922,4519.102539,4373.333496,4442.179688,2643.000000,2.000000,51.000000,,,,0.000000,4.000000,4.000000,4.000000,4.000000,4.000000,4.000000,4.000000,4.000000,4.000000,4.000000,4.000000,4.000000,4.000000,4.000000,100.000000,,,,,,,,,,,,,,,,,,,,,,,,,,,,,,,,,,,,,,,,,,,,,,,
1665779959.590958,1665779959.591207,92.000000,0.000000,4319.743652,4305.769043,4331.666504,4325.641113,4314.358887,4326.922852,4293.974121,4325.769043,4318.461426,4291.153809,4472.179688,4509.615234,4366.153809,4438.077148,2737.000000,2.000000,51.000000,,,,0.000000,4.000000,4.000000,4.000000,4.000000,4.000000,4.000000,4.000000,4.000000,4.000000,4.000000,4.000000,4.000000,4.000000,4.000000,100.000000,,,,,,,,,,,,,,,,,,,,,,,,,,,,,,,,,,,,,,,,,,,,,,,
1665779959.598766,1665779959.599016,93.000000,0.000000,4320.128418,4305.000000,4331.538574,4327.307617,4315.512695,4320.128418,4295.512695,4325.128418,4318.589844,4289.743652,4476.282227,4506.922852,4366.922852,4434.102539,3026.000000,2.000000,51.000000,,,,0.000000,4.000000,4.000000,4.000000,4.000000,4.000000,4.000000,4.000000,4.000000,4.000000,4.000000,4.000000,4.000000,4.000000,4.000000,100.000000,,,,,,,,,,,,,,,,,,,,,,,,,,,,,,,,,,,,,,,,,,,,,,,
1665779959.606575,1665779959.606724,94.000000,0.000000,4316.666504,4305.769043,4328.077148,4320.512695,4321.153809,4314.871582,4289.487305,4316.666504,4311.538574,4279.487305,4472.692383,4500.641113,4361.025879,4426.538574,2668.000000,2.000000,51.000000,,,,0.000000,4.000000,4.000000,4.000000,4.000000,4.000000,4.000000,4.000000,4.000000,4.000000,4.000000,4.000000,4.000000,4.000000,4.000000,100.000000,,,,,,,,,,,,,,,,,,,,,,,,,,,,,,,,,,,,,,,,,,,,,,,
1665779959.614383,1665779959.614533,95.000000,0.000000,4309.871582,4302.307617,4323.717773,4309.230957,4318.717773,4315.384766,4286.538574,4310.384766,4309.871582,4275.384766,4470.000000,4494.358887,4357.307617,4421.922852,2643.000000,2.000000,51.000000,,,,0.000000,4.000000,4.000000,4.000000,4.000000,4.000000,4.000000,4.000000,4.000000,4.000000,4.000000,4.000000,4.000000,4.000000,4.000000,100.000000,,,,,,,,,,,,,,,,,,,,,,,,,,,,,,,,,,,,,,,,,,,,,,,
1665779959.622191,1665779959.622241,96.000000,0.000000,4314.871582,4305.512695,4323.974121,4314.615234,4316.282227,4320.641113,4294.615234,4317.051270,4318.077148,4286.666504,4474.615234,4499.615234,4367.051270,4425.384766,2737.000000,2.000000,51.000000,,,,0.000000,4.000000,4.000000,4.000000,4.000000,4.000000,4.000000,4.000000,4.000000,4.000000,4.000000,4.000000,4.000000,4.000000,4.000000,100.000000,,,,,,,,,,,,,,,,,,,,,,,,,,,,,,,,,,,,,,,,,,,,,,,
1665779959.630000,1665779959.630149,97.000000,0.000000,4322.436035,4313.974121,4326.410156,4326.794922,4318.333496,4327.820313,4298.974121,4318.461426,4320.897461,4296.153809,4477.692383,4507.692383,4375.000000,4429.102539,3026.000000,2.000000,51.000000,,,,0.000000,4.000000,4.000000,4.000000,4.000000,4.000000,4.000000,4.000000,4.000000,4.000000,4.000000,4.000000,4.000000,4.000000,4.000000,100.000000,,,,,,,,,,,,,,,,,,,,,,,,,,,,,,,,,,,,,,,,,,,,,,,
1665779959.637808,1665779959.637958,98.000000,0.000000,4318.717773,4311.025879,4323.205078,4325.000000,4315.000000,4328.717773,4292.820313,4308.717773,4312.820313,4293.461426,4475.512695,4505.512695,4374.871582,4428.717773,2668.000000,2.000000,51.000000,,,,0.000000,4.000000,4.000000,4.000000,4.000000,4.000000,4.000000,4.000000,4.000000,4.000000,4.000000,4.000000,4.000000,4.000000,4.000000,100.000000,,,,,,,,,,,,,,,,,,,,,,,,,,,,,,,,,,,,,,,,,,,,,,,
1665779959.645617,1665779959.645866,99.000000,0.000000,4319.615234,4310.512695,4324.615234,4327.563965,4320.769043,4326.153809,4290.256348,4307.436035,4310.769043,4293.205078,4474.871582,4505.128418,4378.333496,4435.128418,2643.000000,2.000000,51.000000,,,,0.000000,4.000000,4.000000,4.000000,4.000000,4.000000,4.000000,4.000000,4.000000,4.000000,4.000000,4.000000,4.000000,4.000000,4.000000,100.000000,,,,,,,,,,,,,,,,,,,,,,,,,,,,,,,,,,,,,,,,,,,,,,,
1665779959.653425,1665779959.653675,100.000000,0.000000,4328.333496,4318.846191,4333.846191,4337.436035,4331.153809,4325.769043,4294.230957,4311.538574,4317.051270,4296.410156,4476.410156,4509.102539,4384.102539,4444.487305,2737.000000,2.000000,51.000000,,,,0.000000,4.000000,4.000000,4.000000,4.000000,4.000000,4.000000,4.000000,4.000000,4.000000,4.000000,4.000000,4.000000,4.000000,4.000000,100.000000,,,,,,,,,,,,,,,,,,,,,,,,,,,,,,,,,,,,,,,,,,,,,,,
1665779959.661233,1665779959.661583,101.000000,0.000000,4329.102539,4320.128418,4336.922852,4341.538574,4321.153809,4324.487305,4294.102539,4311.538574,4313.205078,4292.563965,4477.436035,4508.077148,4383.077148,4444.230957,3026.000000,2.000000,51.000000,,,,0.000000,4.000000,4.000000,4.000000,4.000000,4.000000,4.000000,4.000000,4.000000,4.000000,4.000000,4.000000,4.000000,4.000000,4.000000,100.000000,,,,,,,,,,,,,,,,,,,,,,,,,,,,,,,,,,,,,,,,,,,,,,,
1665779959.669042,1665779959.669391,102.000000,0.000000,4330.769043,4322.948730,4339.102539,4343.846191,4317.051270,4323.589844,4293.589844,4318.717773,4307.563965,4295.769043,4484.487305,4512.563965,4383.974121,4444.230957,2668.000000,2.000000,51.000000,,,,0.000000,4.000000,4.000000,4.000000,4.000000,4.000000,4.000000,4.000000,4.000000,4.000000,4.000000,4.000000,4.000000,4.000000,4.000000,100.000000,,,,,,,,,,,,,,,,,,,,,,,,,,,,,,,,,,,,,,,,,,,,,,,
1665779959.676850,1665779959.677300,103.000000,0.000000,4335.128418,4328.974121,4344.358887,4337.179688,4331.922852,4324.871582,4298.974121,4327.563965,4312.307617,4300.000000,4487.563965,4520.256348,4383.846191,4446.025879,2643.000000,2.000000,51.000000,,,,0.000000,4.000000,4.000000,4.000000,4.000000,4.000000,4.000000,4.000000,4.000000,4.000000,4.000000,4.000000,4.000000,4.000000,4.000000,100.000000,,,,,,,,,,,,,,,,,,,,,,,,,,,,,,,,,,,,,,,,,,,,,,,
1665779959.684659,1665779959.685108,104.000000,0.000000,4331.794922,4325.512695,4344.743652,4327.948730,4332.563965,4326.410156,4302.692383,4326.538574,4314.230957,4288.717773,4480.000000,4521.666504,4377.948730,4441.538574,2737.000000,2.000000,51.000000,,,,0.000000,4.000000,4.000000,4.000000,4.000000,4.000000,4.000000,4.000000,4.000000,4.000000,4.000000,4.000000,4.000000,4.000000,4.000000,100.000000,,,,,,,,,,,,,,,,,,,,,,,,,,,,,,,,,,,,,,,,,,,,,,,
1665779959.692467,1665779959.693017,105.000000,0.000000,4325.897461,4323.077148,4338.461426,4330.128418,4320.384766,4326.794922,4300.000000,4324.358887,4312.436035,4285.512695,4474.487305,4518.205078,4378.717773,4436.025879,3026.000000,2.000000,51.000000,,,,0.000000,4.000000,4.000000,4.000000,4.000000,4.000000,4.000000,4.000000,4.000000,4.000000,4.000000,4.000000,4.000000,4.000000,4.000000,100.000000,,,,,,,,,,,,,,,,,,,,,,,,,,,,,,,,,,,,,,,,,,,,,,,
1665779959.700275,1665779959.700825,106.000000,0.000000,4317.820313,4318.974121,4330.000000,4329.358887,4320.897461,4327.179688,4296.410156,4321.922852,4313.333496,4295.256348,4475.000000,4511.282227,4380.897461,4430.512695,2668.000000,2.000000,51.000000,,,,0.000000,4.000000,4.000000,4.000000,4.000000,4.000000,4.000000,4.000000,4.000000,4.000000,4.000000,4.000000,4.000000,4.000000,4.000000,100.000000,,,,,,,,,,,,,,,,,,,,,,,,,,,,,,,,,,,,,,,,,,,,,,,
1665779959.708084,1665779959.708534,107.000000,0.000000,4312.307617,4310.769043,4325.256348,4324.615234,4331.794922,4331.153809,4295.384766,4317.692383,4315.641113,4293.589844,4472.692383,4504.102539,4373.205078,4427.692383,2643.000000,2.000000,51.000000,,,,0.000000,4.000000,4.000000,4.000000,4.000000,4.000000,4.000000,4.000000,4.000000,4.000000,4.000000,4.000000,4.000000,4.000000,4.000000,100.000000,,,,,,,,,,,,,,,,,,,,,,,,,,,,,,,,,,,,,,,,,,,,,,,
1665779959.715892,1665779959.716342,108.000000,0.000000,4318.077148,4316.153809,4328.717773,4335.128418,4339.615234,4335.512695,4294.871582,4318.974121,4317.563965,4287.820313,4470.128418,4504.230957,4368.974121,4434.102539,2737.000000,2.000000,51.000000,,,,0.000000,4.000000,4.000000,4.000000,4.000000,4.000000,4.000000,4.000000,4.000000,4.000000,4.000000,4.000000,4.000000,4.000000,4.000000,100.000000,,,,,,,,,,,,,,,,,,,,,,,,,,,,,,,,,,,,,,,,,,,,,,,
1665779959.723701,1665779959.724051,109.000000,0.000000,4325.512695,4327.563965,4339.871582,4346.538574,4341.538574,4336.538574,4297.820313,4325.256348,4320.000000,4297.563965,4480.769043,4514.871582,4378.077148,4444.230957,3026.000000,2.000000,51.000000,,,,0.000000,4.000000,4.000000,4.000000,4.000000,4.000000,4.000000,4.000000,4.000000,4.000000,4.000000,4.000000,4.000000,4.000000,4.000000,100.000000,,,,,,,,,,,,,,,,,,,,,,,,,,,,,,,,,,,,,,,,,,,,,,,
1665779959.731509,1665779959.731859,110.000000,0.000000,4326.282227,4332.563965,4350.641113,4344.743652,4344.102539,4332.179688,4302.563965,4328.461426,4321.025879,4306.153809,4495.256348,4525.256348,4386.025879,4448.974121,2668.000000,2.000000,51.000000,,,,0.000000,4.000000,4.000000,4.000000,4.000000,4.000000,4.000000,4.000000,4.000000,4.000000,4.000000,4.000000,4.000000,4.000000,4.000000,100.000000,,,,,,,,,,,,,,,,,,,,,,,,,,,,,,,,,,,,,,,,,,,,,,,
1665779959.739318,1665779959.739568,111.000000,0.000000,4327.436035,4336.153809,4352.436035,4342.051270,4343.333496,4326.410156,4303.974121,4323.717773,4319.615234,4301.282227,4495.641113,4525.769043,4384.102539,4449.230957,2643.000000,2.000000,51.000000,,,,0.000000,4.000000,4.000000,4.000000,4.000000,4.000000,4.000000,4.000000,4.000000,4.000000,4.000000,4.000000,4.000000,4.000000,4.000000,100.000000,,,,,,,,,,,,,,,,,,,,,,,,,,,,,,,,,,,,,,,,,,,,,,,
1665779959.747126,1665779959.747376,112.000000,0.000000,4327.051270,4336.794922,4349.230957,4340.641113,4332.051270,4325.641113,4306.282227,4316.025879,4318.333496,4295.384766,4482.948730,4519.743652,4381.922852,4445.897461,2737.000000,2.000000,51.000000,,,,0.000000,4.000000,4.000000,4.000000,4.000000,4.000000,4.000000,4.000000,4.000000,4.000000,4.000000,4.000000,4.000000,4.000000,4.000000,100.000000,,,,,,,,,,,,,,,,,,,,,,,,,,,,,,,,,,,,,,,,,,,,,,,
1665779959.754934,1665779959.755085,113.000000,0.000000,4324.487305,4336.922852,4349.871582,4343.205078,4327.948730,4336.153809,4312.436035,4319.358887,4319.871582,4298.717773,4480.000000,4521.538574,4390.641113,4446.538574,3026.000000,2.000000,51.000000,,,,0.000000,4.000000,4.000000,4.000000,4.000000,4.000000,4.000000,4.000000,4.000000,4.000000,4.000000,4.000000,4.000000,4.000000,4.000000,100.000000,,,,,,,,,,,,,,,,,,,,,,,,,,,,,,,,,,,,,,,,,,,,,,,
1665779959.762743,1665779959.762893,114.000000,0.000000,4322.179688,4334.487305,4346.410156,4342.051270,4334.871582,4344.743652,4310.000000,4326.922852,4320.769043,4306.794922,4480.512695,4527.948730,4398.461426,4449.871582,2668.000000,2.000000,51.000000,,,,0.000000,4.000000,4.000000,4.000000,4.000000,4.000000,4.000000,4.000000,4.000000,4.000000,4.000000,4.000000,4.000000,4.000000,4.000000,100.000000,,,,,,,,,,,,,,,,,,,,,,,,,,,,,,,,,,,,,,,,,,,,,,,
1665779959.770551,1665779959.770602,115.000000,0.000000,4315.769043,4325.512695,4338.717773,4335.000000,4332.179688,4336.666504,4299.871582,4326.666504,4317.948730,4303.077148,4476.922852,4526.538574,4392.692383,4451.666504,2643.000000,2.000000,51.000000,,,,0.000000,4.000000,4.000000,4.000000,4.000000,4.000000,4.000000,4.000000,4.000000,4.000000,4.000000,4.000000,4.000000,4.000000,4.000000,100.000000,,,,,,,,,,,,,,,,,,,,,,,,,,,,,,,,,,,,,,,,,,,,,,,
1665779959.778360,1665779959.778510,116.000000,0.000000,4314.871582,4322.692383,4341.794922,4337.692383,4322.307617,4327.179688,4296.538574,4329.230957,4321.922852,4296.794922,4484.358887,4525.256348,4387.692383,4456.666504,2737.000000,2.000000,51.000000,,,,0.000000,4.000000,4.000000,4.000000,4.000000,4.000000,4.000000,4.000000,4.000000,4.000000,4.000000,4.000000,4.000000,4.000000,4.000000,100.000000,,,,,,,,,,,,,,,,,,,,,,,,,,,,,,,,,,,,,,,,,,,,,,,
1665779959.786168,1665779959.786318,117.000000,0.000000,4316.666504,4326.666504,4344.743652,4342.179688,4323.717773,4323.205078,4296.410156,4335.256348,4327.692383,4298.717773,4493.205078,4523.205078,4386.794922,4456.538574,3026.000000,2.000000,51.000000,,,,0.000000,4.000000,4.000000,4.000000,4.000000,4.000000,4.000000,4.000000,4.000000,4.000000,4.000000,4.000000,4.000000,4.000000,4.000000,100.000000,,,,,,,,,,,,,,,,,,,,,,,,,,,,,,,,,,,,,,,,,,,,,,,
1665779959.793976,1665779959.794227,118.000000,0.000000,4316.153809,4324.358887,4338.589844,4336.153809,4330.897461,4322.179688,4294.743652,4334.102539,4322.563965,4298.717773,4492.179688,4517.436035,4379.743652,4447.051270,2668.000000,2.000000,51.000000,,,,0.000000,4.000000,4.000000,4.000000,4.000000,4.000000,4.000000,4.000000,4.000000,4.000000,4.000000,4.000000,4.000000,4.000000,4.000000,100.000000,,,,,,,,,,,,,,,,,,,,,,,,,,,,,,,,,,,,,,,,,,,,,,,
1665779959.801785,1665779959.802035,119.000000,0.000000,4318.846191,4326.794922,4339.230957,4332.948730,4325.384766,4323.205078,4298.589844,4330.897461,4318.205078,4296.153809,4492.051270,4517.948730,4381.538574,4444.487305,2643.000000,2.000000,51.000000,,,,0.000000,4.000000,4.000000,4.000000,4.000000,4.000000,4.000000,4.000000,4.000000,4.000000,4.000000,4.000000,4.000000,4.000000,4.000000,100.000000,,,,,,,,,,,,,,,,,,,,,,,,,,,,,,,,,,,,,,,,,,,,,,,
1665779959.809593,1665779959.809943,120.000000,0.000000,4321.153809,4334.871582,4345.000000,4336.410156,4321.282227,4326.153809,4304.871582,4325.384766,4318.589844,4294.871582,4495.641113,4522.179688,4394.358887,4447.563965,2737.000000,2.000000,51.000000,,,,0.000000,4.000000,4.000000,4.000000,4.000000,4.000000,4.000000,4.000000,4.000000,4.000000,4.000000,4.000000,4.000000,4.000000,4.000000,100.000000,,,,,,,,,,,,,,,,,,,,,,,,,,,,,,,,,,,,,,,,,,,,,,,
1665779959.817402,1665779959.817752,121.000000,0.000000,4319.615234,4331.794922,4341.410156,4335.512695,4332.820313,4331.282227,4307.563965,4313.461426,4313.333496,4293.205078,4490.512695,4520.512695,4395.512695,4445.128418,3026.000000,2.000000,51.000000,,,,0.000000,4.000000,4.000000,4.000000,4.000000,4.000000,4.000000,4.000000,4.000000,4.000000,4.000000,4.000000,4.000000,4.000000,4.000000,100.000000,,,,,,,,,,,,,,,,,,,,,,,,,,,,,,,,,,,,,,,,,,,,,,,
1665779959.825210,1665779959.825660,122.000000,0.000000,4323.333496,4325.641113,4338.077148,4335.641113,4340.256348,4334.743652,4304.743652,4307.179688,4309.358887,4292.436035,4480.641113,4520.000000,4388.077148,4443.974121,2668.000000,2.000000,51.000000,,,,0.000000,4.000000,4.000000,4.000000,4.000000,4.000000,4.000000,4.000000,4.000000,4.000000,4.000000,4.000000,4.000000,4.000000,4.000000,100.000000,,,,,,,,,,,,,,,,,,,,,,,,,,,,,,,,,,,,,,,,,,,,,,,
1665779959.833018,1665779959.833469,123.000000,0.000000,4325.897461,4326.282227,4340.000000,4339.102539,4330.000000,4331.282227,4297.820313,4310.769043,4313.461426,4297.179688,4474.871582,4521.410156,4382.948730,4448.461426,2643.000000,2.000000,51.000000,,,,0.000000,4.000000,4.000000,4.000000,4.000000,4.000000,4.000000,4.000000,4.000000,4.000000,4.000000,4.000000,4.000000,4.000000,4.000000,100.000000,,,,,,,,,,,,,,,,,,,,,,,,,,,,,,,,,,,,,,,,,,,,,,,
1665779959.840827,1665779959.841377,124.000000,0.000000,4318.205078,4322.948730,4335.256348,4336.153809,4322.179688,4322.692383,4292.051270,4311.538574,4313.333496,4294.358887,4470.641113,4512.563965,4374.102539,4445.769043,2737.000000,2.000000,51.000000,,,,0.000000,4.000000,4.000000,4.000000,4.000000,4.000000,4.000000,4.000000,4.000000,4.000000,4.000000,4.000000,4.000000,4.000000,4.000000,100.000000,,,,,,,,,,,,,,,,,,,,,,,,,,,,,,,,,,,,,,,,,,,,,,,
1665779959.848635,1665779959.849186,125.000000,0.000000,4318.333496,4322.820313,4333.077148,4335.641113,4327.820313,4324.615234,4295.641113,4314.358887,4313.974121,4285.256348,4480.256348,4507.051270,4372.307617,4443.205078,3026.000000,2.000000,51.000000,,,,0.000000,4.000000,4.000000,4.000000,4.000000,4.000000,4.000000,4.000000,4.000000,4.000000,4.000000,4.000000,4.000000,4.000000,4.000000,100.000000,,,,,,,,,,,,,,,,,,,,,,,,,,,,,,,,,,,,,,,,,,,,,,,
1665779959.856444,1665779959.857094,126.000000,0.000000,4322.820313,4326.794922,4339.102539,4334.871582,4326.794922,4326.666504,4299.743652,4323.205078,4321.153809,4282.948730,4490.256348,4511.922852,4376.282227,4443.717773,2668.000000,2.000000,51.000000,,,,0.000000,4.000000,4.000000,4.000000,4.000000,4.000000,4.000000,4.000000,4.000000,4.000000,4.000000,4.000000,4.000000,4.000000,4.000000,100.000000,,,,,,,,,,,,,,,,,,,,,,,,,,,,,,,,,,,,,,,,,,,,,,,
1665779959.864252,1665779959.864902,127.000000,0.000000,4312.179688,4322.307617,4336.282227,4322.307617,4319.358887,4320.000000,4298.205078,4328.589844,4320.256348,4283.205078,4478.846191,4508.589844,4365.641113,4433.974121,51.000000,2.000000,51.000000,,,,0.000000,4.000000,4.000000,4.000000,4.000000,4.000000,4.000000,4.000000,4.000000,4.000000,4.000000,4.000000,4.000000,4.000000,4.000000,100.000000,,,,,,,,,,,,,,,,,,,,,,,,,,,,,,,,,,,,,,,,,,,,,,,
1665779959.872060,1665779959.872811,0.000000,0.000000,4298.461426,4319.358887,4327.436035,4312.179688,4318.846191,4320.897461,4297.051270,4325.256348,4312.820313,4277.948730,4460.641113,4501.922852,4353.589844,4421.666504,2316.000000,2.000000,51.000000,,,,0.000000,4.000000,4.000000,4.000000,4.000000,4.000000,4.000000,4.000000,4.000000,4.000000,4.000000,4.000000,4.000000,4.000000,4.000000,100.000000,,,,,,,,,,,,,,,,,,,,,,,,,,,,,,,,,,,,,,,,,,,,,,,
1665779959.879869,1665779959.880619,1.000000,0.000000,4296.922852,4317.179688,4324.615234,4314.102539,4317.179688,4326.025879,4297.051270,4316.794922,4309.871582,4270.769043,4456.538574,4502.051270,4354.102539,4421.025879,2292.000000,2.000000,51.000000,,,,0.000000,4.000000,4.000000,4.000000,4.000000,4.000000,4.000000,4.000000,4.000000,4.000000,4.000000,4.000000,4.000000,4.000000,4.000000,100.000000,,,,,,,,,,,,,,,,,,,,,,,,,,,,,,,,,,,,,,,,,,,,,,,
1665779959.887677,1665779959.888428,2.000000,0.000000,4302.820313,4310.256348,4323.461426,4320.897461,4310.384766,4326.922852,4299.871582,4310.512695,4310.512695,4273.846191,4460.000000,4503.589844,4359.102539,4426.794922,2155.000000,2.000000,51.000000,,,,0.000000,4.000000,4.000000,4.000000,4.000000,4.000000,4.000000,4.000000,4.000000,4.000000,4.000000,4.000000,4.000000,4.000000,4.000000,100.000000,,,,,,,,,,,,,,,,,,,,,,,,,,,,,,,,,,,,,,,,,,,,,,,
1665779959.895486,1665779959.896236,3.000000,0.000000,4314.230957,4317.179688,4329.230957,4332.179688,4317.179688,4331.025879,4306.153809,4314.230957,4314.615234,4288.589844,4468.077148,4512.179688,4372.051270,4440.384766,2319.000000,2.000000,51.000000,,,,0.000000,4.000000,4.000000,4.000000,4.000000,4.000000,4.000000,4.000000,4.000000,4.000000,4.000000,4.000000,4.000000,4.000000,4.000000,100.000000,,,,,,,,,,,,,,,,,,,,,,,,,,,,,,,,,,,,,,,,,,,,,,,
1665779959.903294,1665779959.903945,4.000000,0.000000,4326.666504,4336.282227,4342.563965,4345.384766,4335.512695,4337.307617,4306.282227,4324.358887,4322.948730,4298.974121,4485.128418,4526.922852,4386.410156,4458.461426,2281.000000,2.000000,51.000000,,,,0.000000,4.000000,4.000000,4.000000,4.000000,4.000000,4.000000,4.000000,4.000000,4.000000,4.000000,4.000000,4.000000,4.000000,4.000000,100.000000,,,,,,,,,,,,,,,,,,,,,,,,,,,,,,,,,,,,,,,,,,,,,,,
1665779959.911102,1665779959.911753,5.000000,0.000000,4331.922852,4336.538574,4342.820313,4346.153809,4338.333496,4326.922852,4294.871582,4326.282227,4324.487305,4295.384766,4492.051270,4526.025879,4385.384766,4461.794922,2334.000000,2.000000,51.000000,,,,0.000000,4.000000,4.000000,4.000000,4.000000,4.000000,4.000000,4.000000,4.000000,4.000000,4.000000,4.000000,4.000000,4.000000,4.000000,100.000000,1.000000,100.000000,4.000000,4.000000,4.000000,4.000000,4.000000,4.000000,4.000000,4.000000,4.000000,4.000000,4.000000,4.000000,4.000000,4.000000,1.000000,0.459146,-0.686440,-1.309779,0.187593,1.000000,0.240587,3.568321,1.946833,8.686537,0.296588,1.000000,0.309586,45.816502,-32.867649,198.836731,1.000000,0.277374,0.145786,0.088834,0.322813,1.000000,0.425981,4.573164,-4.429402,15.647755,1.000000,0.395855,0.395855,0.000000,1.000000
1665779959.918911,1665779959.919462,6.000000,0.000000,4331.794922,4329.230957,4337.051270,4340.512695,4332.436035,4314.615234,4288.846191,4320.641113,4318.205078,4288.717773,4487.820313,4515.897461,4378.589844,4456.153809,2110.000000,2.000000,51.000000,,,,0.000000,4.000000,4.000000,4.000000,4.000000,4.000000,4.000000,4.000000,4.000000,4.000000,4.000000,4.000000,4.000000,4.000000,4.000000,100.000000,,,,,,,,,,,,,,,,,,,,,,,,,,,,,,,,,,,,,,,,,,,,,,,
1665779959.926719,1665779959.927370,7.000000,0.000000,4332.051270,4342.820313,4347.948730,4345.000000,4334.743652,4326.153809,4302.436035,4323.717773,4318.461426,4296.025879,4499.487305,4526.922852,4387.436035,4458.717773,1938.000000,2.000000,51.000000,,,,0.000000,4.000000,4.000000,4.000000,4.000000,4.000000,4.000000,4.000000,4.000000,4.000000,4.000000,4.000000,4.000000,4.000000,4.000000,100.000000,,,,,,,,,,,,,,,,,,,,,,,,,,,,,,,,,,,,,,,,,,,,,,,
1665779959.934528,1665779959.935178,8.000000,0.000000,4333.077148,4354.102539,4357.051270,4347.051270,4338.974121,4335.256348,4313.974121,4326.282227,4323.077148,4310.128418,4511.538574,4541.538574,4401.282227,4463.846191,1314.000000,2.000000,51.000000,,,,0.000000,4.000000,4.000000,4.000000,4.000000,4.000000,4.000000,4.000000,4.000000,4.000000,4.000000,4.000000,4.000000,4.000000,4.000000,100.000000,,,,,,,,,,,,,,,,,,,,,,,,,,,,,,,,,,,,,,,,,,,,,,,
1665779959.942336,1665779959.943087,9.000000,0.000000,4327.948730,4343.846191,4345.256348,4337.820313,4338.461426,4328.461426,4307.563965,4315.384766,4319.487305,4311.410156,4498.333496,4531.153809,4399.230957,4460.897461,2379.000000,2.000000,51.000000,,,,0.000000,4.000000,4.000000,4.000000,4.000000,4.000000,4.000000,4.000000,4.000000,4.000000,4.000000,4.000000,4.000000,4.000000,4.000000,100.000000,,,,,,,,,,,,,,,,,,,,,,,,,,,,,,,,,,,,,,,,,,,,,,,
1665779959.950144,1665779959.950895,10.000000,0.000000,4319.615234,4333.077148,4332.179688,4331.794922,4330.897461,4328.717773,4301.282227,4306.794922,4316.538574,4303.077148,4482.692383,4517.692383,4387.307617,4452.307617,2673.000000,2.000000,51.000000,,,,0.000000,4.000000,4.000000,4.000000,4.000000,4.000000,4.000000,4.000000,4.000000,4.000000,4.000000,4.000000,4.000000,4.000000,4.000000,100.000000,,,,,,,,,,,,,,,,,,,,,,,,,,,,,,,,,,,,,,,,,,,,,,,
1665779959.957953,1665779959.958704,11.000000,0.000000,4321.282227,4337.307617,4333.846191,4338.846191,4324.871582,4335.000000,4303.846191,4313.974121,4322.179688,4306.025879,4487.820313,4519.615234,4382.307617,4446.025879,2621.000000,2.000000,51.000000,,,,0.000000,4.000000,4.000000,4.000000,4.000000,4.000000,4.000000,4.000000,4.000000,4.000000,4.000000,4.000000,4.000000,4.000000,4.000000,100.000000,,,,,,,,,,,,,,,,,,,,,,,,,,,,,,,,,,,,,,,,,,,,,,,
1665779959.965761,1665779959.966412,12.000000,0.000000,4326.282227,4340.512695,4335.512695,4343.846191,4331.025879,4329.102539,4304.102539,4323.846191,4323.461426,4308.846191,4491.666504,4516.538574,4378.974121,4444.487305,2735.000000,2.000000,51.000000,,,,0.000000,4.000000,4.000000,4.000000,4.000000,4.000000,4.000000,4.000000,4.000000,4.000000,4.000000,4.000000,4.000000,4.000000,4.000000,100.000000,,,,,,,,,,,,,,,,,,,,,,,,,,,,,,,,,,,,,,,,,,,,,,,
1665779959.973570,1665779959.974221,13.000000,0.000000,4320.000000,4340.128418,4332.563965,4339.102539,4338.717773,4321.538574,4303.846191,4326.666504,4319.102539,4297.436035,4486.410156,4507.436035,4371.922852,4443.589844,3019.000000,2.000000,51.000000,,,,0.000000,4.000000,4.000000,4.000000,4.000000,4.000000,4.000000,4.000000,4.000000,4.000000,4.000000,4.000000,4.000000,4.000000,4.000000,100.000000,,,,,,,,,,,,,,,,,,,,,,,,,,,,,,,,,,,,,,,,,,,,,,,
1665779959.981378,1665779959.981929,14.000000,0.000000,4315.384766,4345.641113,4337.692383,4336.410156,4335.256348,4325.384766,4310.256348,4328.461426,4319.871582,4291.538574,4488.205078,4509.871582,4373.077148,4440.897461,2673.000000,2.000000,51.000000,,,,0.000000,4.000000,4.000000,4.000000,4.000000,4.000000,4.000000,4.000000,4.000000,4.000000,4.000000,4.000000,4.000000,4.000000,4.000000,100.000000,,,,,,,,,,,,,,,,,,,,,,,,,,,,,,,,,,,,,,,,,,,,,,,
1665779959.989186,1665779959.989738,15.000000,0.000000,4318.717773,4345.512695,4342.692383,4335.000000,4327.051270,4327.436035,4311.538574,4328.974121,4320.256348,4297.307617,4491.794922,4511.922852,4375.128418,4438.333496,2621.000000,2.000000,51.000000,,,,0.000000,4.000000,4.000000,4.000000,4.000000,4.000000,4.000000,4.000000,4.000000,4.000000,4.000000,4.000000,4.000000,4.000000,4.000000,100.000000,,,,,,,,,,,,,,,,,,,,,,,,,,,,,,,,,,,,,,,,,,,,,,,
1665779959.996995,1665779959.997446,16.000000,0.000000,4319.487305,4339.743652,4341.025879,4332.948730,4321.410156,4321.666504,4308.077148,4326.922852,4318.461426,4297.948730,4488.461426,4512.563965,4375.000000,4435.000000,0.000000,2.000000,51.000000,,,,0.000000,4.000000,4.000000,4.000000,4.000000,4.000000,4.000000,4.000000,4.000000,4.000000,4.000000,4.000000,4.000000,4.000000,4.000000,100.000000,,,,,,,,,,,,,,,,,,,,,,,,,,,,,,,,,,,,,,,,,,,,,,,
1665779960.004803,1665779960.005354,17.000000,0.000000,4324.615234,4345.000000,4345.769043,4339.102539,4326.666504,4325.897461,4314.487305,4326.666504,4318.974121,4298.077148,4492.436035,4529.358887,4389.358887,4444.102539,0.000000,2.000000,51.000000,,,,0.000000,4.000000,4.000000,4.000000,4.000000,4.000000,4.000000,4.000000,4.000000,4.000000,4.000000,4.000000,4.000000,4.000000,4.000000,100.000000,,,,,,,,,,,,,,,,,,,,,,,,,,,,,,,,,,,,,,,,,,,,,,,
1665779960.012612,1665779960.013163,18.000000,0.000000,4332.692383,4350.769043,4350.512695,4345.000000,4336.282227,4338.205078,4318.846191,4320.897461,4314.615234,4299.615234,4496.410156,4539.230957,4395.641113,4456.025879,0.000000,2.000000,51.000000,,,,0.000000,4.000000,4.000000,4.000000,4.000000,4.000000,4.000000,4.000000,4.000000,4.000000,4.000000,4.000000,4.000000,4.000000,4.000000,100.000000,,,,,,,,,,,,,,,,,,,,,,,,,,,,,,,,,,,,,,,,,,,,,,,
