title:Psychopy_Andrew_Earphones_Blinking, start timestamp:1665770335.897637, stop timestamp:1665770396.904482, headset type:EPOCX, headset serial:E2020A42, headset firmware:720, channels:86, sampling rate:eeg_128;pm_2, samples:7814      , version:2.1, 
Timestamp,OriginalTimestamp,EEG.Counter,EEG.Interpolated,EEG.AF3,EEG.F7,EEG.F3,EEG.FC5,EEG.T7,EEG.P7,EEG.O1,EEG.O2,EEG.P8,EEG.T8,EEG.FC6,EEG.F4,EEG.F8,EEG.AF4,EEG.RawCq,EEG.Battery,EEG.BatteryPercent,MarkerIndex,MarkerType,MarkerValueInt,EEG.MarkerHardware,CQ.AF3,CQ.F7,CQ.F3,CQ.FC5,CQ.T7,CQ.P7,CQ.O1,CQ.O2,CQ.P8,CQ.T8,CQ.FC6,CQ.F4,CQ.F8,CQ.AF4,CQ.Overall,EQ.SampleRateQuality,EQ.OVERALL,EQ.AF3,EQ.F7,EQ.F3,EQ.FC5,EQ.T7,EQ.P7,EQ.O1,EQ.O2,EQ.P8,EQ.T8,EQ.FC6,EQ.F4,EQ.F8,EQ.AF4,PM.Engagement.IsActive,PM.Engagement.Scaled,PM.Engagement.Raw,PM.Engagement.Min,PM.Engagement.Max,PM.Excitement.IsActive,PM.Excitement.Scaled,PM.Excitement.Raw,PM.Excitement.Min,PM.Excitement.Max,PM.LongTermExcitement,PM.Stress.IsActive,PM.Stress.Scaled,PM.Stress.Raw,PM.Stress.Min,PM.Stress.Max,PM.Relaxation.IsActive,PM.Relaxation.Scaled,PM.Relaxation.Raw,PM.Relaxation.Min,PM.Relaxation.Max,PM.Interest.IsActive,PM.Interest.Scaled,PM.Interest.Raw,PM.Interest.Min,PM.Interest.Max,PM.Focus.IsActive,PM.Focus.Scaled,PM.Focus.Raw,PM.Focus.Min,PM.Focus.Max
1665770335.897637,1665770335.897721,40.000000,0.000000,4311.666504,4293.077148,4310.897461,4326.282227,4301.922852,4293.205078,4309.615234,4305.769043,4291.153809,4276.666504,4362.948730,4429.615234,4397.179688,4425.641113,0.000000,3.000000,55.000000,,,,0.000000,4.000000,4.000000,4.000000,4.000000,4.000000,4.000000,4.000000,4.000000,4.000000,4.000000,4.000000,4.000000,4.000000,4.000000,100.000000,,,,,,,,,,,,,,,,,,,,,,,,,,,,,,,,,,,,,,,,,,,,,,,
1665770335.905446,1665770335.905629,41.000000,0.000000,4316.666504,4297.948730,4318.717773,4328.333496,4304.743652,4296.153809,4318.205078,4309.743652,4294.743652,4280.000000,4365.256348,4428.974121,4399.230957,4428.717773,0.000000,3.000000,55.000000,,,,0.000000,4.000000,4.000000,4.000000,4.000000,4.000000,4.000000,4.000000,4.000000,4.000000,4.000000,4.000000,4.000000,4.000000,4.000000,100.000000,,,,,,,,,,,,,,,,,,,,,,,,,,,,,,,,,,,,,,,,,,,,,,,
1665770335.913254,1665770335.913437,42.000000,0.000000,4317.051270,4295.256348,4319.743652,4328.461426,4299.743652,4296.153809,4319.487305,4304.358887,4296.666504,4276.922852,4367.436035,4428.846191,4398.205078,4428.589844,0.000000,3.000000,55.000000,,,,0.000000,4.000000,4.000000,4.000000,4.000000,4.000000,4.000000,4.000000,4.000000,4.000000,4.000000,4.000000,4.000000,4.000000,4.000000,100.000000,,,,,,,,,,,,,,,,,,,,,,,,,,,,,,,,,,,,,,,,,,,,,,,
1665770335.921063,1665770335.921346,43.000000,0.000000,4311.153809,4292.692383,4312.436035,4324.871582,4295.384766,4291.922852,4308.974121,4294.743652,4286.666504,4268.205078,4355.641113,4426.410156,4396.666504,4421.666504,0.000000,3.000000,55.000000,,,,0.000000,4.000000,4.000000,4.000000,4.000000,4.000000,4.000000,4.000000,4.000000,4.000000,4.000000,4.000000,4.000000,4.000000,4.000000,100.000000,,,,,,,,,,,,,,,,,,,,,,,,,,,,,,,,,,,,,,,,,,,,,,,
1665770335.928871,1665770335.929154,44.000000,0.000000,4310.256348,4293.974121,4308.717773,4318.589844,4293.974121,4289.230957,4300.769043,4291.794922,4277.820313,4271.025879,4342.179688,4421.922852,4396.153809,4413.589844,0.000000,3.000000,55.000000,,,,0.000000,4.000000,4.000000,4.000000,4.000000,4.000000,4.000000,4.000000,4.000000,4.000000,4.000000,4.000000,4.000000,4.000000,4.000000,100.000000,,,,,,,,,,,,,,,,,,,,,,,,,,,,,,,,,,,,,,,,,,,,,,,
1665770335.936679,1665770335.937063,45.000000,0.000000,4316.794922,4295.512695,4310.384766,4318.846191,4294.102539,4292.948730,4302.436035,4292.948730,4287.051270,4279.230957,4351.153809,4422.820313,4394.871582,4417.436035,0.000000,3.000000,55.000000,,,,0.000000,4.000000,4.000000,4.000000,4.000000,4.000000,4.000000,4.000000,4.000000,4.000000,4.000000,4.000000,4.000000,4.000000,4.000000,100.000000,,,,,,,,,,,,,,,,,,,,,,,,,,,,,,,,,,,,,,,,,,,,,,,
1665770335.944488,1665770335.944871,46.000000,0.000000,4321.794922,4297.948730,4317.179688,4325.897461,4302.051270,4298.333496,4307.948730,4298.333496,4297.948730,4281.153809,4368.461426,4428.846191,4401.153809,4429.230957,0.000000,3.000000,55.000000,,,,0.000000,4.000000,4.000000,4.000000,4.000000,4.000000,4.000000,4.000000,4.000000,4.000000,4.000000,4.000000,4.000000,4.000000,4.000000,100.000000,,,,,,,,,,,,,,,,,,,,,,,,,,,,,,,,,,,,,,,,,,,,,,,
1665770335.952296,1665770335.952580,47.000000,0.000000,4321.922852,4304.358887,4323.461426,4330.512695,4311.025879,4298.461426,4310.769043,4308.333496,4296.538574,4286.025879,4369.615234,4436.025879,4413.205078,4431.025879,0.000000,3.000000,55.000000,,,,0.000000,4.000000,4.000000,4.000000,4.000000,4.000000,4.000000,4.000000,4.000000,4.000000,4.000000,4.000000,4.000000,4.000000,4.000000,100.000000,,,,,,,,,,,,,,,,,,,,,,,,,,,,,,,,,,,,,,,,,,,,,,,
1665770335.960105,1665770335.960388,48.000000,0.000000,4313.077148,4304.487305,4312.948730,4322.051270,4304.615234,4294.358887,4308.589844,4311.666504,4297.820313,4293.846191,4367.948730,4440.512695,4412.820313,4424.102539,0.000000,3.000000,55.000000,,,,0.000000,4.000000,4.000000,4.000000,4.000000,4.000000,4.000000,4.000000,4.000000,4.000000,4.000000,4.000000,4.000000,4.000000,4.000000,100.000000,,,,,,,,,,,,,,,,,,,,,,,,,,,,,,,,,,,,,,,,,,,,,,,
1665770335.967913,1665770335.968097,49.000000,0.000000,4298.589844,4300.384766,4295.769043,4314.230957,4299.102539,4292.436035,4307.051270,4311.538574,4303.077148,4294.871582,4372.051270,4439.743652,4402.820313,4418.461426,0.000000,3.000000,55.000000,,,,0.000000,4.000000,4.000000,4.000000,4.000000,4.000000,4.000000,4.000000,4.000000,4.000000,4.000000,4.000000,4.000000,4.000000,4.000000,100.000000,,,,,,,,,,,,,,,,,,,,,,,,,,,,,,,,,,,,,,,,,,,,,,,
1665770335.975721,1665770335.975905,50.000000,0.000000,4295.128418,4307.307617,4297.436035,4321.666504,4309.102539,4295.128418,4309.615234,4317.307617,4306.666504,4296.153809,4375.512695,4442.692383,4406.025879,4419.615234,0.000000,3.000000,55.000000,,,,0.000000,4.000000,4.000000,4.000000,4.000000,4.000000,4.000000,4.000000,4.000000,4.000000,4.000000,4.000000,4.000000,4.000000,4.000000,100.000000,,,,,,,,,,,,,,,,,,,,,,,,,,,,,,,,,,,,,,,,,,,,,,,
1665770335.983530,1665770335.983614,51.000000,0.000000,4298.077148,4311.282227,4307.820313,4324.871582,4312.051270,4296.794922,4311.282227,4317.436035,4305.641113,4297.051270,4375.897461,4442.692383,4411.794922,4420.384766,0.000000,3.000000,55.000000,,,,0.000000,4.000000,4.000000,4.000000,4.000000,4.000000,4.000000,4.000000,4.000000,4.000000,4.000000,4.000000,4.000000,4.000000,4.000000,100.000000,,,,,,,,,,,,,,,,,,,,,,,,,,,,,,,,,,,,,,,,,,,,,,,
1665770335.991338,1665770335.991422,52.000000,0.000000,4293.077148,4310.000000,4309.615234,4319.102539,4305.769043,4293.205078,4310.384766,4310.128418,4297.436035,4292.307617,4370.000000,4434.230957,4401.410156,4413.589844,0.000000,3.000000,55.000000,,,,0.000000,4.000000,4.000000,4.000000,4.000000,4.000000,4.000000,4.000000,4.000000,4.000000,4.000000,4.000000,4.000000,4.000000,4.000000,100.000000,,,,,,,,,,,,,,,,,,,,,,,,,,,,,,,,,,,,,,,,,,,,,,,
1665770335.999146,1665770335.999131,53.000000,0.000000,4291.794922,4319.487305,4312.051270,4322.051270,4307.436035,4291.410156,4311.282227,4308.205078,4295.769043,4292.820313,4364.102539,4432.948730,4398.846191,4410.769043,0.000000,3.000000,55.000000,,,,0.000000,4.000000,4.000000,4.000000,4.000000,4.000000,4.000000,4.000000,4.000000,4.000000,4.000000,4.000000,4.000000,4.000000,4.000000,100.000000,,,,,,,,,,,,,,,,,,,,,,,,,,,,,,,,,,,,,,,,,,,,,,,
1665770336.006955,1665770336.006939,54.000000,0.000000,4304.871582,4330.128418,4316.153809,4327.179688,4311.153809,4294.230957,4312.179688,4313.333496,4304.615234,4295.897461,4367.692383,4438.077148,4408.974121,4420.000000,0.000000,3.000000,55.000000,,,,0.000000,4.000000,4.000000,4.000000,4.000000,4.000000,4.000000,4.000000,4.000000,4.000000,4.000000,4.000000,4.000000,4.000000,4.000000,100.000000,,,,,,,,,,,,,,,,,,,,,,,,,,,,,,,,,,,,,,,,,,,,,,,
1665770336.014763,1665770336.014648,55.000000,0.000000,4310.000000,4327.179688,4313.589844,4320.641113,4309.230957,4295.000000,4311.922852,4312.051270,4307.051270,4294.102539,4371.666504,4434.102539,4408.717773,4424.487305,0.000000,3.000000,55.000000,,,,0.000000,4.000000,4.000000,4.000000,4.000000,4.000000,4.000000,4.000000,4.000000,4.000000,4.000000,4.000000,4.000000,4.000000,4.000000,100.000000,,,,,,,,,,,,,,,,,,,,,,,,,,,,,,,,,,,,,,,,,,,,,,,
1665770336.022571,1665770336.022456,56.000000,0.000000,4300.256348,4325.769043,4311.538574,4315.769043,4310.128418,4296.025879,4317.179688,4311.794922,4305.897461,4294.358887,4366.410156,4429.230957,4406.538574,4421.666504,0.000000,3.000000,55.000000,,,,0.000000,4.000000,4.000000,4.000000,4.000000,4.000000,4.000000,4.000000,4.000000,4.000000,4.000000,4.000000,4.000000,4.000000,4.000000,100.000000,,,,,,,,,,,,,,,,,,,,,,,,,,,,,,,,,,,,,,,,,,,,,,,
1665770336.030380,1665770336.030165,57.000000,0.000000,4294.102539,4329.230957,4309.230957,4316.282227,4310.769043,4297.692383,4321.282227,4316.410156,4310.641113,4294.487305,4360.897461,4430.897461,4407.436035,4416.538574,0.000000,3.000000,55.000000,,,,0.000000,4.000000,4.000000,4.000000,4.000000,4.000000,4.000000,4.000000,4.000000,4.000000,4.000000,4.000000,4.000000,4.000000,4.000000,100.000000,,,,,,,,,,,,,,,,,,,,,,,,,,,,,,,,,,,,,,,,,,,,,,,
1665770336.038188,1665770336.038073,58.000000,0.000000,4294.487305,4320.256348,4304.358887,4311.282227,4307.307617,4298.461426,4318.717773,4315.641113,4310.256348,4292.436035,4367.692383,4433.461426,4407.051270,4414.615234,0.000000,3.000000,55.000000,,,,0.000000,4.000000,4.000000,4.000000,4.000000,4.000000,4.000000,4.000000,4.000000,4.000000,4.000000,4.000000,4.000000,4.000000,4.000000,100.000000,,,,,,,,,,,,,,,,,,,,,,,,,,,,,,,,,,,,,,,,,,,,,,,
1665770336.045997,1665770336.045881,59.000000,0.000000,4295.128418,4312.436035,4306.410156,4307.692383,4307.051270,4300.897461,4318.205078,4318.077148,4309.102539,4298.589844,4378.717773,4433.461426,4415.769043,4421.922852,0.000000,3.000000,55.000000,,,,0.000000,4.000000,4.000000,4.000000,4.000000,4.000000,4.000000,4.000000,4.000000,4.000000,4.000000,4.000000,4.000000,4.000000,4.000000,100.000000,,,,,,,,,,,,,,,,,,,,,,,,,,,,,,,,,,,,,,,,,,,,,,,
1665770336.053805,1665770336.053790,60.000000,0.000000,4296.025879,4320.000000,4308.974121,4312.820313,4309.615234,4301.153809,4320.897461,4323.717773,4315.512695,4303.974121,4377.307617,4430.769043,4420.000000,4425.256348,0.000000,3.000000,55.000000,,,,0.000000,4.000000,4.000000,4.000000,4.000000,4.000000,4.000000,4.000000,4.000000,4.000000,4.000000,4.000000,4.000000,4.000000,4.000000,100.000000,,,,,,,,,,,,,,,,,,,,,,,,,,,,,,,,,,,,,,,,,,,,,,,
1665770336.061613,1665770336.061598,61.000000,0.000000,4298.205078,4326.922852,4305.128418,4319.615234,4310.384766,4295.897461,4317.051270,4317.563965,4308.333496,4296.025879,4368.717773,4427.948730,4404.358887,4414.871582,0.000000,3.000000,55.000000,,,,0.000000,4.000000,4.000000,4.000000,4.000000,4.000000,4.000000,4.000000,4.000000,4.000000,4.000000,4.000000,4.000000,4.000000,4.000000,100.000000,,,,,,,,,,,,,,,,,,,,,,,,,,,,,,,,,,,,,,,,,,,,,,,
1665770336.069422,1665770336.069506,62.000000,0.000000,4298.846191,4326.794922,4306.025879,4321.025879,4312.820313,4298.077148,4313.205078,4309.230957,4294.487305,4293.333496,4366.794922,4428.974121,4398.461426,4409.230957,0.000000,3.000000,55.000000,,,,0.000000,4.000000,4.000000,4.000000,4.000000,4.000000,4.000000,4.000000,4.000000,4.000000,4.000000,4.000000,4.000000,4.000000,4.000000,100.000000,,,,,,,,,,,,,,,,,,,,,,,,,,,,,,,,,,,,,,,,,,,,,,,
1665770336.077230,1665770336.077315,63.000000,0.000000,4296.922852,4324.743652,4309.358887,4318.333496,4313.461426,4303.846191,4313.846191,4314.230957,4299.358887,4297.948730,4365.641113,4430.256348,4410.769043,4413.846191,0.000000,3.000000,55.000000,,,,0.000000,4.000000,4.000000,4.000000,4.000000,4.000000,4.000000,4.000000,4.000000,4.000000,4.000000,4.000000,4.000000,4.000000,4.000000,100.000000,,,,,,,,,,,,,,,,,,,,,,,,,,,,,,,,,,,,,,,,,,,,,,,
1665770336.085039,1665770336.085223,64.000000,0.000000,4294.102539,4323.333496,4307.307617,4317.692383,4312.692383,4299.487305,4315.897461,4320.384766,4308.205078,4296.922852,4366.666504,4435.000000,4413.077148,4416.282227,2434.000000,3.000000,55.000000,,,,0.000000,4.000000,4.000000,4.000000,4.000000,4.000000,4.000000,4.000000,4.000000,4.000000,4.000000,4.000000,4.000000,4.000000,4.000000,100.000000,,,,,,,,,,,,,,,,,,,,,,,,,,,,,,,,,,,,,,,,,,,,,,,
1665770336.092847,1665770336.093032,65.000000,0.000000,4295.512695,4326.282227,4309.615234,4320.256348,4315.769043,4294.102539,4320.897461,4320.897461,4307.563965,4299.102539,4380.769043,4438.974121,4412.307617,4417.692383,2194.000000,3.000000,55.000000,,,,0.000000,4.000000,4.000000,4.000000,4.000000,4.000000,4.000000,4.000000,4.000000,4.000000,4.000000,4.000000,4.000000,4.000000,4.000000,100.000000,,,,,,,,,,,,,,,,,,,,,,,,,,,,,,,,,,,,,,,,,,,,,,,
1665770336.100655,1665770336.100940,66.000000,0.000000,4297.436035,4326.922852,4313.077148,4318.333496,4316.794922,4296.410156,4319.230957,4318.333496,4303.589844,4301.922852,4385.641113,4437.051270,4412.051270,4415.769043,2374.000000,3.000000,55.000000,,,,0.000000,4.000000,4.000000,4.000000,4.000000,4.000000,4.000000,4.000000,4.000000,4.000000,4.000000,4.000000,4.000000,4.000000,4.000000,100.000000,,,,,,,,,,,,,,,,,,,,,,,,,,,,,,,,,,,,,,,,,,,,,,,
1665770336.108464,1665770336.108748,67.000000,0.000000,4292.820313,4318.717773,4308.077148,4312.051270,4310.256348,4295.897461,4312.436035,4312.307617,4299.230957,4293.717773,4373.461426,4435.128418,4401.025879,4410.128418,2346.000000,3.000000,55.000000,,,,0.000000,4.000000,4.000000,4.000000,4.000000,4.000000,4.000000,4.000000,4.000000,4.000000,4.000000,4.000000,4.000000,4.000000,4.000000,100.000000,,,,,,,,,,,,,,,,,,,,,,,,,,,,,,,,,,,,,,,,,,,,,,,
1665770336.116272,1665770336.116657,68.000000,0.000000,4290.256348,4317.307617,4306.282227,4309.743652,4308.205078,4292.692383,4315.128418,4311.666504,4300.000000,4291.922852,4371.922852,4436.410156,4397.563965,4411.666504,2381.000000,3.000000,55.000000,,,,0.000000,4.000000,4.000000,4.000000,4.000000,4.000000,4.000000,4.000000,4.000000,4.000000,4.000000,4.000000,4.000000,4.000000,4.000000,100.000000,,,,,,,,,,,,,,,,,,,,,,,,,,,,,,,,,,,,,,,,,,,,,,,
1665770336.124080,1665770336.124465,69.000000,0.000000,4295.000000,4325.384766,4311.410156,4313.205078,4312.051270,4294.615234,4318.077148,4314.743652,4307.692383,4299.615234,4377.179688,4436.666504,4408.846191,4412.563965,2399.000000,3.000000,55.000000,,,,0.000000,4.000000,4.000000,4.000000,4.000000,4.000000,4.000000,4.000000,4.000000,4.000000,4.000000,4.000000,4.000000,4.000000,4.000000,100.000000,,,,,,,,,,,,,,,,,,,,,,,,,,,,,,,,,,,,,,,,,,,,,,,
1665770336.131889,1665770336.132374,70.000000,0.000000,4297.179688,4329.743652,4313.077148,4314.743652,4311.794922,4297.436035,4314.615234,4313.589844,4309.230957,4298.461426,4377.692383,4436.025879,4415.256348,4413.205078,2209.000000,3.000000,55.000000,,,,0.000000,4.000000,4.000000,4.000000,4.000000,4.000000,4.000000,4.000000,4.000000,4.000000,4.000000,4.000000,4.000000,4.000000,4.000000,100.000000,,,,,,,,,,,,,,,,,,,,,,,,,,,,,,,,,,,,,,,,,,,,,,,
1665770336.139697,1665770336.140182,71.000000,0.000000,4294.230957,4326.025879,4309.487305,4311.025879,4309.743652,4296.025879,4312.051270,4311.282227,4306.794922,4295.384766,4383.974121,4434.487305,4413.205078,4422.307617,2383.000000,3.000000,55.000000,,,,0.000000,4.000000,4.000000,4.000000,4.000000,4.000000,4.000000,4.000000,4.000000,4.000000,4.000000,4.000000,4.000000,4.000000,4.000000,100.000000,,,,,,,,,,,,,,,,,,,,,,,,,,,,,,,,,,,,,,,,,,,,,,,
1665770336.147506,1665770336.147891,72.000000,0.000000,4291.922852,4318.205078,4303.717773,4303.717773,4308.077148,4291.025879,4305.641113,4310.512695,4311.794922,4297.563965,4390.769043,4430.512695,4412.179688,4424.487305,2297.000000,3.000000,55.000000,,,,0.000000,4.000000,4.000000,4.000000,4.000000,4.000000,4.000000,4.000000,4.000000,4.000000,4.000000,4.000000,4.000000,4.000000,4.000000,100.000000,,,,,,,,,,,,,,,,,,,,,,,,,,,,,,,,,,,,,,,,,,,,,,,
1665770336.155314,1665770336.155699,73.000000,0.000000,4294.230957,4315.769043,4302.820313,4301.538574,4303.846191,4290.000000,4302.820313,4310.384766,4310.641113,4298.974121,4383.846191,4426.666504,4414.743652,4415.641113,2381.000000,3.000000,55.000000,,,,0.000000,4.000000,4.000000,4.000000,4.000000,4.000000,4.000000,4.000000,4.000000,4.000000,4.000000,4.000000,4.000000,4.000000,4.000000,100.000000,,,,,,,,,,,,,,,,,,,,,,,,,,,,,,,,,,,,,,,,,,,,,,,
1665770336.163122,1665770336.163408,74.000000,0.000000,4296.922852,4321.922852,4307.051270,4304.871582,4300.000000,4296.794922,4312.436035,4308.333496,4302.051270,4296.666504,4374.871582,4423.333496,4412.948730,4412.307617,2697.000000,3.000000,55.000000,,,,0.000000,4.000000,4.000000,4.000000,4.000000,4.000000,4.000000,4.000000,4.000000,4.000000,4.000000,4.000000,4.000000,4.000000,4.000000,100.000000,,,,,,,,,,,,,,,,,,,,,,,,,,,,,,,,,,,,,,,,,,,,,,,
1665770336.170931,1665770336.171216,75.000000,0.000000,4288.333496,4314.615234,4300.769043,4298.846191,4295.000000,4297.820313,4312.436035,4300.000000,4295.384766,4285.128418,4366.282227,4415.641113,4399.102539,4405.897461,2353.000000,3.000000,55.000000,,,,0.000000,4.000000,4.000000,4.000000,4.000000,4.000000,4.000000,4.000000,4.000000,4.000000,4.000000,4.000000,4.000000,4.000000,4.000000,100.000000,,,,,,,,,,,,,,,,,,,,,,,,,,,,,,,,,,,,,,,,,,,,,,,
1665770336.178739,1665770336.178925,76.000000,0.000000,4277.179688,4295.897461,4287.692383,4288.205078,4291.794922,4291.922852,4301.922852,4291.538574,4290.641113,4275.769043,4356.922852,4410.256348,4386.666504,4393.717773,3077.000000,3.000000,55.000000,,,,0.000000,4.000000,4.000000,4.000000,4.000000,4.000000,4.000000,4.000000,4.000000,4.000000,4.000000,4.000000,4.000000,4.000000,4.000000,100.000000,,,,,,,,,,,,,,,,,,,,,,,,,,,,,,,,,,,,,,,,,,,,,,,
1665770336.186547,1665770336.186733,77.000000,0.000000,4278.077148,4297.948730,4290.128418,4291.410156,4296.794922,4292.948730,4302.948730,4293.974121,4289.871582,4281.410156,4357.179688,4415.897461,4391.153809,4395.769043,1539.000000,3.000000,55.000000,,,,0.000000,4.000000,4.000000,4.000000,4.000000,4.000000,4.000000,4.000000,4.000000,4.000000,4.000000,4.000000,4.000000,4.000000,4.000000,100.000000,,,,,,,,,,,,,,,,,,,,,,,,,,,,,,,,,,,,,,,,,,,,,,,
1665770336.194356,1665770336.194442,78.000000,0.000000,4290.641113,4313.717773,4303.589844,4304.871582,4306.282227,4299.615234,4308.717773,4303.077148,4296.666504,4293.077148,4367.179688,4425.897461,4404.871582,4409.615234,2697.000000,3.000000,55.000000,,,,0.000000,4.000000,4.000000,4.000000,4.000000,4.000000,4.000000,4.000000,4.000000,4.000000,4.000000,4.000000,4.000000,4.000000,4.000000,100.000000,,,,,,,,,,,,,,,,,,,,,,,,,,,,,,,,,,,,,,,,,,,,,,,
1665770336.202164,1665770336.202250,79.000000,0.000000,4304.230957,4322.179688,4312.563965,4315.384766,4314.871582,4303.974121,4313.974121,4313.461426,4310.641113,4303.461426,4386.025879,4434.871582,4413.717773,4421.410156,2353.000000,3.000000,55.000000,,,,0.000000,4.000000,4.000000,4.000000,4.000000,4.000000,4.000000,4.000000,4.000000,4.000000,4.000000,4.000000,4.000000,4.000000,4.000000,100.000000,,,,,,,,,,,,,,,,,,,,,,,,,,,,,,,,,,,,,,,,,,,,,,,
1665770336.209973,1665770336.209959,80.000000,0.000000,4305.769043,4325.769043,4315.128418,4318.717773,4323.077148,4308.717773,4318.205078,4323.717773,4319.871582,4313.205078,4399.487305,4441.922852,4418.077148,4424.871582,3077.000000,3.000000,55.000000,,,,0.000000,4.000000,4.000000,4.000000,4.000000,4.000000,4.000000,4.000000,4.000000,4.000000,4.000000,4.000000,4.000000,4.000000,4.000000,100.000000,,,,,,,,,,,,,,,,,,,,,,,,,,,,,,,,,,,,,,,,,,,,,,,
1665770336.217781,1665770336.217867,81.000000,0.000000,4300.897461,4328.077148,4317.948730,4319.871582,4328.077148,4308.077148,4314.871582,4325.000000,4315.769043,4309.743652,4397.692383,4445.512695,4418.589844,4419.743652,1539.000000,3.000000,55.000000,,,,0.000000,4.000000,4.000000,4.000000,4.000000,4.000000,4.000000,4.000000,4.000000,4.000000,4.000000,4.000000,4.000000,4.000000,4.000000,100.000000,,,,,,,,,,,,,,,,,,,,,,,,,,,,,,,,,,,,,,,,,,,,,,,
1665770336.225589,1665770336.225675,82.000000,0.000000,4300.769043,4327.436035,4320.128418,4320.769043,4327.692383,4298.846191,4309.487305,4316.282227,4303.717773,4297.436035,4392.307617,4443.333496,4410.000000,4415.128418,2697.000000,3.000000,55.000000,,,,0.000000,4.000000,4.000000,4.000000,4.000000,4.000000,4.000000,4.000000,4.000000,4.000000,4.000000,4.000000,4.000000,4.000000,4.000000,100.000000,,,,,,,,,,,,,,,,,,,,,,,,,,,,,,,,,,,,,,,,,,,,,,,
1665770336.233398,1665770336.233584,83.000000,0.000000,4302.563965,4325.769043,4317.179688,4317.307617,4327.948730,4293.846191,4308.205078,4308.717773,4294.230957,4292.563965,4390.128418,4439.102539,4403.589844,4414.487305,2353.000000,3.000000,55.000000,,,,0.000000,4.000000,4.000000,4.000000,4.000000,4.000000,4.000000,4.000000,4.000000,4.000000,4.000000,4.000000,4.000000,4.000000,4.000000,100.000000,,,,,,,,,,,,,,,,,,,,,,,,,,,,,,,,,,,,,,,,,,,,,,,
1665770336.241206,1665770336.241392,84.000000,0.000000,4301.410156,4325.384766,4314.102539,4311.922852,4326.410156,4295.769043,4311.410156,4309.230957,4296.282227,4294.230957,4388.974121,4440.512695,4406.922852,4414.358887,3077.000000,3.000000,55.000000,,,,0.000000,4.000000,4.000000,4.000000,4.000000,4.000000,4.000000,4.000000,4.000000,4.000000,4.000000,4.000000,4.000000,4.000000,4.000000,100.000000,,,,,,,,,,,,,,,,,,,,,,,,,,,,,,,,,,,,,,,,,,,,,,,
1665770336.249015,1665770336.249301,85.000000,0.000000,4303.846191,4325.128418,4319.487305,4311.282227,4320.000000,4294.743652,4312.820313,4317.179688,4306.153809,4300.512695,4395.384766,4445.897461,4412.692383,4420.897461,1539.000000,3.000000,55.000000,,,,0.000000,4.000000,4.000000,4.000000,4.000000,4.000000,4.000000,4.000000,4.000000,4.000000,4.000000,4.000000,4.000000,4.000000,4.000000,100.000000,,,,,,,,,,,,,,,,,,,,,,,,,,,,,,,,,,,,,,,,,,,,,,,
1665770336.256823,1665770336.257109,86.000000,0.000000,4304.230957,4326.922852,4321.922852,4312.692383,4316.538574,4293.974121,4311.922852,4325.384766,4313.846191,4303.461426,4400.512695,4446.153809,4416.410156,4429.871582,2697.000000,3.000000,55.000000,,,,0.000000,4.000000,4.000000,4.000000,4.000000,4.000000,4.000000,4.000000,4.000000,4.000000,4.000000,4.000000,4.000000,4.000000,4.000000,100.000000,,,,,,,,,,,,,,,,,,,,,,,,,,,,,,,,,,,,,,,,,,,,,,,
1665770336.264631,1665770336.265017,87.000000,0.000000,4298.205078,4327.948730,4315.128418,4312.179688,4318.205078,4297.051270,4313.974121,4324.487305,4313.205078,4299.358887,4394.230957,4438.717773,4411.153809,4423.846191,2353.000000,3.000000,55.000000,,,,0.000000,4.000000,4.000000,4.000000,4.000000,4.000000,4.000000,4.000000,4.000000,4.000000,4.000000,4.000000,4.000000,4.000000,4.000000,100.000000,,,,,,,,,,,,,,,,,,,,,,,,,,,,,,,,,,,,,,,,,,,,,,,
1665770336.272440,1665770336.272826,88.000000,0.000000,4298.205078,4328.205078,4312.051270,4311.153809,4322.563965,4296.282227,4316.025879,4315.384766,4307.307617,4291.410156,4386.282227,4433.974121,4398.974121,4416.410156,3077.000000,3.000000,55.000000,,,,0.000000,4.000000,4.000000,4.000000,4.000000,4.000000,4.000000,4.000000,4.000000,4.000000,4.000000,4.000000,4.000000,4.000000,4.000000,100.000000,,,,,,,,,,,,,,,,,,,,,,,,,,,,,,,,,,,,,,,,,,,,,,,
1665770336.280248,1665770336.280734,89.000000,0.000000,4306.153809,4331.282227,4316.282227,4312.563965,4325.897461,4296.538574,4317.436035,4310.000000,4299.102539,4284.615234,4384.230957,4432.307617,4401.794922,4424.358887,1539.000000,3.000000,55.000000,,,,0.000000,4.000000,4.000000,4.000000,4.000000,4.000000,4.000000,4.000000,4.000000,4.000000,4.000000,4.000000,4.000000,4.000000,4.000000,100.000000,,,,,,,,,,,,,,,,,,,,,,,,,,,,,,,,,,,,,,,,,,,,,,,
1665770336.288056,1665770336.288543,90.000000,0.000000,4311.410156,4333.205078,4317.692383,4315.256348,4326.666504,4300.128418,4318.846191,4310.256348,4295.000000,4285.641113,4392.179688,4432.307617,4413.974121,4430.384766,2697.000000,3.000000,55.000000,,,,0.000000,4.000000,4.000000,4.000000,4.000000,4.000000,4.000000,4.000000,4.000000,4.000000,4.000000,4.000000,4.000000,4.000000,4.000000,100.000000,,,,,,,,,,,,,,,,,,,,,,,,,,,,,,,,,,,,,,,,,,,,,,,
1665770336.295865,1665770336.296451,91.000000,0.000000,4304.230957,4329.230957,4314.871582,4315.512695,4326.794922,4300.384766,4317.307617,4310.512695,4302.051270,4292.563965,4397.179688,4433.205078,4410.384766,4420.384766,2353.000000,3.000000,55.000000,,,,0.000000,4.000000,4.000000,4.000000,4.000000,4.000000,4.000000,4.000000,4.000000,4.000000,4.000000,4.000000,4.000000,4.000000,4.000000,100.000000,,,,,,,,,,,,,,,,,,,,,,,,,,,,,,,,,,,,,,,,,,,,,,,
1665770336.303673,1665770336.304259,92.000000,0.000000,4293.205078,4319.358887,4308.077148,4308.974121,4322.692383,4296.794922,4310.769043,4307.692383,4306.410156,4293.589844,4384.358887,4428.205078,4399.743652,4408.974121,3077.000000,3.000000,55.000000,,,,0.000000,4.000000,4.000000,4.000000,4.000000,4.000000,4.000000,4.000000,4.000000,4.000000,4.000000,4.000000,4.000000,4.000000,4.000000,100.000000,,,,,,,,,,,,,,,,,,,,,,,,,,,,,,,,,,,,,,,,,,,,,,,
1665770336.311481,1665770336.311968,93.000000,0.000000,4291.410156,4312.692383,4303.846191,4304.743652,4316.153809,4295.769043,4308.589844,4307.563965,4299.871582,4292.051270,4373.205078,4424.615234,4400.512695,4408.846191,1539.000000,3.000000,55.000000,,,,0.000000,4.000000,4.000000,4.000000,4.000000,4.000000,4.000000,4.000000,4.000000,4.000000,4.000000,4.000000,4.000000,4.000000,4.000000,100.000000,1.000000,58.333332,4.000000,4.000000,4.000000,4.000000,3.000000,3.000000,4.000000,4.000000,4.000000,4.000000,1.000000,4.000000,4.000000,4.000000,1.000000,0.519643,0.013451,-1.408111,0.695095,1.000000,0.097316,3.698212,2.777723,12.236532,0.393612,1.000000,0.261849,29.600323,-87.488312,312.508606,1.000000,0.200398,0.144055,0.081322,0.264779,1.000000,0.278194,2.612816,-4.519616,18.659954,1.000000,0.461981,0.461981,0.000000,1.000000
1665770336.319290,1665770336.319776,94.000000,0.000000,4295.000000,4313.461426,4305.384766,4308.717773,4314.230957,4297.563965,4310.897461,4310.256348,4296.410156,4296.025879,4371.153809,4427.307617,4396.538574,4407.179688,2697.000000,3.000000,55.000000,,,,0.000000,4.000000,4.000000,4.000000,4.000000,4.000000,4.000000,4.000000,4.000000,4.000000,4.000000,4.000000,4.000000,4.000000,4.000000,100.000000,,,,,,,,,,,,,,,,,,,,,,,,,,,,,,,,,,,,,,,,,,,,,,,
1665770336.327098,1665770336.327485,95.000000,0.000000,4291.025879,4312.436035,4303.333496,4307.948730,4317.692383,4296.922852,4306.922852,4308.589844,4296.025879,4293.589844,4369.615234,4427.051270,4387.563965,4396.922852,2353.000000,3.000000,55.000000,,,,0.000000,4.000000,4.000000,4.000000,4.000000,4.000000,4.000000,4.000000,4.000000,4.000000,4.000000,4.000000,4.000000,4.000000,4.000000,100.000000,,,,,,,,,,,,,,,,,,,,,,,,,,,,,,,,,,,,,,,,,,,,,,,
1665770336.334906,1665770336.335293,96.000000,0.000000,4290.384766,4312.051270,4302.692383,4309.230957,4323.205078,4297.820313,4304.487305,4307.820313,4297.563965,4290.512695,4375.897461,4425.512695,4391.410156,4398.717773,3077.000000,3.000000,55.000000,,,,0.000000,4.000000,4.000000,4.000000,4.000000,4.000000,4.000000,4.000000,4.000000,4.000000,4.000000,4.000000,4.000000,4.000000,4.000000,100.000000,,,,,,,,,,,,,,,,,,,,,,,,,,,,,,,,,,,,,,,,,,,,,,,
1665770336.342715,1665770336.343002,97.000000,0.000000,4302.692383,4322.307617,4310.000000,4318.589844,4328.205078,4301.666504,4308.333496,4311.666504,4302.820313,4295.512695,4384.615234,4428.205078,4400.769043,4409.871582,1539.000000,3.000000,55.000000,,,,0.000000,4.000000,4.000000,4.000000,4.000000,4.000000,4.000000,4.000000,4.000000,4.000000,4.000000,4.000000,4.000000,4.000000,4.000000,100.000000,,,,,,,,,,,,,,,,,,,,,,,,,,,,,,,,,,,,,,,,,,,,,,,
1665770336.350523,1665770336.350910,98.000000,0.000000,4307.051270,4329.871582,4312.948730,4321.794922,4327.051270,4300.128418,4309.358887,4310.384766,4302.820313,4289.615234,4381.410156,4431.153809,4399.358887,4407.436035,2697.000000,3.000000,55.000000,,,,0.000000,4.000000,4.000000,4.000000,4.000000,4.000000,4.000000,4.000000,4.000000,4.000000,4.000000,4.000000,4.000000,4.000000,4.000000,100.000000,,,,,,,,,,,,,,,,,,,,,,,,,,,,,,,,,,,,,,,,,,,,,,,
1665770336.358332,1665770336.358719,99.000000,0.000000,4296.922852,4319.358887,4308.974121,4316.666504,4325.000000,4295.512695,4309.358887,4311.153809,4299.358887,4282.436035,4382.436035,4434.615234,4393.077148,4400.128418,2353.000000,3.000000,55.000000,,,,0.000000,4.000000,4.000000,4.000000,4.000000,4.000000,4.000000,4.000000,4.000000,4.000000,4.000000,4.000000,4.000000,4.000000,4.000000,100.000000,,,,,,,,,,,,,,,,,,,,,,,,,,,,,,,,,,,,,,,,,,,,,,,
1665770336.366140,1665770336.366627,100.000000,0.000000,4291.153809,4308.717773,4307.307617,4311.538574,4320.000000,4297.436035,4310.512695,4319.358887,4299.615234,4288.589844,4388.333496,4434.615234,4396.794922,4404.487305,3077.000000,3.000000,55.000000,,,,0.000000,4.000000,4.000000,4.000000,4.000000,4.000000,4.000000,4.000000,4.000000,4.000000,4.000000,4.000000,4.000000,4.000000,4.000000,100.000000,,,,,,,,,,,,,,,,,,,,,,,,,,,,,,,,,,,,,,,,,,,,,,,
1665770336.373948,1665770336.374435,101.000000,0.000000,4294.615234,4311.666504,4309.358887,4311.282227,4312.820313,4294.230957,4303.589844,4317.436035,4301.410156,4291.025879,4386.922852,4430.000000,4397.820313,4406.282227,1539.000000,3.000000,55.000000,,,,0.000000,4.000000,4.000000,4.000000,4.000000,4.000000,4.000000,4.000000,4.000000,4.000000,4.000000,4.000000,4.000000,4.000000,4.000000,100.000000,,,,,,,,,,,,,,,,,,,,,,,,,,,,,,,,,,,,,,,,,,,,,,,
1665770336.381757,1665770336.382244,102.000000,0.000000,4291.538574,4312.436035,4305.641113,4310.000000,4307.563965,4281.538574,4293.974121,4302.948730,4295.641113,4281.922852,4377.692383,4428.846191,4386.410156,4397.692383,2697.000000,3.000000,55.000000,,,,0.000000,4.000000,4.000000,4.000000,4.000000,4.000000,4.000000,4.000000,4.000000,4.000000,4.000000,4.000000,4.000000,4.000000,4.000000,100.000000,,,,,,,,,,,,,,,,,,,,,,,,,,,,,,,,,,,,,,,,,,,,,,,
1665770336.389565,1665770336.389952,103.000000,0.000000,4286.153809,4305.769043,4297.948730,4302.307617,4300.769043,4278.974121,4294.487305,4294.487305,4286.025879,4275.256348,4367.563965,4427.820313,4380.384766,4395.512695,2353.000000,3.000000,55.000000,,,,0.000000,4.000000,4.000000,4.000000,4.000000,4.000000,4.000000,4.000000,4.000000,4.000000,4.000000,4.000000,4.000000,4.000000,4.000000,100.000000,,,,,,,,,,,,,,,,,,,,,,,,,,,,,,,,,,,,,,,,,,,,,,,
1665770336.397374,1665770336.397761,104.000000,0.000000,4288.461426,4303.589844,4294.358887,4297.436035,4297.436035,4283.205078,4297.948730,4292.307617,4284.487305,4272.307617,4366.410156,4422.307617,4378.461426,4395.641113,3077.000000,3.000000,55.000000,,,,0.000000,4.000000,4.000000,4.000000,4.000000,4.000000,4.000000,4.000000,4.000000,4.000000,4.000000,4.000000,4.000000,4.000000,4.000000,100.000000,,,,,,,,,,,,,,,,,,,,,,,,,,,,,,,,,,,,,,,,,,,,,,,
1665770336.405182,1665770336.405469,105.000000,0.000000,4295.000000,4310.128418,4303.589844,4307.307617,4301.922852,4281.538574,4302.436035,4296.153809,4293.974121,4275.256348,4376.922852,4424.743652,4379.743652,4397.307617,1539.000000,3.000000,55.000000,,,,0.000000,4.000000,4.000000,4.000000,4.000000,4.000000,4.000000,4.000000,4.000000,4.000000,4.000000,4.000000,4.000000,4.000000,4.000000,100.000000,,,,,,,,,,,,,,,,,,,,,,,,,,,,,,,,,,,,,,,,,,,,,,,
1665770336.412990,1665770336.413278,106.000000,0.000000,4299.615234,4318.589844,4314.743652,4315.256348,4301.538574,4280.897461,4308.717773,4306.538574,4300.641113,4280.000000,4388.974121,4431.025879,4392.307617,4409.358887,2697.000000,3.000000,55.000000,,,,0.000000,4.000000,4.000000,4.000000,4.000000,4.000000,4.000000,4.000000,4.000000,4.000000,4.000000,4.000000,4.000000,4.000000,4.000000,100.000000,,,,,,,,,,,,,,,,,,,,,,,,,,,,,,,,,,,,,,,,,,,,,,,
1665770336.420799,1665770336.420986,107.000000,0.000000,4296.282227,4310.128418,4309.230957,4307.051270,4293.333496,4282.051270,4301.410156,4305.769043,4295.000000,4271.410156,4387.692383,4426.666504,4399.230957,4413.589844,2353.000000,3.000000,55.000000,,,,0.000000,4.000000,4.000000,4.000000,4.000000,4.000000,4.000000,4.000000,4.000000,4.000000,4.000000,4.000000,4.000000,4.000000,4.000000,100.000000,,,,,,,,,,,,,,,,,,,,,,,,,,,,,,,,,,,,,,,,,,,,,,,
1665770336.428607,1665770336.428795,108.000000,0.000000,4294.615234,4294.871582,4300.384766,4304.487305,4292.563965,4280.641113,4292.436035,4296.282227,4293.077148,4265.256348,4378.974121,4423.846191,4392.436035,4405.384766,3077.000000,3.000000,55.000000,,,,0.000000,4.000000,4.000000,4.000000,4.000000,4.000000,4.000000,4.000000,4.000000,4.000000,4.000000,4.000000,4.000000,4.000000,4.000000,100.000000,,,,,,,,,,,,,,,,,,,,,,,,,,,,,,,,,,,,,,,,,,,,,,,
1665770336.436416,1665770336.436503,109.000000,0.000000,4305.384766,4301.410156,4307.179688,4311.922852,4295.256348,4280.641113,4299.615234,4296.153809,4295.000000,4275.128418,4383.333496,4428.974121,4392.820313,4406.410156,1539.000000,3.000000,55.000000,,,,0.000000,4.000000,4.000000,4.000000,4.000000,4.000000,4.000000,4.000000,4.000000,4.000000,4.000000,4.000000,4.000000,4.000000,4.000000,100.000000,,,,,,,,,,,,,,,,,,,,,,,,,,,,,,,,,,,,,,,,,,,,,,,
1665770336.444224,1665770336.444412,110.000000,0.000000,4312.436035,4311.282227,4311.153809,4314.102539,4294.871582,4283.717773,4302.692383,4300.897461,4295.641113,4284.743652,4396.025879,4430.641113,4399.615234,4415.000000,2697.000000,3.000000,55.000000,,,,0.000000,4.000000,4.000000,4.000000,4.000000,4.000000,4.000000,4.000000,4.000000,4.000000,4.000000,4.000000,4.000000,4.000000,4.000000,100.000000,,,,,,,,,,,,,,,,,,,,,,,,,,,,,,,,,,,,,,,,,,,,,,,
1665770336.452032,1665770336.452220,111.000000,0.000000,4302.307617,4301.922852,4298.077148,4310.384766,4293.974121,4281.922852,4294.102539,4299.230957,4295.512695,4282.436035,4392.179688,4425.897461,4396.538574,4408.205078,2353.000000,3.000000,55.000000,,,,0.000000,4.000000,4.000000,4.000000,4.000000,4.000000,4.000000,4.000000,4.000000,4.000000,4.000000,4.000000,4.000000,4.000000,4.000000,100.000000,,,,,,,,,,,,,,,,,,,,,,,,,,,,,,,,,,,,,,,,,,,,,,,
1665770336.459841,1665770336.460129,112.000000,0.000000,4292.820313,4290.128418,4291.538574,4307.051270,4291.153809,4278.461426,4289.358887,4293.974121,4288.846191,4271.153809,4377.179688,4425.384766,4388.717773,4395.384766,3077.000000,3.000000,55.000000,,,,0.000000,4.000000,4.000000,4.000000,4.000000,4.000000,4.000000,4.000000,4.000000,4.000000,4.000000,4.000000,4.000000,4.000000,4.000000,100.000000,,,,,,,,,,,,,,,,,,,,,,,,,,,,,,,,,,,,,,,,,,,,,,,
1665770336.467649,1665770336.467937,113.000000,0.000000,4296.025879,4293.717773,4301.666504,4310.128418,4297.436035,4280.641113,4293.974121,4296.282227,4281.410156,4263.205078,4379.358887,4430.512695,4382.692383,4399.743652,1539.000000,3.000000,55.000000,,,,0.000000,4.000000,4.000000,4.000000,4.000000,4.000000,4.000000,4.000000,4.000000,4.000000,4.000000,4.000000,4.000000,4.000000,4.000000,100.000000,,,,,,,,,,,,,,,,,,,,,,,,,,,,,,,,,,,,,,,,,,,,,,,
1665770336.475457,1665770336.475845,114.000000,0.000000,4297.948730,4301.538574,4308.205078,4314.487305,4303.846191,4284.102539,4297.820313,4305.128418,4280.256348,4266.794922,4387.436035,4432.948730,4380.128418,4408.974121,2697.000000,3.000000,55.000000,,,,0.000000,4.000000,4.000000,4.000000,4.000000,4.000000,4.000000,4.000000,4.000000,4.000000,4.000000,4.000000,4.000000,4.000000,4.000000,100.000000,,,,,,,,,,,,,,,,,,,,,,,,,,,,,,,,,,,,,,,,,,,,,,,
1665770336.483266,1665770336.483754,115.000000,0.000000,4295.000000,4304.102539,4305.256348,4314.102539,4300.641113,4281.025879,4295.000000,4304.358887,4281.538574,4266.282227,4381.410156,4428.589844,4379.743652,4406.282227,2353.000000,3.000000,55.000000,,,,0.000000,4.000000,4.000000,4.000000,4.000000,4.000000,4.000000,4.000000,4.000000,4.000000,4.000000,4.000000,4.000000,4.000000,4.000000,100.000000,,,,,,,,,,,,,,,,,,,,,,,,,,,,,,,,,,,,,,,,,,,,,,,
1665770336.491074,1665770336.491562,116.000000,0.000000,4294.871582,4298.974121,4302.692383,4309.102539,4297.051270,4276.282227,4292.436035,4294.230957,4278.461426,4253.333496,4373.205078,4424.230957,4370.384766,4398.589844,3077.000000,3.000000,55.000000,,,,0.000000,4.000000,4.000000,4.000000,4.000000,4.000000,4.000000,4.000000,4.000000,4.000000,4.000000,4.000000,4.000000,4.000000,4.000000,100.000000,,,,,,,,,,,,,,,,,,,,,,,,,,,,,,,,,,,,,,,,,,,,,,,
1665770336.498882,1665770336.499371,117.000000,0.000000,4295.897461,4294.615234,4308.077148,4310.000000,4300.384766,4276.153809,4295.897461,4294.358887,4276.794922,4251.922852,4375.769043,4430.000000,4362.820313,4398.333496,1539.000000,3.000000,55.000000,,,,0.000000,4.000000,4.000000,4.000000,4.000000,4.000000,4.000000,4.000000,4.000000,4.000000,4.000000,4.000000,4.000000,4.000000,4.000000,100.000000,,,,,,,,,,,,,,,,,,,,,,,,,,,,,,,,,,,,,,,,,,,,,,,
1665770336.506691,1665770336.507279,118.000000,0.000000,4294.615234,4302.948730,4310.641113,4312.948730,4300.256348,4276.153809,4298.461426,4300.000000,4278.077148,4260.512695,4383.461426,4433.717773,4371.282227,4399.615234,2697.000000,3.000000,55.000000,,,,0.000000,4.000000,4.000000,4.000000,4.000000,4.000000,4.000000,4.000000,4.000000,4.000000,4.000000,4.000000,4.000000,4.000000,4.000000,100.000000,,,,,,,,,,,,,,,,,,,,,,,,,,,,,,,,,,,,,,,,,,,,,,,
1665770336.514499,1665770336.515087,119.000000,0.000000,4291.282227,4302.948730,4302.436035,4306.025879,4287.563965,4273.846191,4294.615234,4295.769043,4278.333496,4258.974121,4380.000000,4424.230957,4377.563965,4397.692383,2353.000000,3.000000,55.000000,,,,0.000000,4.000000,4.000000,4.000000,4.000000,4.000000,4.000000,4.000000,4.000000,4.000000,4.000000,4.000000,4.000000,4.000000,4.000000,100.000000,,,,,,,,,,,,,,,,,,,,,,,,,,,,,,,,,,,,,,,,,,,,,,,
1665770336.522308,1665770336.522796,120.000000,0.000000,4291.922852,4294.358887,4299.743652,4301.282227,4278.333496,4274.743652,4294.487305,4292.179688,4280.000000,4258.333496,4372.563965,4419.615234,4371.666504,4402.051270,3077.000000,3.000000,55.000000,,,,0.000000,4.000000,4.000000,4.000000,4.000000,4.000000,4.000000,4.000000,4.000000,4.000000,4.000000,4.000000,4.000000,4.000000,4.000000,100.000000,,,,,,,,,,,,,,,,,,,,,,,,,,,,,,,,,,,,,,,,,,,,,,,
1665770336.530116,1665770336.530604,121.000000,0.000000,4299.871582,4296.666504,4311.794922,4307.948730,4282.051270,4277.563965,4296.538574,4296.282227,4280.256348,4262.051270,4379.871582,4427.307617,4372.179688,4410.384766,1539.000000,3.000000,55.000000,,,,0.000000,4.000000,4.000000,4.000000,4.000000,4.000000,4.000000,4.000000,4.000000,4.000000,4.000000,4.000000,4.000000,4.000000,4.000000,100.000000,,,,,,,,,,,,,,,,,,,,,,,,,,,,,,,,,,,,,,,,,,,,,,,
1665770336.537924,1665770336.538513,122.000000,0.000000,4307.307617,4305.000000,4319.615234,4313.205078,4291.794922,4282.820313,4298.974121,4300.256348,4282.692383,4265.641113,4391.666504,4430.256348,4383.461426,4412.563965,2697.000000,3.000000,55.000000,,,,0.000000,4.000000,4.000000,4.000000,4.000000,4.000000,4.000000,4.000000,4.000000,4.000000,4.000000,4.000000,4.000000,4.000000,4.000000,100.000000,,,,,,,,,,,,,,,,,,,,,,,,,,,,,,,,,,,,,,,,,,,,,,,
1665770336.545733,1665770336.546321,123.000000,0.000000,4311.153809,4308.077148,4316.922852,4314.102539,4297.948730,4291.153809,4307.307617,4305.641113,4291.282227,4270.384766,4391.025879,4426.922852,4386.794922,4412.051270,2353.000000,3.000000,55.000000,,,,0.000000,4.000000,4.000000,4.000000,4.000000,4.000000,4.000000,4.000000,4.000000,4.000000,4.000000,4.000000,4.000000,4.000000,4.000000,100.000000,,,,,,,,,,,,,,,,,,,,,,,,,,,,,,,,,,,,,,,,,,,,,,,
1665770336.553541,1665770336.554030,124.000000,0.000000,4309.358887,4304.487305,4313.461426,4313.589844,4296.666504,4290.641113,4308.589844,4308.077148,4296.025879,4271.666504,4386.153809,4427.692383,4377.948730,4411.922852,3077.000000,3.000000,55.000000,,,,0.000000,4.000000,4.000000,4.000000,4.000000,4.000000,4.000000,4.000000,4.000000,4.000000,4.000000,4.000000,4.000000,4.000000,4.000000,100.000000,,,,,,,,,,,,,,,,,,,,,,,,,,,,,,,,,,,,,,,,,,,,,,,
1665770336.561350,1665770336.561838,125.000000,0.000000,4304.615234,4303.461426,4310.384766,4311.025879,4292.820313,4282.051270,4301.410156,4306.538574,4292.820313,4271.410156,4391.153809,4427.948730,4377.948730,4408.333496,1539.000000,3.000000,55.000000,,,,0.000000,4.000000,4.000000,4.000000,4.000000,4.000000,4.000000,4.000000,4.000000,4.000000,4.000000,4.000000,4.000000,4.000000,4.000000,100.000000,,,,,,,,,,,,,,,,,,,,,,,,,,,,,,,,,,,,,,,,,,,,,,,
1665770336.569158,1665770336.569547,126.000000,0.000000,4303.077148,4302.179688,4308.589844,4310.897461,4292.820313,4281.410156,4299.230957,4307.307617,4289.102539,4278.077148,4395.769043,4430.000000,4387.820313,4407.820313,2697.000000,3.000000,55.000000,,,,0.000000,4.000000,4.000000,4.000000,4.000000,4.000000,4.000000,4.000000,4.000000,4.000000,4.000000,4.000000,4.000000,4.000000,4.000000,100.000000,,,,,,,,,,,,,,,,,,,,,,,,,,,,,,,,,,,,,,,,,,,,,,,
1665770336.576966,1665770336.577355,127.000000,0.000000,4303.333496,4298.589844,4309.358887,4311.922852,4296.153809,4284.230957,4301.153809,4312.563965,4292.820313,4283.974121,4396.025879,4433.461426,4387.820313,4412.051270,55.000000,3.000000,55.000000,,,,0.000000,4.000000,4.000000,4.000000,4.000000,4.000000,4.000000,4.000000,4.000000,4.000000,4.000000,4.000000,4.000000,4.000000,4.000000,100.000000,,,,,,,,,,,,,,,,,,,,,,,,,,,,,,,,,,,,,,,,,,,,,,,
1665770336.584775,1665770336.585064,0.000000,0.000000,4303.717773,4296.410156,4310.769043,4310.641113,4294.230957,4279.871582,4297.307617,4310.256348,4293.717773,4283.205078,4397.948730,4433.589844,4382.563965,4408.589844,2413.000000,3.000000,55.000000,,,,0.000000,4.000000,4.000000,4.000000,4.000000,4.000000,4.000000,4.000000,4.000000,4.000000,4.000000,4.000000,4.000000,4.000000,4.000000,100.000000,,,,,,,,,,,,,,,,,,,,,,,,,,,,,,,,,,,,,,,,,,,,,,,
1665770336.592583,1665770336.592872,1.000000,0.000000,4300.000000,4295.897461,4311.153809,4311.153809,4291.410156,4277.307617,4291.794922,4299.487305,4283.077148,4281.282227,4397.820313,4432.051270,4380.897461,4402.307617,2186.000000,3.000000,55.000000,,,,0.000000,4.000000,4.000000,4.000000,4.000000,4.000000,4.000000,4.000000,4.000000,4.000000,4.000000,4.000000,4.000000,4.000000,4.000000,100.000000,,,,,,,,,,,,,,,,,,,,,,,,,,,,,,,,,,,,,,,,,,,,,,,
1665770336.600391,1665770336.600581,2.000000,0.000000,4296.794922,4294.487305,4310.512695,4309.102539,4292.692383,4279.487305,4291.538574,4297.307617,4279.102539,4279.102539,4397.948730,4432.948730,4380.897461,4407.307617,2373.000000,3.000000,55.000000,,,,0.000000,4.000000,4.000000,4.000000,4.000000,4.000000,4.000000,4.000000,4.000000,4.000000,4.000000,4.000000,4.000000,4.000000,4.000000,100.000000,,,,,,,,,,,,,,,,,,,,,,,,,,,,,,,,,,,,,,,,,,,,,,,
1665770336.608200,1665770336.608389,3.000000,0.000000,4294.230957,4292.563965,4309.743652,4304.615234,4294.487305,4279.102539,4292.179688,4303.974121,4291.666504,4279.358887,4400.000000,4435.384766,4384.358887,4410.641113,2331.000000,3.000000,55.000000,,,,0.000000,4.000000,4.000000,4.000000,4.000000,4.000000,4.000000,4.000000,4.000000,4.000000,4.000000,4.000000,4.000000,4.000000,4.000000,100.000000,,,,,,,,,,,,,,,,,,,,,,,,,,,,,,,,,,,,,,,,,,,,,,,
1665770336.616008,1665770336.616098,4.000000,0.000000,4286.666504,4292.820313,4305.256348,4306.282227,4296.153809,4278.333496,4291.794922,4304.487305,4296.538574,4280.512695,4399.871582,4433.846191,4383.589844,4404.743652,2366.000000,3.000000,55.000000,,,,0.000000,4.000000,4.000000,4.000000,4.000000,4.000000,4.000000,4.000000,4.000000,4.000000,4.000000,4.000000,4.000000,4.000000,4.000000,100.000000,,,,,,,,,,,,,,,,,,,,,,,,,,,,,,,,,,,,,,,,,,,,,,,
1665770336.623816,1665770336.623906,5.000000,0.000000,4282.692383,4294.230957,4302.692383,4308.077148,4301.794922,4277.948730,4295.384766,4303.077148,4291.922852,4279.615234,4396.282227,4429.615234,4375.641113,4403.589844,2406.000000,3.000000,55.000000,,,,0.000000,4.000000,4.000000,4.000000,4.000000,4.000000,4.000000,4.000000,4.000000,4.000000,4.000000,4.000000,4.000000,4.000000,4.000000,100.000000,,,,,,,,,,,,,,,,,,,,,,,,,,,,,,,,,,,,,,,,,,,,,,,
1665770336.631625,1665770336.631615,6.000000,0.000000,4289.871582,4296.922852,4308.333496,4305.769043,4306.153809,4279.743652,4301.282227,4305.000000,4292.307617,4277.820313,4395.000000,4430.256348,4371.410156,4406.794922,2221.000000,3.000000,55.000000,,,,0.000000,4.000000,4.000000,4.000000,4.000000,4.000000,4.000000,4.000000,4.000000,4.000000,4.000000,4.000000,4.000000,4.000000,4.000000,100.000000,,,,,,,,,,,,,,,,,,,,,,,,,,,,,,,,,,,,,,,,,,,,,,,
1665770336.639433,1665770336.639523,7.000000,0.000000,4295.128418,4297.307617,4310.128418,4306.922852,4298.717773,4278.846191,4296.153809,4299.615234,4289.102539,4270.000000,4393.974121,4429.102539,4369.615234,4404.358887,2374.000000,3.000000,55.000000,,,,0.000000,4.000000,4.000000,4.000000,4.000000,4.000000,4.000000,4.000000,4.000000,4.000000,4.000000,4.000000,4.000000,4.000000,4.000000,100.000000,,,,,,,,,,,,,,,,,,,,,,,,,,,,,,,,,,,,,,,,,,,,,,,
1665770336.647242,1665770336.647332,8.000000,0.000000,4295.512695,4303.205078,4310.512695,4311.153809,4293.974121,4276.794922,4291.410156,4297.051270,4285.128418,4267.563965,4393.461426,4425.512695,4371.794922,4405.256348,2297.000000,3.000000,55.000000,,,,0.000000,4.000000,4.000000,4.000000,4.000000,4.000000,4.000000,4.000000,4.000000,4.000000,4.000000,4.000000,4.000000,4.000000,4.000000,100.000000,,,,,,,,,,,,,,,,,,,,,,,,,,,,,,,,,,,,,,,,,,,,,,,
1665770336.655050,1665770336.655240,9.000000,0.000000,4306.794922,4312.948730,4320.256348,4313.077148,4301.153809,4285.128418,4303.717773,4308.974121,4295.000000,4279.358887,4403.077148,4433.846191,4387.948730,4420.128418,2379.000000,3.000000,55.000000,,,,0.000000,4.000000,4.000000,4.000000,4.000000,4.000000,4.000000,4.000000,4.000000,4.000000,4.000000,4.000000,4.000000,4.000000,4.000000,100.000000,,,,,,,,,,,,,,,,,,,,,,,,,,,,,,,,,,,,,,,,,,,,,,,
1665770336.662858,1665770336.663048,10.000000,0.000000,4313.205078,4310.256348,4323.205078,4311.025879,4299.230957,4295.512695,4314.615234,4316.282227,4304.743652,4286.666504,4414.743652,4441.410156,4397.563965,4430.897461,2692.000000,3.000000,55.000000,,,,0.000000,4.000000,4.000000,4.000000,4.000000,4.000000,4.000000,4.000000,4.000000,4.000000,4.000000,4.000000,4.000000,4.000000,4.000000,100.000000,,,,,,,,,,,,,,,,,,,,,,,,,,,,,,,,,,,,,,,,,,,,,,,
1665770336.670667,1665770336.670957,11.000000,0.000000,4306.794922,4302.948730,4313.974121,4308.077148,4294.230957,4293.205078,4313.974121,4313.077148,4305.384766,4285.897461,4417.948730,4432.051270,4393.461426,4425.256348,2341.000000,3.000000,55.000000,,,,0.000000,4.000000,4.000000,4.000000,4.000000,4.000000,4.000000,4.000000,4.000000,4.000000,4.000000,4.000000,4.000000,4.000000,4.000000,100.000000,,,,,,,,,,,,,,,,,,,,,,,,,,,,,,,,,,,,,,,,,,,,,,,
1665770336.678475,1665770336.678765,12.000000,0.000000,4301.666504,4301.666504,4310.000000,4308.205078,4304.871582,4287.307617,4308.077148,4311.410156,4302.179688,4291.153809,4415.128418,4426.922852,4397.051270,4416.282227,3044.000000,3.000000,55.000000,,,,0.000000,4.000000,4.000000,4.000000,4.000000,4.000000,4.000000,4.000000,4.000000,4.000000,4.000000,4.000000,4.000000,4.000000,4.000000,100.000000,,,,,,,,,,,,,,,,,,,,,,,,,,,,,,,,,,,,,,,,,,,,,,,
1665770336.686283,1665770336.686673,13.000000,0.000000,4297.051270,4298.589844,4310.256348,4309.615234,4315.256348,4289.487305,4300.000000,4311.794922,4298.589844,4290.641113,4413.077148,4430.256348,4402.948730,4414.615234,1514.000000,3.000000,55.000000,,,,0.000000,4.000000,4.000000,4.000000,4.000000,4.000000,4.000000,4.000000,4.000000,4.000000,4.000000,4.000000,4.000000,4.000000,4.000000,100.000000,,,,,,,,,,,,,,,,,,,,,,,,,,,,,,,,,,,,,,,,,,,,,,,
1665770336.694092,1665770336.694482,14.000000,0.000000,4293.205078,4297.436035,4306.025879,4309.871582,4312.051270,4292.051270,4295.641113,4310.384766,4296.153809,4282.051270,4412.948730,4429.615234,4394.743652,4410.897461,2692.000000,3.000000,55.000000,,,,0.000000,4.000000,4.000000,4.000000,4.000000,4.000000,4.000000,4.000000,4.000000,4.000000,4.000000,4.000000,4.000000,4.000000,4.000000,100.000000,,,,,,,,,,,,,,,,,,,,,,,,,,,,,,,,,,,,,,,,,,,,,,,
1665770336.701900,1665770336.702390,15.000000,0.000000,4293.589844,4296.282227,4304.358887,4307.820313,4305.128418,4287.563965,4296.282227,4309.487305,4296.025879,4284.487305,4412.563965,4434.358887,4387.307617,4405.641113,2341.000000,3.000000,55.000000,,,,0.000000,4.000000,4.000000,4.000000,4.000000,4.000000,4.000000,4.000000,4.000000,4.000000,4.000000,4.000000,4.000000,4.000000,4.000000,100.000000,,,,,,,,,,,,,,,,,,,,,,,,,,,,,,,,,,,,,,,,,,,,,,,
1665770336.709709,1665770336.710199,16.000000,0.000000,4294.743652,4289.743652,4308.333496,4304.358887,4299.102539,4282.820313,4297.436035,4310.512695,4297.179688,4291.922852,4412.179688,4444.230957,4390.769043,4409.615234,0.000000,3.000000,55.000000,,,,0.000000,4.000000,4.000000,4.000000,4.000000,4.000000,4.000000,4.000000,4.000000,4.000000,4.000000,4.000000,4.000000,4.000000,4.000000,100.000000,,,,,,,,,,,,,,,,,,,,,,,,,,,,,,,,,,,,,,,,,,,,,,,
1665770336.717517,1665770336.717907,17.000000,0.000000,4297.307617,4296.153809,4311.538574,4305.897461,4292.948730,4282.436035,4299.358887,4312.436035,4298.205078,4287.563965,4412.179688,4445.256348,4386.025879,4414.743652,0.000000,3.000000,55.000000,,,,0.000000,4.000000,4.000000,4.000000,4.000000,4.000000,4.000000,4.000000,4.000000,4.000000,4.000000,4.000000,4.000000,4.000000,4.000000,100.000000,,,,,,,,,,,,,,,,,,,,,,,,,,,,,,,,,,,,,,,,,,,,,,,
1665770336.725325,1665770336.725716,18.000000,0.000000,4306.538574,4313.333496,4311.794922,4311.153809,4293.846191,4282.307617,4305.512695,4313.717773,4297.307617,4282.179688,4414.358887,4443.846191,4377.307617,4416.922852,0.000000,3.000000,55.000000,,,,0.000000,4.000000,4.000000,4.000000,4.000000,4.000000,4.000000,4.000000,4.000000,4.000000,4.000000,4.000000,4.000000,4.000000,4.000000,100.000000,,,,,,,,,,,,,,,,,,,,,,,,,,,,,,,,,,,,,,,,,,,,,,,
1665770336.733134,1665770336.733424,19.000000,0.000000,4310.128418,4314.358887,4313.589844,4316.538574,4303.077148,4284.615234,4306.922852,4313.846191,4300.769043,4289.230957,4414.230957,4446.410156,4387.948730,4420.897461,0.000000,3.000000,55.000000,,,,0.000000,4.000000,4.000000,4.000000,4.000000,4.000000,4.000000,4.000000,4.000000,4.000000,4.000000,4.000000,4.000000,4.000000,4.000000,100.000000,,,,,,,,,,,,,,,,,,,,,,,,,,,,,,,,,,,,,,,,,,,,,,,
1665770336.740942,1665770336.741233,20.000000,0.000000,4299.102539,4306.794922,4317.179688,4318.974121,4311.666504,4289.743652,4300.897461,4312.307617,4304.871582,4295.384766,4418.974121,4445.256348,4399.871582,4419.871582,0.000000,3.000000,55.000000,,,,0.000000,4.000000,4.000000,4.000000,4.000000,4.000000,4.000000,4.000000,4.000000,4.000000,4.000000,4.000000,4.000000,4.000000,4.000000,100.000000,,,,,,,,,,,,,,,,,,,,,,,,,,,,,,,,,,,,,,,,,,,,,,,
1665770336.748751,1665770336.748941,21.000000,0.000000,4294.743652,4310.128418,4317.051270,4316.538574,4314.615234,4286.922852,4297.948730,4312.948730,4301.410156,4291.153809,4426.666504,4444.358887,4387.563965,4414.102539,0.000000,3.000000,55.000000,,,,0.000000,4.000000,4.000000,4.000000,4.000000,4.000000,4.000000,4.000000,4.000000,4.000000,4.000000,4.000000,4.000000,4.000000,4.000000,100.000000,,,,,,,,,,,,,,,,,,,,,,,,,,,,,,,,,,,,,,,,,,,,,,,
1665770336.756559,1665770336.756750,22.000000,0.000000,4295.256348,4312.820313,4313.461426,4314.358887,4312.563965,4280.384766,4298.205078,4313.077148,4296.410156,4282.820313,4418.717773,4443.846191,4371.410156,4414.102539,0.000000,3.000000,55.000000,,,,0.000000,4.000000,4.000000,4.000000,4.000000,4.000000,4.000000,4.000000,4.000000,4.000000,4.000000,4.000000,4.000000,4.000000,4.000000,100.000000,,,,,,,,,,,,,,,,,,,,,,,,,,,,,,,,,,,,,,,,,,,,,,,
1665770336.764367,1665770336.764458,23.000000,0.000000,4285.128418,4305.512695,4308.589844,4308.974121,4306.538574,4281.025879,4294.871582,4302.692383,4293.205078,4276.282227,4406.538574,4435.641113,4368.846191,4412.307617,0.000000,3.000000,55.000000,,,,0.000000,4.000000,4.000000,4.000000,4.000000,4.000000,4.000000,4.000000,4.000000,4.000000,4.000000,4.000000,4.000000,4.000000,4.000000,100.000000,,,,,,,,,,,,,,,,,,,,,,,,,,,,,,,,,,,,,,,,,,,,,,,
1665770336.772176,1665770336.772267,24.000000,0.000000,4284.358887,4302.563965,4306.922852,4299.487305,4297.051270,4282.307617,4294.871582,4296.538574,4292.563965,4277.692383,4409.615234,4428.205078,4376.410156,4411.410156,0.000000,3.000000,55.000000,1,1,1,0.000000,4.000000,4.000000,4.000000,4.000000,4.000000,4.000000,4.000000,4.000000,4.000000,4.000000,4.000000,4.000000,4.000000,4.000000,100.000000,,,,,,,,,,,,,,,,,,,,,,,,,,,,,,,,,,,,,,,,,,,,,,,
1665770336.779984,1665770336.779975,25.000000,0.000000,4303.333496,4306.025879,4315.512695,4298.205078,4291.153809,4279.743652,4301.410156,4306.794922,4296.794922,4282.692383,4416.282227,4430.128418,4389.230957,4421.794922,0.000000,3.000000,55.000000,,,,0.000000,4.000000,4.000000,4.000000,4.000000,4.000000,4.000000,4.000000,4.000000,4.000000,4.000000,4.000000,4.000000,4.000000,4.000000,100.000000,,,,,,,,,,,,,,,,,,,,,,,,,,,,,,,,,,,,,,,,,,,,,,,
1665770336.787792,1665770336.787884,26.000000,0.000000,4313.461426,4307.563965,4323.205078,4307.820313,4290.897461,4280.769043,4299.230957,4312.051270,4301.153809,4283.205078,4415.641113,4434.358887,4394.230957,4430.897461,0.000000,3.000000,55.000000,,,,0.000000,4.000000,4.000000,4.000000,4.000000,4.000000,4.000000,4.000000,4.000000,4.000000,4.000000,4.000000,4.000000,4.000000,4.000000,100.000000,,,,,,,,,,,,,,,,,,,,,,,,,,,,,,,,,,,,,,,,,,,,,,,
1665770336.795601,1665770336.795692,27.000000,0.000000,4309.743652,4309.743652,4322.307617,4311.922852,4294.358887,4281.410156,4294.487305,4306.794922,4304.743652,4287.948730,4414.615234,4436.282227,4387.948730,4426.666504,0.000000,3.000000,55.000000,,,,0.000000,4.000000,4.000000,4.000000,4.000000,4.000000,4.000000,4.000000,4.000000,4.000000,4.000000,4.000000,4.000000,4.000000,4.000000,100.000000,,,,,,,,,,,,,,,,,,,,,,,,,,,,,,,,,,,,,,,,,,,,,,,
1665770336.803409,1665770336.803600,28.000000,0.000000,4311.538574,4314.102539,4322.307617,4311.410156,4301.153809,4281.410156,4302.436035,4308.846191,4306.666504,4295.128418,4412.820313,4435.384766,4384.615234,4418.077148,0.000000,3.000000,55.000000,,,,0.000000,4.000000,4.000000,4.000000,4.000000,4.000000,4.000000,4.000000,4.000000,4.000000,4.000000,4.000000,4.000000,4.000000,4.000000,100.000000,,,,,,,,,,,,,,,,,,,,,,,,,,,,,,,,,,,,,,,,,,,,,,,
1665770336.811217,1665770336.811409,29.000000,0.000000,4307.179688,4307.307617,4317.563965,4311.538574,4306.025879,4283.846191,4307.563965,4311.794922,4301.666504,4290.769043,4415.769043,4431.794922,4383.205078,4412.179688,0.000000,3.000000,55.000000,,,,0.000000,4.000000,4.000000,4.000000,4.000000,4.000000,4.000000,4.000000,4.000000,4.000000,4.000000,4.000000,4.000000,4.000000,4.000000,100.000000,1.000000,75.000000,4.000000,4.000000,4.000000,4.000000,4.000000,4.000000,4.000000,4.000000,4.000000,4.000000,1.000000,4.000000,4.000000,4.000000,1.000000,0.528671,-0.163386,-1.407981,0.694960,1.000000,0.090807,3.636651,2.777723,12.236532,0.385792,1.000000,0.262443,29.825577,-87.503319,312.474976,1.000000,0.202431,0.115346,0.081325,0.264756,1.000000,0.279045,2.708607,-4.522407,18.659410,1.000000,0.455936,0.455936,0.000000,1.000000
1665770336.819026,1665770336.819317,30.000000,0.000000,4296.025879,4297.179688,4312.436035,4309.615234,4309.102539,4286.410156,4305.769043,4313.077148,4300.384766,4289.102539,4426.538574,4435.384766,4381.153809,4409.871582,0.000000,3.000000,55.000000,,,,0.000000,4.000000,4.000000,4.000000,4.000000,4.000000,4.000000,4.000000,4.000000,4.000000,4.000000,4.000000,4.000000,4.000000,4.000000,100.000000,,,,,,,,,,,,,,,,,,,,,,,,,,,,,,,,,,,,,,,,,,,,,,,
1665770336.826834,1665770336.827126,31.000000,0.000000,4297.436035,4301.410156,4318.077148,4313.205078,4313.461426,4293.205078,4312.563965,4325.897461,4310.384766,4299.487305,4432.820313,4445.897461,4387.948730,4416.794922,0.000000,3.000000,55.000000,,,,0.000000,4.000000,4.000000,4.000000,4.000000,4.000000,4.000000,4.000000,4.000000,4.000000,4.000000,4.000000,4.000000,4.000000,4.000000,100.000000,,,,,,,,,,,,,,,,,,,,,,,,,,,,,,,,,,,,,,,,,,,,,,,
1665770336.834643,1665770336.835034,32.000000,0.000000,4299.615234,4305.512695,4317.051270,4314.871582,4311.666504,4297.051270,4316.153809,4330.641113,4312.948730,4300.512695,4430.897461,4447.307617,4391.282227,4420.384766,0.000000,3.000000,55.000000,,,,0.000000,4.000000,4.000000,4.000000,4.000000,4.000000,4.000000,4.000000,4.000000,4.000000,4.000000,4.000000,4.000000,4.000000,4.000000,100.000000,,,,,,,,,,,,,,,,,,,,,,,,,,,,,,,,,,,,,,,,,,,,,,,
1665770336.842451,1665770336.842842,33.000000,0.000000,4294.871582,4298.846191,4307.692383,4309.871582,4306.282227,4292.563965,4304.743652,4318.077148,4309.230957,4294.102539,4428.974121,4442.563965,4384.871582,4415.256348,0.000000,3.000000,55.000000,,,,0.000000,4.000000,4.000000,4.000000,4.000000,4.000000,4.000000,4.000000,4.000000,4.000000,4.000000,4.000000,4.000000,4.000000,4.000000,100.000000,,,,,,,,,,,,,,,,,,,,,,,,,,,,,,,,,,,,,,,,,,,,,,,
1665770336.850259,1665770336.850751,34.000000,0.000000,4295.512695,4299.615234,4312.820313,4311.410156,4306.794922,4287.692383,4295.769043,4311.538574,4311.153809,4295.641113,4425.000000,4445.512695,4384.615234,4414.871582,0.000000,3.000000,55.000000,,,,0.000000,4.000000,4.000000,4.000000,4.000000,4.000000,4.000000,4.000000,4.000000,4.000000,4.000000,4.000000,4.000000,4.000000,4.000000,100.000000,,,,,,,,,,,,,,,,,,,,,,,,,,,,,,,,,,,,,,,,,,,,,,,
1665770336.858068,1665770336.858559,35.000000,0.000000,4294.871582,4302.820313,4313.205078,4308.717773,4304.102539,4283.846191,4293.589844,4312.051270,4303.974121,4289.230957,4415.641113,4443.333496,4381.410156,4410.512695,0.000000,3.000000,55.000000,,,,0.000000,4.000000,4.000000,4.000000,4.000000,4.000000,4.000000,4.000000,4.000000,4.000000,4.000000,4.000000,4.000000,4.000000,4.000000,100.000000,,,,,,,,,,,,,,,,,,,,,,,,,,,,,,,,,,,,,,,,,,,,,,,
1665770336.865876,1665770336.866468,36.000000,0.000000,4288.846191,4296.153809,4302.051270,4298.589844,4295.897461,4280.256348,4293.205078,4307.692383,4292.436035,4278.717773,4411.025879,4433.846191,4370.897461,4403.589844,0.000000,3.000000,55.000000,,,,0.000000,4.000000,4.000000,4.000000,4.000000,4.000000,4.000000,4.000000,4.000000,4.000000,4.000000,4.000000,4.000000,4.000000,4.000000,100.000000,,,,,,,,,,,,,,,,,,,,,,,,,,,,,,,,,,,,,,,,,,,,,,,
1665770336.873685,1665770336.874276,37.000000,0.000000,4288.077148,4294.102539,4302.563965,4298.077148,4294.230957,4280.512695,4296.666504,4303.461426,4294.230957,4276.666504,4414.743652,4437.051270,4369.615234,4406.153809,0.000000,3.000000,55.000000,,,,0.000000,4.000000,4.000000,4.000000,4.000000,4.000000,4.000000,4.000000,4.000000,4.000000,4.000000,4.000000,4.000000,4.000000,4.000000,100.000000,,,,,,,,,,,,,,,,,,,,,,,,,,,,,,,,,,,,,,,,,,,,,,,
1665770336.881493,1665770336.882184,38.000000,0.000000,4284.102539,4292.179688,4303.077148,4299.487305,4294.871582,4279.743652,4294.230957,4301.025879,4295.128418,4271.410156,4415.000000,4438.717773,4368.846191,4404.743652,0.000000,3.000000,55.000000,,,,0.000000,4.000000,4.000000,4.000000,4.000000,4.000000,4.000000,4.000000,4.000000,4.000000,4.000000,4.000000,4.000000,4.000000,4.000000,100.000000,,,,,,,,,,,,,,,,,,,,,,,,,,,,,,,,,,,,,,,,,,,,,,,
1665770336.889301,1665770336.889993,39.000000,0.000000,4278.077148,4285.512695,4301.410156,4292.948730,4294.230957,4277.820313,4292.051270,4301.153809,4290.897461,4268.333496,4408.461426,4427.436035,4360.512695,4398.333496,0.000000,3.000000,55.000000,,,,0.000000,4.000000,4.000000,4.000000,4.000000,4.000000,4.000000,4.000000,4.000000,4.000000,4.000000,4.000000,4.000000,4.000000,4.000000,100.000000,,,,,,,,,,,,,,,,,,,,,,,,,,,,,,,,,,,,,,,,,,,,,,,
1665770336.897110,1665770336.897701,40.000000,0.000000,4289.743652,4291.922852,4313.717773,4299.743652,4298.846191,4283.077148,4304.487305,4307.307617,4296.410156,4279.871582,4414.358887,4428.333496,4369.102539,4406.282227,0.000000,3.000000,55.000000,,,,0.000000,4.000000,4.000000,4.000000,4.000000,4.000000,4.000000,4.000000,4.000000,4.000000,4.000000,4.000000,4.000000,4.000000,4.000000,100.000000,,,,,,,,,,,,,,,,,,,,,,,,,,,,,,,,,,,,,,,,,,,,,,,
1665770336.904918,1665770336.905610,41.000000,0.000000,4307.307617,4310.256348,4327.179688,4318.077148,4305.641113,4288.589844,4313.589844,4315.256348,4307.692383,4290.897461,4427.948730,4443.205078,4388.717773,4422.051270,0.000000,3.000000,55.000000,,,,0.000000,4.000000,4.000000,4.000000,4.000000,4.000000,4.000000,4.000000,4.000000,4.000000,4.000000,4.000000,4.000000,4.000000,4.000000,100.000000,,,,,,,,,,,,,,,,,,,,,,,,,,,,,,,,,,,,,,,,,,,,,,,
1665770336.912727,1665770336.913418,42.000000,0.000000,4312.563965,4317.563965,4329.615234,4321.410156,4308.205078,4290.128418,4310.000000,4316.794922,4311.025879,4293.846191,4432.820313,4443.974121,4387.692383,4429.743652,0.000000,3.000000,55.000000,,,,0.000000,4.000000,4.000000,4.000000,4.000000,4.000000,4.000000,4.000000,4.000000,4.000000,4.000000,4.000000,4.000000,4.000000,4.000000,100.000000,,,,,,,,,,,,,,,,,,,,,,,,,,,,,,,,,,,,,,,,,,,,,,,
1665770336.920535,1665770336.921227,43.000000,0.000000,4307.051270,4308.077148,4324.230957,4312.563965,4306.025879,4291.025879,4306.538574,4311.538574,4303.333496,4289.871582,4429.358887,4432.820313,4379.230957,4426.153809,0.000000,3.000000,55.000000,,,,0.000000,4.000000,4.000000,4.000000,4.000000,4.000000,4.000000,4.000000,4.000000,4.000000,4.000000,4.000000,4.000000,4.000000,4.000000,100.000000,,,,,,,,,,,,,,,,,,,,,,,,,,,,,,,,,,,,,,,,,,,,,,,
1665770336.928343,1665770336.928935,44.000000,0.000000,4299.615234,4297.436035,4316.153809,4305.641113,4301.538574,4289.487305,4302.563965,4305.384766,4296.025879,4280.897461,4419.102539,4428.846191,4387.307617,4415.128418,0.000000,3.000000,55.000000,,,,0.000000,4.000000,4.000000,4.000000,4.000000,4.000000,4.000000,4.000000,4.000000,4.000000,4.000000,4.000000,4.000000,4.000000,4.000000,100.000000,,,,,,,,,,,,,,,,,,,,,,,,,,,,,,,,,,,,,,,,,,,,,,,
1665770336.936152,1665770336.936843,45.000000,0.000000,4302.307617,4300.897461,4314.615234,4305.128418,4305.000000,4290.512695,4301.794922,4305.641113,4300.384766,4285.000000,4419.358887,4432.051270,4392.820313,4411.922852,0.000000,3.000000,55.000000,,,,0.000000,4.000000,4.000000,4.000000,4.000000,4.000000,4.000000,4.000000,4.000000,4.000000,4.000000,4.000000,4.000000,4.000000,4.000000,100.000000,,,,,,,,,,,,,,,,,,,,,,,,,,,,,,,,,,,,,,,,,,,,,,,
1665770336.943960,1665770336.944652,46.000000,0.000000,4309.487305,4310.384766,4319.358887,4310.000000,4312.563965,4295.512695,4306.794922,4309.871582,4305.641113,4298.205078,4435.512695,4436.794922,4384.871582,4417.563965,0.000000,3.000000,55.000000,,,,0.000000,4.000000,4.000000,4.000000,4.000000,4.000000,4.000000,4.000000,4.000000,4.000000,4.000000,4.000000,4.000000,4.000000,4.000000,100.000000,,,,,,,,,,,,,,,,,,,,,,,,,,,,,,,,,,,,,,,,,,,,,,,
1665770336.951768,1665770336.952460,47.000000,0.000000,4307.820313,4310.384766,4320.897461,4316.794922,4314.871582,4297.948730,4309.487305,4311.282227,4300.256348,4293.974121,4442.307617,4441.538574,4383.974121,4415.384766,0.000000,3.000000,55.000000,,,,0.000000,4.000000,4.000000,4.000000,4.000000,4.000000,4.000000,4.000000,4.000000,4.000000,4.000000,4.000000,4.000000,4.000000,4.000000,100.000000,,,,,,,,,,,,,,,,,,,,,,,,,,,,,,,,,,,,,,,,,,,,,,,
1665770336.959577,1665770336.960169,48.000000,0.000000,4306.666504,4310.897461,4320.641113,4321.282227,4320.641113,4296.666504,4306.666504,4309.358887,4295.000000,4282.692383,4432.563965,4439.487305,4388.717773,4413.205078,0.000000,3.000000,55.000000,,,,0.000000,4.000000,4.000000,4.000000,4.000000,4.000000,4.000000,4.000000,4.000000,4.000000,4.000000,4.000000,4.000000,4.000000,4.000000,100.000000,,,,,,,,,,,,,,,,,,,,,,,,,,,,,,,,,,,,,,,,,,,,,,,
1665770336.967385,1665770336.967977,49.000000,0.000000,4307.692383,4310.128418,4317.179688,4318.205078,4327.436035,4294.743652,4302.307617,4303.589844,4293.974121,4281.025879,4419.615234,4431.538574,4376.410156,4412.307617,0.000000,3.000000,55.000000,,,,0.000000,4.000000,4.000000,4.000000,4.000000,4.000000,4.000000,4.000000,4.000000,4.000000,4.000000,4.000000,4.000000,4.000000,4.000000,100.000000,,,,,,,,,,,,,,,,,,,,,,,,,,,,,,,,,,,,,,,,,,,,,,,
1665770336.975193,1665770336.975686,50.000000,0.000000,4305.769043,4308.974121,4318.077148,4316.025879,4323.077148,4293.333496,4303.077148,4304.487305,4293.461426,4279.102539,4412.820313,4431.282227,4362.948730,4408.077148,0.000000,3.000000,55.000000,,,,0.000000,4.000000,4.000000,4.000000,4.000000,4.000000,4.000000,4.000000,4.000000,4.000000,4.000000,4.000000,4.000000,4.000000,4.000000,100.000000,,,,,,,,,,,,,,,,,,,,,,,,,,,,,,,,,,,,,,,,,,,,,,,
1665770336.983002,1665770336.983494,51.000000,0.000000,4312.436035,4319.102539,4330.128418,4324.358887,4320.128418,4295.512695,4315.641113,4315.256348,4299.230957,4278.974121,4425.384766,4445.128418,4372.820313,4416.922852,0.000000,3.000000,55.000000,,,,0.000000,4.000000,4.000000,4.000000,4.000000,4.000000,4.000000,4.000000,4.000000,4.000000,4.000000,4.000000,4.000000,4.000000,4.000000,100.000000,,,,,,,,,,,,,,,,,,,,,,,,,,,,,,,,,,,,,,,,,,,,,,,
1665770336.990810,1665770336.991203,52.000000,0.000000,4320.897461,4323.333496,4339.487305,4326.666504,4322.692383,4299.230957,4323.461426,4325.128418,4307.307617,4285.512695,4445.897461,4455.641113,4386.153809,4432.179688,0.000000,3.000000,55.000000,,,,0.000000,4.000000,4.000000,4.000000,4.000000,4.000000,4.000000,4.000000,4.000000,4.000000,4.000000,4.000000,4.000000,4.000000,4.000000,100.000000,,,,,,,,,,,,,,,,,,,,,,,,,,,,,,,,,,,,,,,,,,,,,,,
1665770336.998618,1665770336.999011,53.000000,0.000000,4314.358887,4313.205078,4335.256348,4314.487305,4316.025879,4296.922852,4315.128418,4326.025879,4306.538574,4290.384766,4441.410156,4451.538574,4381.538574,4431.025879,0.000000,3.000000,55.000000,,,,0.000000,4.000000,4.000000,4.000000,4.000000,4.000000,4.000000,4.000000,4.000000,4.000000,4.000000,4.000000,4.000000,4.000000,4.000000,100.000000,,,,,,,,,,,,,,,,,,,,,,,,,,,,,,,,,,,,,,,,,,,,,,,
1665770337.006427,1665770337.006720,54.000000,0.000000,4307.051270,4308.205078,4329.230957,4308.077148,4310.128418,4292.563965,4313.461426,4320.641113,4304.358887,4291.794922,4431.794922,4446.794922,4376.025879,4425.897461,0.000000,3.000000,55.000000,,,,0.000000,4.000000,4.000000,4.000000,4.000000,4.000000,4.000000,4.000000,4.000000,4.000000,4.000000,4.000000,4.000000,4.000000,4.000000,100.000000,,,,,,,,,,,,,,,,,,,,,,,,,,,,,,,,,,,,,,,,,,,,,,,
1665770337.014235,1665770337.014628,55.000000,0.000000,4309.487305,4314.871582,4331.794922,4316.153809,4320.128418,4298.077148,4323.846191,4322.179688,4309.871582,4294.743652,4442.179688,4448.974121,4381.538574,4429.871582,0.000000,3.000000,55.000000,,,,0.000000,4.000000,4.000000,4.000000,4.000000,4.000000,4.000000,4.000000,4.000000,4.000000,4.000000,4.000000,4.000000,4.000000,4.000000,100.000000,,,,,,,,,,,,,,,,,,,,,,,,,,,,,,,,,,,,,,,,,,,,,,,
1665770337.022044,1665770337.022437,56.000000,0.000000,4311.666504,4318.077148,4336.025879,4320.128418,4326.922852,4304.102539,4329.871582,4327.436035,4314.871582,4298.974121,4449.743652,4450.256348,4386.282227,4431.025879,0.000000,3.000000,55.000000,,,,0.000000,4.000000,4.000000,4.000000,4.000000,4.000000,4.000000,4.000000,4.000000,4.000000,4.000000,4.000000,4.000000,4.000000,4.000000,100.000000,,,,,,,,,,,,,,,,,,,,,,,,,,,,,,,,,,,,,,,,,,,,,,,
1665770337.029852,1665770337.030345,57.000000,0.000000,4310.000000,4313.717773,4332.563965,4317.307617,4320.128418,4298.461426,4323.077148,4321.538574,4311.410156,4295.769043,4444.230957,4442.051270,4382.820313,4427.563965,0.000000,3.000000,55.000000,,,,0.000000,4.000000,4.000000,4.000000,4.000000,4.000000,4.000000,4.000000,4.000000,4.000000,4.000000,4.000000,4.000000,4.000000,4.000000,100.000000,,,,,,,,,,,,,,,,,,,,,,,,,,,,,,,,,,,,,,,,,,,,,,,
1665770337.037660,1665770337.038153,58.000000,0.000000,4310.128418,4311.922852,4326.410156,4317.179688,4318.333496,4294.230957,4313.461426,4309.487305,4306.538574,4286.025879,4436.153809,4432.051270,4379.743652,4428.205078,0.000000,3.000000,55.000000,,,,0.000000,4.000000,4.000000,4.000000,4.000000,4.000000,4.000000,4.000000,4.000000,4.000000,4.000000,4.000000,4.000000,4.000000,4.000000,100.000000,,,,,,,,,,,,,,,,,,,,,,,,,,,,,,,,,,,,,,,,,,,,,,,
1665770337.045469,1665770337.046062,59.000000,0.000000,4310.256348,4313.205078,4324.230957,4316.025879,4318.717773,4298.205078,4312.820313,4309.102539,4305.128418,4281.794922,4431.025879,4429.487305,4380.897461,4427.051270,0.000000,3.000000,55.000000,,,,0.000000,4.000000,4.000000,4.000000,4.000000,4.000000,4.000000,4.000000,4.000000,4.000000,4.000000,4.000000,4.000000,4.000000,4.000000,100.000000,,,,,,,,,,,,,,,,,,,,,,,,,,,,,,,,,,,,,,,,,,,,,,,
1665770337.053277,1665770337.053870,60.000000,0.000000,4312.179688,4315.769043,4324.615234,4315.000000,4312.948730,4298.846191,4313.846191,4312.436035,4305.256348,4287.948730,4430.256348,4429.615234,4383.717773,4419.871582,0.000000,3.000000,55.000000,,,,0.000000,4.000000,4.000000,4.000000,4.000000,4.000000,4.000000,4.000000,4.000000,4.000000,4.000000,4.000000,4.000000,4.000000,4.000000,100.000000,,,,,,,,,,,,,,,,,,,,,,,,,,,,,,,,,,,,,,,,,,,,,,,
1665770337.061086,1665770337.061779,61.000000,0.000000,4311.922852,4312.948730,4318.846191,4315.256348,4308.333496,4294.615234,4309.358887,4305.769043,4305.256348,4289.615234,4430.512695,4428.846191,4383.589844,4413.333496,0.000000,3.000000,55.000000,,,,0.000000,4.000000,4.000000,4.000000,4.000000,4.000000,4.000000,4.000000,4.000000,4.000000,4.000000,4.000000,4.000000,4.000000,4.000000,100.000000,,,,,,,,,,,,,,,,,,,,,,,,,,,,,,,,,,,,,,,,,,,,,,,
1665770337.068894,1665770337.069587,62.000000,0.000000,4303.205078,4306.538574,4311.538574,4308.846191,4302.820313,4293.589844,4304.487305,4297.179688,4300.384766,4282.563965,4426.922852,4426.666504,4375.897461,4412.436035,0.000000,3.000000,55.000000,,,,0.000000,4.000000,4.000000,4.000000,4.000000,4.000000,4.000000,4.000000,4.000000,4.000000,4.000000,4.000000,4.000000,4.000000,4.000000,100.000000,,,,,,,,,,,,,,,,,,,,,,,,,,,,,,,,,,,,,,,,,,,,,,,
1665770337.076702,1665770337.077296,63.000000,0.000000,4296.153809,4298.717773,4308.589844,4300.512695,4295.897461,4294.102539,4302.436035,4296.025879,4295.128418,4279.871582,4426.666504,4426.538574,4374.871582,4413.846191,0.000000,3.000000,55.000000,,,,0.000000,4.000000,4.000000,4.000000,4.000000,4.000000,4.000000,4.000000,4.000000,4.000000,4.000000,4.000000,4.000000,4.000000,4.000000,100.000000,,,,,,,,,,,,,,,,,,,,,,,,,,,,,,,,,,,,,,,,,,,,,,,
1665770337.084511,1665770337.085104,64.000000,0.000000,4295.897461,4286.794922,4303.077148,4301.153809,4293.333496,4289.487305,4298.974121,4298.461426,4297.307617,4283.077148,4424.487305,4427.563965,4378.846191,4409.102539,2421.000000,3.000000,55.000000,,,,0.000000,4.000000,4.000000,4.000000,4.000000,4.000000,4.000000,4.000000,4.000000,4.000000,4.000000,4.000000,4.000000,4.000000,4.000000,100.000000,,,,,,,,,,,,,,,,,,,,,,,,,,,,,,,,,,,,,,,,,,,,,,,
1665770337.092319,1665770337.092813,65.000000,0.000000,4294.615234,4279.487305,4295.897461,4302.820313,4292.436035,4280.897461,4292.563965,4294.230957,4295.384766,4278.333496,4415.512695,4429.102539,4366.410156,4399.102539,2181.000000,3.000000,55.000000,,,,0.000000,4.000000,4.000000,4.000000,4.000000,4.000000,4.000000,4.000000,4.000000,4.000000,4.000000,4.000000,4.000000,4.000000,4.000000,100.000000,,,,,,,,,,,,,,,,,,,,,,,,,,,,,,,,,,,,,,,,,,,,,,,
1665770337.100127,1665770337.100621,66.000000,0.000000,4291.153809,4284.358887,4297.051270,4301.025879,4292.692383,4278.205078,4290.128418,4291.794922,4285.000000,4266.538574,4411.282227,4430.512695,4352.820313,4395.641113,2378.000000,3.000000,55.000000,,,,0.000000,4.000000,4.000000,4.000000,4.000000,4.000000,4.000000,4.000000,4.000000,4.000000,4.000000,4.000000,4.000000,4.000000,4.000000,100.000000,,,,,,,,,,,,,,,,,,,,,,,,,,,,,,,,,,,,,,,,,,,,,,,
1665770337.107936,1665770337.108330,67.000000,0.000000,4290.512695,4291.666504,4303.589844,4306.153809,4292.051270,4281.410156,4293.846191,4294.230957,4278.846191,4262.436035,4412.179688,4429.871582,4356.025879,4398.717773,2339.000000,3.000000,55.000000,,,,0.000000,4.000000,4.000000,4.000000,4.000000,4.000000,4.000000,4.000000,4.000000,4.000000,4.000000,4.000000,4.000000,4.000000,4.000000,100.000000,,,,,,,,,,,,,,,,,,,,,,,,,,,,,,,,,,,,,,,,,,,,,,,
1665770337.115744,1665770337.116138,68.000000,0.000000,4293.077148,4292.692383,4307.307617,4311.410156,4289.487305,4281.025879,4297.051270,4295.769043,4285.256348,4267.820313,4418.846191,4435.641113,4363.205078,4406.025879,2356.000000,3.000000,55.000000,,,,0.000000,4.000000,4.000000,4.000000,4.000000,4.000000,4.000000,4.000000,4.000000,4.000000,4.000000,4.000000,4.000000,4.000000,4.000000,100.000000,,,,,,,,,,,,,,,,,,,,,,,,,,,,,,,,,,,,,,,,,,,,,,,
1665770337.123553,1665770337.123847,69.000000,0.000000,4295.769043,4294.102539,4311.794922,4310.512695,4293.717773,4279.358887,4295.897461,4303.205078,4292.692383,4268.077148,4428.717773,4442.820313,4364.230957,4410.769043,2409.000000,3.000000,55.000000,,,,0.000000,4.000000,4.000000,4.000000,4.000000,4.000000,4.000000,4.000000,4.000000,4.000000,4.000000,4.000000,4.000000,4.000000,4.000000,100.000000,,,,,,,,,,,,,,,,,,,,,,,,,,,,,,,,,,,,,,,,,,,,,,,
1665770337.131361,1665770337.131655,70.000000,0.000000,4294.743652,4296.538574,4312.563965,4310.641113,4297.051270,4280.641113,4298.205078,4312.307617,4294.102539,4265.128418,4430.000000,4441.922852,4366.922852,4408.589844,2229.000000,3.000000,55.000000,,,,0.000000,4.000000,4.000000,4.000000,4.000000,4.000000,4.000000,4.000000,4.000000,4.000000,4.000000,4.000000,4.000000,4.000000,4.000000,100.000000,,,,,,,,,,,,,,,,,,,,,,,,,,,,,,,,,,,,,,,,,,,,,,,
1665770337.139169,1665770337.139364,71.000000,0.000000,4296.794922,4293.589844,4312.948730,4312.436035,4288.846191,4281.410156,4305.384766,4315.000000,4294.743652,4271.153809,4431.153809,4441.025879,4371.794922,4411.410156,2374.000000,3.000000,55.000000,,,,0.000000,4.000000,4.000000,4.000000,4.000000,4.000000,4.000000,4.000000,4.000000,4.000000,4.000000,4.000000,4.000000,4.000000,4.000000,100.000000,,,,,,,,,,,,,,,,,,,,,,,,,,,,,,,,,,,,,,,,,,,,,,,
1665770337.146978,1665770337.147172,72.000000,0.000000,4297.563965,4287.436035,4311.666504,4305.256348,4283.974121,4279.615234,4303.077148,4310.128418,4296.666504,4275.128418,4437.307617,4440.641113,4369.230957,4413.205078,2297.000000,3.000000,55.000000,,,,0.000000,4.000000,4.000000,4.000000,4.000000,4.000000,4.000000,4.000000,4.000000,4.000000,4.000000,4.000000,4.000000,4.000000,4.000000,100.000000,,,,,,,,,,,,,,,,,,,,,,,,,,,,,,,,,,,,,,,,,,,,,,,
1665770337.154786,1665770337.154881,73.000000,0.000000,4285.384766,4282.051270,4299.743652,4293.717773,4284.743652,4277.820313,4295.641113,4301.410156,4295.000000,4268.333496,4431.666504,4434.487305,4363.333496,4403.205078,2379.000000,3.000000,55.000000,,,,0.000000,4.000000,4.000000,4.000000,4.000000,4.000000,4.000000,4.000000,4.000000,4.000000,4.000000,4.000000,4.000000,4.000000,4.000000,100.000000,,,,,,,,,,,,,,,,,,,,,,,,,,,,,,,,,,,,,,,,,,,,,,,
1665770337.162594,1665770337.162689,74.000000,0.000000,4282.948730,4280.256348,4293.589844,4294.871582,4283.205078,4279.230957,4296.025879,4296.282227,4290.641113,4263.077148,4424.743652,4429.358887,4364.102539,4398.717773,2712.000000,3.000000,55.000000,,,,0.000000,4.000000,4.000000,4.000000,4.000000,4.000000,4.000000,4.000000,4.000000,4.000000,4.000000,4.000000,4.000000,4.000000,4.000000,100.000000,,,,,,,,,,,,,,,,,,,,,,,,,,,,,,,,,,,,,,,,,,,,,,,
1665770337.170403,1665770337.170398,75.000000,0.000000,4290.897461,4277.051270,4297.051270,4298.974121,4279.871582,4279.871582,4296.794922,4293.974121,4284.102539,4262.179688,4425.512695,4428.974121,4363.461426,4402.563965,2359.000000,3.000000,55.000000,,,,0.000000,4.000000,4.000000,4.000000,4.000000,4.000000,4.000000,4.000000,4.000000,4.000000,4.000000,4.000000,4.000000,4.000000,4.000000,100.000000,,,,,,,,,,,,,,,,,,,,,,,,,,,,,,,,,,,,,,,,,,,,,,,
1665770337.178211,1665770337.178206,76.000000,0.000000,4287.179688,4281.153809,4296.153809,4295.384766,4279.487305,4279.743652,4294.615234,4290.641113,4279.743652,4263.205078,4419.230957,4426.538574,4359.230957,4399.487305,3027.000000,3.000000,55.000000,,,,0.000000,4.000000,4.000000,4.000000,4.000000,4.000000,4.000000,4.000000,4.000000,4.000000,4.000000,4.000000,4.000000,4.000000,4.000000,100.000000,,,,,,,,,,,,,,,,,,,,,,,,,,,,,,,,,,,,,,,,,,,,,,,
1665770337.186020,1665770337.185915,77.000000,0.000000,4284.615234,4295.000000,4296.922852,4297.820313,4286.153809,4280.256348,4294.230957,4289.743652,4283.461426,4263.077148,4416.153809,4426.025879,4361.410156,4400.384766,1497.000000,3.000000,55.000000,,,,0.000000,4.000000,4.000000,4.000000,4.000000,4.000000,4.000000,4.000000,4.000000,4.000000,4.000000,4.000000,4.000000,4.000000,4.000000,100.000000,,,,,,,,,,,,,,,,,,,,,,,,,,,,,,,,,,,,,,,,,,,,,,,
1665770337.193828,1665770337.193723,78.000000,0.000000,4296.538574,4299.358887,4309.102539,4308.205078,4294.487305,4281.666504,4295.641113,4294.615234,4288.846191,4264.230957,4427.051270,4429.487305,4368.461426,4410.384766,2712.000000,3.000000,55.000000,,,,0.000000,4.000000,4.000000,4.000000,4.000000,4.000000,4.000000,4.000000,4.000000,4.000000,4.000000,4.000000,4.000000,4.000000,4.000000,100.000000,,,,,,,,,,,,,,,,,,,,,,,,,,,,,,,,,,,,,,,,,,,,,,,
1665770337.201636,1665770337.201432,79.000000,0.000000,4308.589844,4295.384766,4320.256348,4312.948730,4294.102539,4282.948730,4299.358887,4297.436035,4292.948730,4273.846191,4432.436035,4430.000000,4372.436035,4415.128418,2359.000000,3.000000,55.000000,,,,0.000000,4.000000,4.000000,4.000000,4.000000,4.000000,4.000000,4.000000,4.000000,4.000000,4.000000,4.000000,4.000000,4.000000,4.000000,100.000000,,,,,,,,,,,,,,,,,,,,,,,,,,,,,,,,,,,,,,,,,,,,,,,
1665770337.209445,1665770337.209340,80.000000,0.000000,4311.794922,4295.641113,4318.589844,4310.897461,4289.615234,4284.230957,4302.051270,4297.179688,4293.846191,4281.153809,4431.282227,4429.358887,4373.205078,4413.205078,3027.000000,3.000000,55.000000,,,,0.000000,4.000000,4.000000,4.000000,4.000000,4.000000,4.000000,4.000000,4.000000,4.000000,4.000000,4.000000,4.000000,4.000000,4.000000,100.000000,,,,,,,,,,,,,,,,,,,,,,,,,,,,,,,,,,,,,,,,,,,,,,,
1665770337.217253,1665770337.217148,81.000000,0.000000,4306.922852,4290.897461,4312.307617,4310.769043,4288.974121,4286.666504,4298.461426,4297.820313,4287.307617,4271.922852,4430.512695,4430.512695,4368.077148,4408.974121,1497.000000,3.000000,55.000000,,,,0.000000,4.000000,4.000000,4.000000,4.000000,4.000000,4.000000,4.000000,4.000000,4.000000,4.000000,4.000000,4.000000,4.000000,4.000000,100.000000,,,,,,,,,,,,,,,,,,,,,,,,,,,,,,,,,,,,,,,,,,,,,,,
1665770337.225062,1665770337.225057,82.000000,0.000000,4296.794922,4279.487305,4308.974121,4309.230957,4287.692383,4289.743652,4294.871582,4296.410156,4280.384766,4262.051270,4424.487305,4430.641113,4362.307617,4401.666504,2712.000000,3.000000,55.000000,,,,0.000000,4.000000,4.000000,4.000000,4.000000,4.000000,4.000000,4.000000,4.000000,4.000000,4.000000,4.000000,4.000000,4.000000,4.000000,100.000000,,,,,,,,,,,,,,,,,,,,,,,,,,,,,,,,,,,,,,,,,,,,,,,
1665770337.232870,1665770337.232865,83.000000,0.000000,4293.846191,4279.743652,4309.358887,4307.820313,4290.256348,4292.820313,4300.128418,4293.205078,4278.589844,4263.974121,4421.153809,4431.282227,4358.846191,4400.256348,2359.000000,3.000000,55.000000,,,,0.000000,4.000000,4.000000,4.000000,4.000000,4.000000,4.000000,4.000000,4.000000,4.000000,4.000000,4.000000,4.000000,4.000000,4.000000,100.000000,,,,,,,,,,,,,,,,,,,,,,,,,,,,,,,,,,,,,,,,,,,,,,,
1665770337.240678,1665770337.240773,84.000000,0.000000,4297.820313,4290.769043,4311.538574,4315.384766,4296.666504,4294.230957,4307.436035,4295.384766,4281.922852,4265.769043,4428.974121,4438.846191,4352.179688,4406.794922,3027.000000,3.000000,55.000000,,,,0.000000,4.000000,4.000000,4.000000,4.000000,4.000000,4.000000,4.000000,4.000000,4.000000,4.000000,4.000000,4.000000,4.000000,4.000000,100.000000,,,,,,,,,,,,,,,,,,,,,,,,,,,,,,,,,,,,,,,,,,,,,,,
1665770337.248487,1665770337.248582,85.000000,0.000000,4299.615234,4297.692383,4313.974121,4319.487305,4297.948730,4290.128418,4305.000000,4301.282227,4286.666504,4266.153809,4431.153809,4442.436035,4349.615234,4407.820313,1497.000000,3.000000,55.000000,,,,0.000000,4.000000,4.000000,4.000000,4.000000,4.000000,4.000000,4.000000,4.000000,4.000000,4.000000,4.000000,4.000000,4.000000,4.000000,100.000000,,,,,,,,,,,,,,,,,,,,,,,,,,,,,,,,,,,,,,,,,,,,,,,
1665770337.256295,1665770337.256490,86.000000,0.000000,4296.025879,4296.922852,4311.922852,4312.051270,4295.128418,4283.077148,4295.512695,4299.102539,4287.179688,4266.538574,4421.666504,4434.102539,4351.666504,4400.512695,2712.000000,3.000000,55.000000,,,,0.000000,4.000000,4.000000,4.000000,4.000000,4.000000,4.000000,4.000000,4.000000,4.000000,4.000000,4.000000,4.000000,4.000000,4.000000,100.000000,,,,,,,,,,,,,,,,,,,,,,,,,,,,,,,,,,,,,,,,,,,,,,,
1665770337.264103,1665770337.264299,87.000000,0.000000,4293.461426,4295.512695,4309.358887,4308.333496,4292.948730,4279.743652,4292.307617,4293.333496,4280.641113,4261.153809,4422.051270,4429.743652,4349.871582,4397.436035,2359.000000,3.000000,55.000000,,,,0.000000,4.000000,4.000000,4.000000,4.000000,4.000000,4.000000,4.000000,4.000000,4.000000,4.000000,4.000000,4.000000,4.000000,4.000000,100.000000,,,,,,,,,,,,,,,,,,,,,,,,,,,,,,,,,,,,,,,,,,,,,,,
1665770337.271912,1665770337.272207,88.000000,0.000000,4294.743652,4296.153809,4310.384766,4307.179688,4292.436035,4280.128418,4296.922852,4294.615234,4279.871582,4258.461426,4427.692383,4434.102539,4347.820313,4401.538574,3027.000000,3.000000,55.000000,,,,0.000000,4.000000,4.000000,4.000000,4.000000,4.000000,4.000000,4.000000,4.000000,4.000000,4.000000,4.000000,4.000000,4.000000,4.000000,100.000000,,,,,,,,,,,,,,,,,,,,,,,,,,,,,,,,,,,,,,,,,,,,,,,
1665770337.279720,1665770337.280016,89.000000,0.000000,4290.769043,4294.487305,4307.307617,4300.897461,4293.461426,4283.974121,4302.179688,4297.563965,4289.871582,4264.743652,4421.794922,4433.846191,4351.794922,4401.410156,1497.000000,3.000000,55.000000,,,,0.000000,4.000000,4.000000,4.000000,4.000000,4.000000,4.000000,4.000000,4.000000,4.000000,4.000000,4.000000,4.000000,4.000000,4.000000,100.000000,,,,,,,,,,,,,,,,,,,,,,,,,,,,,,,,,,,,,,,,,,,,,,,
1665770337.287528,1665770337.287924,90.000000,0.000000,4284.102539,4294.102539,4302.948730,4300.256348,4294.871582,4291.794922,4302.820313,4296.410156,4295.641113,4269.358887,4420.641113,4429.615234,4357.436035,4398.589844,2712.000000,3.000000,55.000000,,,,0.000000,4.000000,4.000000,4.000000,4.000000,4.000000,4.000000,4.000000,4.000000,4.000000,4.000000,4.000000,4.000000,4.000000,4.000000,100.000000,,,,,,,,,,,,,,,,,,,,,,,,,,,,,,,,,,,,,,,,,,,,,,,
1665770337.295337,1665770337.295732,91.000000,0.000000,4284.615234,4293.333496,4303.205078,4303.846191,4294.102539,4288.461426,4297.563965,4293.333496,4293.333496,4264.230957,4424.871582,4423.974121,4356.538574,4397.051270,2359.000000,3.000000,55.000000,,,,0.000000,4.000000,4.000000,4.000000,4.000000,4.000000,4.000000,4.000000,4.000000,4.000000,4.000000,4.000000,4.000000,4.000000,4.000000,100.000000,,,,,,,,,,,,,,,,,,,,,,,,,,,,,,,,,,,,,,,,,,,,,,,
1665770337.303145,1665770337.303441,92.000000,0.000000,4291.794922,4292.436035,4307.436035,4302.179688,4293.461426,4279.230957,4299.230957,4293.461426,4292.051270,4264.487305,4424.358887,4419.102539,4356.538574,4397.820313,3027.000000,3.000000,55.000000,,,,0.000000,4.000000,4.000000,4.000000,4.000000,4.000000,4.000000,4.000000,4.000000,4.000000,4.000000,4.000000,4.000000,4.000000,4.000000,100.000000,,,,,,,,,,,,,,,,,,,,,,,,,,,,,,,,,,,,,,,,,,,,,,,
1665770337.310954,1665770337.311249,93.000000,0.000000,4297.179688,4296.922852,4308.717773,4302.179688,4293.077148,4282.820313,4306.025879,4296.538574,4295.000000,4274.102539,4426.794922,4423.846191,4358.589844,4403.077148,1497.000000,3.000000,55.000000,,,,0.000000,4.000000,4.000000,4.000000,4.000000,4.000000,4.000000,4.000000,4.000000,4.000000,4.000000,4.000000,4.000000,4.000000,4.000000,100.000000,1.000000,75.000000,4.000000,4.000000,4.000000,4.000000,4.000000,4.000000,4.000000,4.000000,4.000000,4.000000,1.000000,4.000000,4.000000,4.000000,1.000000,0.536334,-0.292047,-1.407845,0.694827,1.000000,0.080213,3.536447,2.777723,12.236532,0.377922,1.000000,0.263463,30.226282,-87.517990,312.441284,1.000000,0.204275,0.089951,0.081327,0.264734,1.000000,0.277667,2.554533,-4.525241,18.658886,1.000000,0.450015,0.450015,0.000000,1.000000
1665770337.318762,1665770337.318958,94.000000,0.000000,4296.410156,4297.436035,4303.717773,4304.230957,4292.948730,4290.512695,4301.538574,4296.282227,4295.000000,4273.333496,4429.615234,4429.487305,4358.333496,4403.589844,2712.000000,3.000000,55.000000,,,,0.000000,4.000000,4.000000,4.000000,4.000000,4.000000,4.000000,4.000000,4.000000,4.000000,4.000000,4.000000,4.000000,4.000000,4.000000,100.000000,,,,,,,,,,,,,,,,,,,,,,,,,,,,,,,,,,,,,,,,,,,,,,,
1665770337.326570,1665770337.326866,95.000000,0.000000,4293.717773,4292.692383,4300.769043,4307.436035,4294.615234,4291.666504,4294.487305,4294.487305,4294.102539,4270.128418,4426.025879,4427.307617,4357.179688,4398.717773,2359.000000,3.000000,55.000000,,,,0.000000,4.000000,4.000000,4.000000,4.000000,4.000000,4.000000,4.000000,4.000000,4.000000,4.000000,4.000000,4.000000,4.000000,4.000000,100.000000,,,,,,,,,,,,,,,,,,,,,,,,,,,,,,,,,,,,,,,,,,,,,,,
1665770337.334379,1665770337.334675,96.000000,0.000000,4294.102539,4292.051270,4306.025879,4310.384766,4297.051270,4292.436035,4298.077148,4296.025879,4295.512695,4277.051270,4426.666504,4426.153809,4358.589844,4396.538574,3027.000000,3.000000,55.000000,,,,0.000000,4.000000,4.000000,4.000000,4.000000,4.000000,4.000000,4.000000,4.000000,4.000000,4.000000,4.000000,4.000000,4.000000,4.000000,100.000000,,,,,,,,,,,,,,,,,,,,,,,,,,,,,,,,,,,,,,,,,,,,,,,
1665770337.342187,1665770337.342483,97.000000,0.000000,4296.794922,4294.487305,4308.333496,4308.717773,4299.871582,4293.974121,4297.692383,4297.051270,4295.128418,4280.769043,4428.974121,4430.000000,4362.051270,4398.461426,1497.000000,3.000000,55.000000,,,,0.000000,4.000000,4.000000,4.000000,4.000000,4.000000,4.000000,4.000000,4.000000,4.000000,4.000000,4.000000,4.000000,4.000000,4.000000,100.000000,,,,,,,,,,,,,,,,,,,,,,,,,,,,,,,,,,,,,,,,,,,,,,,
1665770337.349995,1665770337.350192,98.000000,0.000000,4302.692383,4297.820313,4308.717773,4311.794922,4304.358887,4293.205078,4294.230957,4296.538574,4293.717773,4277.436035,4431.794922,4433.717773,4365.897461,4403.461426,2712.000000,3.000000,55.000000,,,,0.000000,4.000000,4.000000,4.000000,4.000000,4.000000,4.000000,4.000000,4.000000,4.000000,4.000000,4.000000,4.000000,4.000000,4.000000,100.000000,,,,,,,,,,,,,,,,,,,,,,,,,,,,,,,,,,,,,,,,,,,,,,,
1665770337.357804,1665770337.358100,99.000000,0.000000,4311.282227,4303.717773,4315.512695,4320.641113,4307.563965,4292.051270,4299.358887,4296.282227,4289.102539,4277.436035,4440.128418,4437.563965,4367.436035,4410.641113,2359.000000,3.000000,55.000000,,,,0.000000,4.000000,4.000000,4.000000,4.000000,4.000000,4.000000,4.000000,4.000000,4.000000,4.000000,4.000000,4.000000,4.000000,4.000000,100.000000,,,,,,,,,,,,,,,,,,,,,,,,,,,,,,,,,,,,,,,,,,,,,,,
1665770337.365612,1665770337.365908,100.000000,0.000000,4313.077148,4308.846191,4322.179688,4322.948730,4306.922852,4290.897461,4302.307617,4295.897461,4290.384766,4278.974121,4444.487305,4442.948730,4365.128418,4414.487305,3027.000000,3.000000,55.000000,,,,0.000000,4.000000,4.000000,4.000000,4.000000,4.000000,4.000000,4.000000,4.000000,4.000000,4.000000,4.000000,4.000000,4.000000,4.000000,100.000000,,,,,,,,,,,,,,,,,,,,,,,,,,,,,,,,,,,,,,,,,,,,,,,
1665770337.373421,1665770337.373817,101.000000,0.000000,4308.589844,4307.563965,4322.179688,4319.871582,4305.769043,4289.230957,4296.922852,4297.179688,4294.487305,4277.179688,4439.743652,4444.615234,4361.282227,4412.436035,1497.000000,3.000000,55.000000,,,,0.000000,4.000000,4.000000,4.000000,4.000000,4.000000,4.000000,4.000000,4.000000,4.000000,4.000000,4.000000,4.000000,4.000000,4.000000,100.000000,,,,,,,,,,,,,,,,,,,,,,,,,,,,,,,,,,,,,,,,,,,,,,,
1665770337.381229,1665770337.381625,102.000000,0.000000,4304.871582,4308.077148,4319.358887,4319.230957,4307.563965,4290.384766,4296.153809,4299.102539,4289.743652,4275.512695,4436.538574,4442.179688,4360.769043,4408.846191,2712.000000,3.000000,55.000000,,,,0.000000,4.000000,4.000000,4.000000,4.000000,4.000000,4.000000,4.000000,4.000000,4.000000,4.000000,4.000000,4.000000,4.000000,4.000000,100.000000,,,,,,,,,,,,,,,,,,,,,,,,,,,,,,,,,,,,,,,,,,,,,,,
1665770337.389037,1665770337.389534,103.000000,0.000000,4305.384766,4315.384766,4321.666504,4323.333496,4314.358887,4294.871582,4308.333496,4298.717773,4288.846191,4276.538574,4440.256348,4441.666504,4364.102539,4409.230957,2359.000000,3.000000,55.000000,,,,0.000000,4.000000,4.000000,4.000000,4.000000,4.000000,4.000000,4.000000,4.000000,4.000000,4.000000,4.000000,4.000000,4.000000,4.000000,100.000000,,,,,,,,,,,,,,,,,,,,,,,,,,,,,,,,,,,,,,,,,,,,,,,
1665770337.396846,1665770337.397342,104.000000,0.000000,4311.282227,4316.410156,4328.589844,4328.974121,4317.307617,4298.205078,4312.307617,4298.077148,4295.769043,4273.717773,4441.922852,4442.436035,4361.153809,4413.077148,3027.000000,3.000000,55.000000,,,,0.000000,4.000000,4.000000,4.000000,4.000000,4.000000,4.000000,4.000000,4.000000,4.000000,4.000000,4.000000,4.000000,4.000000,4.000000,100.000000,,,,,,,,,,,,,,,,,,,,,,,,,,,,,,,,,,,,,,,,,,,,,,,
1665770337.404654,1665770337.405250,105.000000,0.000000,4311.410156,4310.256348,4327.563965,4327.436035,4312.692383,4296.153809,4300.897461,4297.307617,4294.358887,4264.487305,4440.641113,4440.384766,4353.205078,4413.461426,1497.000000,3.000000,55.000000,,,,0.000000,4.000000,4.000000,4.000000,4.000000,4.000000,4.000000,4.000000,4.000000,4.000000,4.000000,4.000000,4.000000,4.000000,4.000000,100.000000,,,,,,,,,,,,,,,,,,,,,,,,,,,,,,,,,,,,,,,,,,,,,,,
1665770337.412463,1665770337.413059,106.000000,0.000000,4304.743652,4311.025879,4319.487305,4317.692383,4310.897461,4293.846191,4297.820313,4296.794922,4290.769043,4265.641113,4442.436035,4437.307617,4359.743652,4411.153809,2712.000000,3.000000,55.000000,,,,0.000000,4.000000,4.000000,4.000000,4.000000,4.000000,4.000000,4.000000,4.000000,4.000000,4.000000,4.000000,4.000000,4.000000,4.000000,100.000000,,,,,,,,,,,,,,,,,,,,,,,,,,,,,,,,,,,,,,,,,,,,,,,
1665770337.420271,1665770337.420967,107.000000,0.000000,4305.000000,4315.641113,4317.948730,4316.282227,4312.948730,4295.769043,4307.179688,4296.538574,4297.563965,4277.436035,4442.051270,4435.384766,4370.128418,4413.717773,2359.000000,3.000000,55.000000,,,,0.000000,4.000000,4.000000,4.000000,4.000000,4.000000,4.000000,4.000000,4.000000,4.000000,4.000000,4.000000,4.000000,4.000000,4.000000,100.000000,,,,,,,,,,,,,,,,,,,,,,,,,,,,,,,,,,,,,,,,,,,,,,,
1665770337.428079,1665770337.428875,108.000000,0.000000,4308.077148,4311.282227,4317.179688,4316.025879,4308.974121,4296.153809,4306.922852,4294.743652,4301.282227,4280.000000,4436.025879,4431.666504,4366.410156,4415.256348,3027.000000,3.000000,55.000000,,,,0.000000,4.000000,4.000000,4.000000,4.000000,4.000000,4.000000,4.000000,4.000000,4.000000,4.000000,4.000000,4.000000,4.000000,4.000000,100.000000,,,,,,,,,,,,,,,,,,,,,,,,,,,,,,,,,,,,,,,,,,,,,,,
1665770337.435888,1665770337.436684,109.000000,0.000000,4305.897461,4307.820313,4311.410156,4312.948730,4306.153809,4293.333496,4296.922852,4291.794922,4297.179688,4276.922852,4431.794922,4427.307617,4361.922852,4410.128418,1497.000000,3.000000,55.000000,,,,0.000000,4.000000,4.000000,4.000000,4.000000,4.000000,4.000000,4.000000,4.000000,4.000000,4.000000,4.000000,4.000000,4.000000,4.000000,100.000000,,,,,,,,,,,,,,,,,,,,,,,,,,,,,,,,,,,,,,,,,,,,,,,
1665770337.443696,1665770337.444492,110.000000,0.000000,4306.922852,4311.153809,4311.410156,4315.000000,4308.077148,4294.102539,4295.384766,4291.153809,4295.512695,4280.128418,4437.051270,4427.820313,4366.410156,4408.077148,2712.000000,3.000000,55.000000,,,,0.000000,4.000000,4.000000,4.000000,4.000000,4.000000,4.000000,4.000000,4.000000,4.000000,4.000000,4.000000,4.000000,4.000000,4.000000,100.000000,,,,,,,,,,,,,,,,,,,,,,,,,,,,,,,,,,,,,,,,,,,,,,,
1665770337.451504,1665770337.452201,111.000000,0.000000,4311.282227,4309.743652,4313.077148,4316.794922,4303.205078,4295.000000,4298.333496,4291.410156,4296.666504,4280.641113,4441.410156,4430.641113,4366.538574,4412.820313,2359.000000,3.000000,55.000000,,,,0.000000,4.000000,4.000000,4.000000,4.000000,4.000000,4.000000,4.000000,4.000000,4.000000,4.000000,4.000000,4.000000,4.000000,4.000000,100.000000,,,,,,,,,,,,,,,,,,,,,,,,,,,,,,,,,,,,,,,,,,,,,,,
1665770337.459313,1665770337.460009,112.000000,0.000000,4309.358887,4307.051270,4310.000000,4316.153809,4301.410156,4290.641113,4298.333496,4291.410156,4294.102539,4275.256348,4439.487305,4429.615234,4361.153809,4409.487305,3027.000000,3.000000,55.000000,,,,0.000000,4.000000,4.000000,4.000000,4.000000,4.000000,4.000000,4.000000,4.000000,4.000000,4.000000,4.000000,4.000000,4.000000,4.000000,100.000000,,,,,,,,,,,,,,,,,,,,,,,,,,,,,,,,,,,,,,,,,,,,,,,
1665770337.467121,1665770337.467718,113.000000,0.000000,4308.205078,4309.743652,4311.666504,4317.820313,4309.487305,4290.000000,4297.436035,4292.692383,4287.051270,4273.974121,4432.948730,4428.333496,4358.717773,4400.512695,1497.000000,3.000000,55.000000,,,,0.000000,4.000000,4.000000,4.000000,4.000000,4.000000,4.000000,4.000000,4.000000,4.000000,4.000000,4.000000,4.000000,4.000000,4.000000,100.000000,,,,,,,,,,,,,,,,,,,,,,,,,,,,,,,,,,,,,,,,,,,,,,,
1665770337.474929,1665770337.475626,114.000000,0.000000,4308.846191,4309.487305,4311.794922,4320.897461,4312.692383,4293.205078,4297.051270,4295.256348,4287.436035,4276.794922,4431.538574,4430.897461,4357.692383,4401.922852,2712.000000,3.000000,55.000000,,,,0.000000,4.000000,4.000000,4.000000,4.000000,4.000000,4.000000,4.000000,4.000000,4.000000,4.000000,4.000000,4.000000,4.000000,4.000000,100.000000,,,,,,,,,,,,,,,,,,,,,,,,,,,,,,,,,,,,,,,,,,,,,,,
1665770337.482738,1665770337.483435,115.000000,0.000000,4301.666504,4299.487305,4301.538574,4313.077148,4308.333496,4292.436035,4296.025879,4296.025879,4293.461426,4279.871582,4440.897461,4432.179688,4358.717773,4404.230957,2359.000000,3.000000,55.000000,,,,0.000000,4.000000,4.000000,4.000000,4.000000,4.000000,4.000000,4.000000,4.000000,4.000000,4.000000,4.000000,4.000000,4.000000,4.000000,100.000000,,,,,,,,,,,,,,,,,,,,,,,,,,,,,,,,,,,,,,,,,,,,,,,
1665770337.490546,1665770337.491343,116.000000,0.000000,4291.410156,4291.282227,4294.487305,4302.179688,4308.589844,4292.307617,4293.974121,4295.641113,4295.256348,4282.692383,4441.410156,4430.000000,4360.000000,4398.077148,3027.000000,3.000000,55.000000,,,,0.000000,4.000000,4.000000,4.000000,4.000000,4.000000,4.000000,4.000000,4.000000,4.000000,4.000000,4.000000,4.000000,4.000000,4.000000,100.000000,,,,,,,,,,,,,,,,,,,,,,,,,,,,,,,,,,,,,,,,,,,,,,,
1665770337.498355,1665770337.499152,117.000000,0.000000,4286.922852,4297.179688,4295.897461,4301.922852,4310.641113,4294.358887,4300.512695,4295.641113,4293.589844,4280.128418,4429.871582,4429.871582,4354.871582,4395.384766,1497.000000,3.000000,55.000000,,,,0.000000,4.000000,4.000000,4.000000,4.000000,4.000000,4.000000,4.000000,4.000000,4.000000,4.000000,4.000000,4.000000,4.000000,4.000000,100.000000,,,,,,,,,,,,,,,,,,,,,,,,,,,,,,,,,,,,,,,,,,,,,,,
1665770337.506163,1665770337.506960,118.000000,0.000000,4290.256348,4302.948730,4299.615234,4308.974121,4307.948730,4292.692383,4308.333496,4293.846191,4287.179688,4270.128418,4425.000000,4434.358887,4350.000000,4397.820313,2712.000000,3.000000,55.000000,,,,0.000000,4.000000,4.000000,4.000000,4.000000,4.000000,4.000000,4.000000,4.000000,4.000000,4.000000,4.000000,4.000000,4.000000,4.000000,100.000000,,,,,,,,,,,,,,,,,,,,,,,,,,,,,,,,,,,,,,,,,,,,,,,
1665770337.513971,1665770337.514669,119.000000,0.000000,4296.282227,4298.205078,4303.846191,4311.410156,4306.025879,4293.077148,4305.000000,4293.461426,4279.871582,4264.358887,4432.948730,4438.205078,4348.846191,4399.615234,2359.000000,3.000000,55.000000,,,,0.000000,4.000000,4.000000,4.000000,4.000000,4.000000,4.000000,4.000000,4.000000,4.000000,4.000000,4.000000,4.000000,4.000000,4.000000,100.000000,,,,,,,,,,,,,,,,,,,,,,,,,,,,,,,,,,,,,,,,,,,,,,,
1665770337.521780,1665770337.522477,120.000000,0.000000,4292.820313,4293.717773,4303.205078,4301.922852,4304.871582,4296.410156,4301.538574,4292.820313,4280.384766,4266.538574,4434.615234,4434.102539,4345.897461,4400.512695,3027.000000,3.000000,55.000000,,,,0.000000,4.000000,4.000000,4.000000,4.000000,4.000000,4.000000,4.000000,4.000000,4.000000,4.000000,4.000000,4.000000,4.000000,4.000000,100.000000,,,,,,,,,,,,,,,,,,,,,,,,,,,,,,,,,,,,,,,,,,,,,,,
1665770337.529588,1665770337.530186,121.000000,0.000000,4281.666504,4294.743652,4295.769043,4293.846191,4303.974121,4294.743652,4306.410156,4289.615234,4281.666504,4264.487305,4422.948730,4425.641113,4341.666504,4395.000000,1497.000000,3.000000,55.000000,,,,0.000000,4.000000,4.000000,4.000000,4.000000,4.000000,4.000000,4.000000,4.000000,4.000000,4.000000,4.000000,4.000000,4.000000,4.000000,100.000000,,,,,,,,,,,,,,,,,,,,,,,,,,,,,,,,,,,,,,,,,,,,,,,
1665770337.537397,1665770337.537994,122.000000,0.000000,4279.102539,4295.641113,4293.077148,4294.871582,4302.436035,4291.794922,4305.641113,4290.128418,4280.641113,4261.025879,4417.436035,4423.077148,4339.615234,4390.641113,2712.000000,3.000000,55.000000,,,,0.000000,4.000000,4.000000,4.000000,4.000000,4.000000,4.000000,4.000000,4.000000,4.000000,4.000000,4.000000,4.000000,4.000000,4.000000,100.000000,,,,,,,,,,,,,,,,,,,,,,,,,,,,,,,,,,,,,,,,,,,,,,,
1665770337.545205,1665770337.545703,123.000000,0.000000,4283.461426,4295.512695,4295.769043,4296.282227,4297.820313,4292.563965,4297.051270,4292.051270,4288.077148,4263.589844,4416.538574,4420.128418,4339.230957,4394.743652,2359.000000,3.000000,55.000000,,,,0.000000,4.000000,4.000000,4.000000,4.000000,4.000000,4.000000,4.000000,4.000000,4.000000,4.000000,4.000000,4.000000,4.000000,4.000000,100.000000,,,,,,,,,,,,,,,,,,,,,,,,,,,,,,,,,,,,,,,,,,,,,,,
1665770337.553013,1665770337.553511,124.000000,0.000000,4284.743652,4293.974121,4297.179688,4297.051270,4296.410156,4295.128418,4297.307617,4292.307617,4296.666504,4265.641113,4417.179688,4417.563965,4340.128418,4398.333496,3027.000000,3.000000,55.000000,,,,0.000000,4.000000,4.000000,4.000000,4.000000,4.000000,4.000000,4.000000,4.000000,4.000000,4.000000,4.000000,4.000000,4.000000,4.000000,100.000000,,,,,,,,,,,,,,,,,,,,,,,,,,,,,,,,,,,,,,,,,,,,,,,
1665770337.560822,1665770337.561220,125.000000,0.000000,4291.153809,4296.538574,4298.589844,4301.666504,4301.025879,4296.922852,4303.717773,4292.820313,4295.512695,4267.179688,4423.461426,4420.897461,4343.846191,4396.666504,1497.000000,3.000000,55.000000,,,,0.000000,4.000000,4.000000,4.000000,4.000000,4.000000,4.000000,4.000000,4.000000,4.000000,4.000000,4.000000,4.000000,4.000000,4.000000,100.000000,,,,,,,,,,,,,,,,,,,,,,,,,,,,,,,,,,,,,,,,,,,,,,,
1665770337.568630,1665770337.569028,126.000000,0.000000,4296.025879,4300.000000,4296.153809,4305.000000,4303.333496,4297.179688,4302.436035,4293.333496,4291.538574,4273.461426,4428.846191,4421.410156,4346.794922,4395.512695,2712.000000,3.000000,55.000000,,,,0.000000,4.000000,4.000000,4.000000,4.000000,4.000000,4.000000,4.000000,4.000000,4.000000,4.000000,4.000000,4.000000,4.000000,4.000000,100.000000,,,,,,,,,,,,,,,,,,,,,,,,,,,,,,,,,,,,,,,,,,,,,,,
1665770337.576438,1665770337.576736,127.000000,0.000000,4288.333496,4296.538574,4294.871582,4304.743652,4305.128418,4297.948730,4296.922852,4294.615234,4293.846191,4281.153809,4428.205078,4419.615234,4348.461426,4395.897461,55.000000,3.000000,55.000000,,,,0.000000,4.000000,4.000000,4.000000,4.000000,4.000000,4.000000,4.000000,4.000000,4.000000,4.000000,4.000000,4.000000,4.000000,4.000000,100.000000,,,,,,,,,,,,,,,,,,,,,,,,,,,,,,,,,,,,,,,,,,,,,,,
1665770337.584247,1665770337.584645,0.000000,0.000000,4281.410156,4296.538574,4296.922852,4307.692383,4308.461426,4298.077148,4296.025879,4294.743652,4297.179688,4281.282227,4424.743652,4421.666504,4344.615234,4393.461426,2431.000000,3.000000,55.000000,,,,0.000000,4.000000,4.000000,4.000000,4.000000,4.000000,4.000000,4.000000,4.000000,4.000000,4.000000,4.000000,4.000000,4.000000,4.000000,100.000000,,,,,,,,,,,,,,,,,,,,,,,,,,,,,,,,,,,,,,,,,,,,,,,
1665770337.592055,1665770337.592453,1.000000,0.000000,4281.153809,4296.666504,4289.871582,4304.487305,4303.461426,4294.102539,4295.512695,4291.025879,4289.102539,4272.436035,4420.384766,4422.948730,4332.179688,4384.487305,2174.000000,3.000000,55.000000,,,,0.000000,4.000000,4.000000,4.000000,4.000000,4.000000,4.000000,4.000000,4.000000,4.000000,4.000000,4.000000,4.000000,4.000000,4.000000,100.000000,,,,,,,,,,,,,,,,,,,,,,,,,,,,,,,,,,,,,,,,,,,,,,,
1665770337.599864,1665770337.600362,2.000000,0.000000,4275.000000,4284.102539,4278.974121,4295.000000,4295.256348,4290.769043,4290.128418,4288.461426,4277.051270,4262.563965,4414.230957,4423.461426,4321.666504,4378.974121,2363.000000,3.000000,55.000000,,,,0.000000,4.000000,4.000000,4.000000,4.000000,4.000000,4.000000,4.000000,4.000000,4.000000,4.000000,4.000000,4.000000,4.000000,4.000000,100.000000,,,,,,,,,,,,,,,,,,,,,,,,,,,,,,,,,,,,,,,,,,,,,,,
1665770337.607672,1665770337.608170,3.000000,0.000000,4275.256348,4282.820313,4287.563965,4297.436035,4298.717773,4293.589844,4292.820313,4293.717773,4282.436035,4264.102539,4421.922852,4430.641113,4333.077148,4387.820313,2356.000000,3.000000,55.000000,,,,0.000000,4.000000,4.000000,4.000000,4.000000,4.000000,4.000000,4.000000,4.000000,4.000000,4.000000,4.000000,4.000000,4.000000,4.000000,100.000000,,,,,,,,,,,,,,,,,,,,,,,,,,,,,,,,,,,,,,,,,,,,,,,
1665770337.615480,1665770337.616078,4.000000,0.000000,4291.794922,4299.230957,4305.897461,4307.820313,4308.077148,4296.666504,4303.846191,4300.384766,4296.922852,4276.538574,4439.358887,4436.153809,4355.256348,4402.051270,2351.000000,3.000000,55.000000,,,,0.000000,4.000000,4.000000,4.000000,4.000000,4.000000,4.000000,4.000000,4.000000,4.000000,4.000000,4.000000,4.000000,4.000000,4.000000,100.000000,,,,,,,,,,,,,,,,,,,,,,,,,,,,,,,,,,,,,,,,,,,,,,,
1665770337.623289,1665770337.623887,5.000000,0.000000,4300.512695,4301.922852,4311.282227,4311.282227,4310.897461,4295.769043,4303.461426,4302.820313,4299.102539,4282.307617,4446.666504,4440.641113,4354.743652,4410.256348,2381.000000,3.000000,55.000000,,,,0.000000,4.000000,4.000000,4.000000,4.000000,4.000000,4.000000,4.000000,4.000000,4.000000,4.000000,4.000000,4.000000,4.000000,4.000000,100.000000,,,,,,,,,,,,,,,,,,,,,,,,,,,,,,,,,,,,,,,,,,,,,,,
1665770337.631097,1665770337.631795,6.000000,0.000000,4295.128418,4298.461426,4310.384766,4310.384766,4310.000000,4295.256348,4296.538574,4305.000000,4296.410156,4279.487305,4453.077148,4445.769043,4351.538574,4413.461426,2227.000000,3.000000,55.000000,,,,0.000000,4.000000,4.000000,4.000000,4.000000,4.000000,4.000000,4.000000,4.000000,4.000000,4.000000,4.000000,4.000000,4.000000,4.000000,100.000000,,,,,,,,,,,,,,,,,,,,,,,,,,,,,,,,,,,,,,,,,,,,,,,
1665770337.638905,1665770337.639604,7.000000,0.000000,4294.358887,4307.563965,4312.307617,4310.384766,4309.487305,4293.974121,4301.922852,4308.974121,4302.051270,4285.384766,4460.128418,4444.358887,4364.230957,4414.230957,2374.000000,3.000000,55.000000,,,,0.000000,4.000000,4.000000,4.000000,4.000000,4.000000,4.000000,4.000000,4.000000,4.000000,4.000000,4.000000,4.000000,4.000000,4.000000,100.000000,,,,,,,,,,,,,,,,,,,,,,,,,,,,,,,,,,,,,,,,,,,,,,,
1665770337.646714,1665770337.647312,8.000000,0.000000,4295.769043,4307.436035,4312.563965,4308.974121,4309.743652,4295.641113,4311.922852,4311.538574,4308.589844,4291.922852,4454.615234,4440.897461,4365.384766,4411.794922,2297.000000,3.000000,55.000000,,,,0.000000,4.000000,4.000000,4.000000,4.000000,4.000000,4.000000,4.000000,4.000000,4.000000,4.000000,4.000000,4.000000,4.000000,4.000000,100.000000,,,,,,,,,,,,,,,,,,,,,,,,,,,,,,,,,,,,,,,,,,,,,,,
1665770337.654522,1665770337.655121,9.000000,0.000000,4293.974121,4302.820313,4312.563965,4309.743652,4310.000000,4305.512695,4313.974121,4313.461426,4308.974121,4286.282227,4444.230957,4444.487305,4356.794922,4411.922852,2356.000000,3.000000,55.000000,,,,0.000000,4.000000,4.000000,4.000000,4.000000,4.000000,4.000000,4.000000,4.000000,4.000000,4.000000,4.000000,4.000000,4.000000,4.000000,100.000000,,,,,,,,,,,,,,,,,,,,,,,,,,,,,,,,,,,,,,,,,,,,,,,
1665770337.662331,1665770337.662829,10.000000,0.000000,4295.256348,4306.666504,4312.948730,4312.563965,4309.871582,4308.333496,4312.563965,4313.974121,4305.000000,4279.871582,4444.102539,4444.230957,4356.794922,4416.794922,2697.000000,3.000000,55.000000,,,,0.000000,4.000000,4.000000,4.000000,4.000000,4.000000,4.000000,4.000000,4.000000,4.000000,4.000000,4.000000,4.000000,4.000000,4.000000,100.000000,,,,,,,,,,,,,,,,,,,,,,,,,,,,,,,,,,,,,,,,,,,,,,,
1665770337.670139,1665770337.670638,11.000000,0.000000,4295.641113,4304.871582,4308.717773,4309.615234,4306.025879,4300.384766,4309.358887,4303.333496,4298.205078,4280.641113,4444.871582,4431.538574,4352.948730,4414.358887,2369.000000,3.000000,55.000000,,,,0.000000,4.000000,4.000000,4.000000,4.000000,4.000000,4.000000,4.000000,4.000000,4.000000,4.000000,4.000000,4.000000,4.000000,4.000000,100.000000,,,,,,,,,,,,,,,,,,,,,,,,,,,,,,,,,,,,,,,,,,,,,,,
1665770337.677947,1665770337.678346,12.000000,0.000000,4295.000000,4300.384766,4307.051270,4303.974121,4302.948730,4299.615234,4305.000000,4293.205078,4297.436035,4278.461426,4441.538574,4425.384766,4347.820313,4409.102539,3027.000000,3.000000,55.000000,,,,0.000000,4.000000,4.000000,4.000000,4.000000,4.000000,4.000000,4.000000,4.000000,4.000000,4.000000,4.000000,4.000000,4.000000,4.000000,100.000000,,,,,,,,,,,,,,,,,,,,,,,,,,,,,,,,,,,,,,,,,,,,,,,
1665770337.685756,1665770337.686155,13.000000,0.000000,4302.307617,4307.692383,4317.307617,4308.717773,4312.179688,4309.487305,4311.410156,4300.897461,4303.974121,4280.384766,4448.333496,4435.384766,4359.871582,4416.410156,1508.000000,3.000000,55.000000,,,,0.000000,4.000000,4.000000,4.000000,4.000000,4.000000,4.000000,4.000000,4.000000,4.000000,4.000000,4.000000,4.000000,4.000000,4.000000,100.000000,,,,,,,,,,,,,,,,,,,,,,,,,,,,,,,,,,,,,,,,,,,,,,,
1665770337.693564,1665770337.693863,14.000000,0.000000,4313.333496,4316.410156,4327.948730,4318.717773,4324.230957,4313.333496,4322.563965,4312.179688,4311.922852,4293.333496,4459.487305,4444.230957,4369.615234,4426.794922,2697.000000,3.000000,55.000000,,,,0.000000,4.000000,4.000000,4.000000,4.000000,4.000000,4.000000,4.000000,4.000000,4.000000,4.000000,4.000000,4.000000,4.000000,4.000000,100.000000,,,,,,,,,,,,,,,,,,,,,,,,,,,,,,,,,,,,,,,,,,,,,,,
1665770337.701373,1665770337.701672,15.000000,0.000000,4316.153809,4313.846191,4330.384766,4318.846191,4321.153809,4310.641113,4318.461426,4312.563965,4312.563965,4298.461426,4465.384766,4443.717773,4368.205078,4423.077148,2369.000000,3.000000,55.000000,,,,0.000000,4.000000,4.000000,4.000000,4.000000,4.000000,4.000000,4.000000,4.000000,4.000000,4.000000,4.000000,4.000000,4.000000,4.000000,100.000000,,,,,,,,,,,,,,,,,,,,,,,,,,,,,,,,,,,,,,,,,,,,,,,
1665770337.709181,1665770337.709380,16.000000,0.000000,4306.025879,4306.410156,4323.077148,4311.025879,4313.589844,4307.948730,4307.948730,4304.615234,4302.436035,4289.487305,4459.615234,4441.922852,4363.205078,4414.487305,0.000000,3.000000,55.000000,,,,0.000000,4.000000,4.000000,4.000000,4.000000,4.000000,4.000000,4.000000,4.000000,4.000000,4.000000,4.000000,4.000000,4.000000,4.000000,100.000000,,,,,,,,,,,,,,,,,,,,,,,,,,,,,,,,,,,,,,,,,,,,,,,
1665770337.716989,1665770337.717189,17.000000,0.000000,4297.051270,4307.563965,4313.846191,4310.256348,4316.666504,4307.179688,4305.128418,4297.563965,4298.974121,4285.897461,4448.846191,4440.256348,4353.333496,4411.666504,0.000000,3.000000,55.000000,,,,0.000000,4.000000,4.000000,4.000000,4.000000,4.000000,4.000000,4.000000,4.000000,4.000000,4.000000,4.000000,4.000000,4.000000,4.000000,100.000000,,,,,,,,,,,,,,,,,,,,,,,,,,,,,,,,,,,,,,,,,,,,,,,
1665770337.724798,1665770337.724897,18.000000,0.000000,4298.461426,4314.230957,4310.897461,4318.717773,4322.948730,4309.102539,4303.333496,4300.384766,4303.846191,4289.743652,4446.794922,4438.717773,4348.461426,4410.128418,0.000000,3.000000,55.000000,,,,0.000000,4.000000,4.000000,4.000000,4.000000,4.000000,4.000000,4.000000,4.000000,4.000000,4.000000,4.000000,4.000000,4.000000,4.000000,100.000000,,,,,,,,,,,,,,,,,,,,,,,,,,,,,,,,,,,,,,,,,,,,,,,
1665770337.732606,1665770337.732706,19.000000,0.000000,4301.153809,4316.025879,4315.384766,4324.230957,4322.179688,4308.717773,4304.358887,4307.692383,4301.410156,4285.769043,4448.077148,4440.512695,4352.051270,4405.256348,0.000000,3.000000,55.000000,,,,0.000000,4.000000,4.000000,4.000000,4.000000,4.000000,4.000000,4.000000,4.000000,4.000000,4.000000,4.000000,4.000000,4.000000,4.000000,100.000000,,,,,,,,,,,,,,,,,,,,,,,,,,,,,,,,,,,,,,,,,,,,,,,
1665770337.740414,1665770337.740414,20.000000,0.000000,4296.794922,4309.615234,4315.128418,4318.205078,4315.128418,4302.692383,4310.512695,4306.025879,4293.205078,4277.692383,4443.461426,4443.717773,4349.871582,4398.205078,0.000000,3.000000,55.000000,,,,0.000000,4.000000,4.000000,4.000000,4.000000,4.000000,4.000000,4.000000,4.000000,4.000000,4.000000,4.000000,4.000000,4.000000,4.000000,100.000000,,,,,,,,,,,,,,,,,,,,,,,,,,,,,,,,,,,,,,,,,,,,,,,
1665770337.748223,1665770337.748223,21.000000,0.000000,4294.102539,4303.461426,4310.769043,4312.436035,4313.974121,4302.563965,4311.025879,4303.589844,4292.948730,4279.487305,4445.256348,4442.820313,4345.256348,4399.871582,0.000000,3.000000,55.000000,,,,0.000000,4.000000,4.000000,4.000000,4.000000,4.000000,4.000000,4.000000,4.000000,4.000000,4.000000,4.000000,4.000000,4.000000,4.000000,100.000000,,,,,,,,,,,,,,,,,,,,,,,,,,,,,,,,,,,,,,,,,,,,,,,
1665770337.756031,1665770337.755931,22.000000,0.000000,4298.717773,4306.282227,4314.615234,4315.128418,4318.589844,4308.205078,4307.820313,4310.384766,4296.666504,4283.717773,4457.692383,4443.333496,4354.871582,4412.051270,0.000000,3.000000,55.000000,,,,0.000000,4.000000,4.000000,4.000000,4.000000,4.000000,4.000000,4.000000,4.000000,4.000000,4.000000,4.000000,4.000000,4.000000,4.000000,100.000000,,,,,,,,,,,,,,,,,,,,,,,,,,,,,,,,,,,,,,,,,,,,,,,
1665770337.763839,1665770337.763840,23.000000,0.000000,4305.897461,4314.487305,4321.538574,4318.717773,4316.410156,4303.461426,4311.922852,4312.948730,4297.307617,4282.692383,4463.333496,4447.948730,4364.487305,4419.358887,0.000000,3.000000,55.000000,,,,0.000000,4.000000,4.000000,4.000000,4.000000,4.000000,4.000000,4.000000,4.000000,4.000000,4.000000,4.000000,4.000000,4.000000,4.000000,100.000000,,,,,,,,,,,,,,,,,,,,,,,,,,,,,,,,,,,,,,,,,,,,,,,
1665770337.771648,1665770337.771648,24.000000,0.000000,4311.282227,4317.051270,4321.922852,4319.487305,4310.256348,4292.948730,4309.871582,4303.205078,4296.794922,4281.153809,4459.230957,4447.307617,4360.384766,4420.769043,0.000000,3.000000,55.000000,,,,0.000000,4.000000,4.000000,4.000000,4.000000,4.000000,4.000000,4.000000,4.000000,4.000000,4.000000,4.000000,4.000000,4.000000,4.000000,100.000000,,,,,,,,,,,,,,,,,,,,,,,,,,,,,,,,,,,,,,,,,,,,,,,
1665770337.779456,1665770337.779556,25.000000,0.000000,4307.051270,4312.436035,4319.487305,4317.692383,4306.410156,4292.051270,4299.615234,4297.307617,4293.333496,4281.025879,4458.846191,4442.051270,4353.717773,4421.410156,0.000000,3.000000,55.000000,,,,0.000000,4.000000,4.000000,4.000000,4.000000,4.000000,4.000000,4.000000,4.000000,4.000000,4.000000,4.000000,4.000000,4.000000,4.000000,100.000000,,,,,,,,,,,,,,,,,,,,,,,,,,,,,,,,,,,,,,,,,,,,,,,
1665770337.787264,1665770337.787365,26.000000,0.000000,4300.256348,4305.512695,4322.051270,4312.563965,4300.641113,4295.256348,4302.051270,4302.179688,4293.717773,4279.615234,4457.948730,4441.538574,4351.410156,4417.692383,0.000000,3.000000,55.000000,,,,0.000000,4.000000,4.000000,4.000000,4.000000,4.000000,4.000000,4.000000,4.000000,4.000000,4.000000,4.000000,4.000000,4.000000,4.000000,100.000000,,,,,,,,,,,,,,,,,,,,,,,,,,,,,,,,,,,,,,,,,,,,,,,
1665770337.795073,1665770337.795273,27.000000,0.000000,4298.717773,4298.077148,4321.153809,4309.102539,4293.846191,4293.589844,4310.769043,4304.230957,4297.051270,4279.743652,4449.487305,4439.230957,4351.794922,4413.077148,0.000000,3.000000,55.000000,,,,0.000000,4.000000,4.000000,4.000000,4.000000,4.000000,4.000000,4.000000,4.000000,4.000000,4.000000,4.000000,4.000000,4.000000,4.000000,100.000000,,,,,,,,,,,,,,,,,,,,,,,,,,,,,,,,,,,,,,,,,,,,,,,
1665770337.802881,1665770337.803082,28.000000,0.000000,4296.794922,4296.666504,4312.692383,4311.153809,4294.102539,4293.846191,4313.846191,4303.077148,4297.820313,4278.077148,4442.051270,4432.692383,4350.256348,4411.410156,0.000000,3.000000,55.000000,,,,0.000000,4.000000,4.000000,4.000000,4.000000,4.000000,4.000000,4.000000,4.000000,4.000000,4.000000,4.000000,4.000000,4.000000,4.000000,100.000000,,,,,,,,,,,,,,,,,,,,,,,,,,,,,,,,,,,,,,,,,,,,,,,
1665770337.810690,1665770337.810990,29.000000,0.000000,4293.461426,4297.948730,4307.307617,4308.974121,4294.871582,4296.538574,4307.563965,4302.307617,4295.897461,4270.128418,4444.358887,4430.641113,4343.333496,4405.000000,0.000000,3.000000,55.000000,,,,0.000000,4.000000,4.000000,4.000000,4.000000,4.000000,4.000000,4.000000,4.000000,4.000000,4.000000,4.000000,4.000000,4.000000,4.000000,100.000000,1.000000,100.000000,4.000000,4.000000,4.000000,4.000000,4.000000,4.000000,4.000000,4.000000,4.000000,4.000000,4.000000,4.000000,4.000000,4.000000,1.000000,0.543216,-0.156689,-1.407705,0.694696,1.000000,0.060292,3.348017,2.777723,12.236532,0.369848,1.000000,0.262866,29.959522,-87.532852,312.407654,1.000000,0.205946,0.104769,0.081330,0.264711,1.000000,0.277076,2.581013,-4.528095,18.658371,1.000000,0.443119,0.443119,0.000000,1.000000
1665770337.818498,1665770337.818798,30.000000,0.000000,4294.487305,4293.333496,4309.743652,4304.743652,4292.692383,4297.179688,4300.769043,4299.358887,4295.897461,4265.641113,4447.948730,4432.692383,4340.641113,4398.461426,0.000000,3.000000,55.000000,,,,0.000000,4.000000,4.000000,4.000000,4.000000,4.000000,4.000000,4.000000,4.000000,4.000000,4.000000,4.000000,4.000000,4.000000,4.000000,100.000000,,,,,,,,,,,,,,,,,,,,,,,,,,,,,,,,,,,,,,,,,,,,,,,
1665770337.826306,1665770337.826707,31.000000,0.000000,4292.563965,4290.897461,4310.256348,4308.205078,4293.205078,4296.410156,4303.846191,4297.692383,4294.102539,4266.538574,4439.615234,4432.051270,4342.948730,4397.307617,0.000000,3.000000,55.000000,,,,0.000000,4.000000,4.000000,4.000000,4.000000,4.000000,4.000000,4.000000,4.000000,4.000000,4.000000,4.000000,4.000000,4.000000,4.000000,100.000000,,,,,,,,,,,,,,,,,,,,,,,,,,,,,,,,,,,,,,,,,,,,,,,
1665770337.834115,1665770337.834515,32.000000,0.000000,4283.077148,4293.333496,4300.641113,4310.641113,4294.743652,4295.384766,4302.820313,4292.436035,4282.179688,4262.563965,4428.589844,4430.000000,4336.538574,4394.487305,0.000000,3.000000,55.000000,,,,0.000000,4.000000,4.000000,4.000000,4.000000,4.000000,4.000000,4.000000,4.000000,4.000000,4.000000,4.000000,4.000000,4.000000,4.000000,100.000000,,,,,,,,,,,,,,,,,,,,,,,,,,,,,,,,,,,,,,,,,,,,,,,
1665770337.841923,1665770337.842224,33.000000,0.000000,4280.897461,4290.641113,4295.000000,4308.333496,4293.846191,4296.025879,4293.589844,4283.205078,4275.256348,4259.102539,4428.077148,4427.307617,4332.820313,4389.743652,0.000000,3.000000,55.000000,,,,0.000000,4.000000,4.000000,4.000000,4.000000,4.000000,4.000000,4.000000,4.000000,4.000000,4.000000,4.000000,4.000000,4.000000,4.000000,100.000000,,,,,,,,,,,,,,,,,,,,,,,,,,,,,,,,,,,,,,,,,,,,,,,
1665770337.849732,1665770337.850032,34.000000,0.000000,4283.589844,4283.717773,4296.666504,4308.077148,4292.820313,4293.974121,4292.179688,4285.641113,4279.743652,4261.410156,4427.820313,4428.846191,4339.743652,4388.717773,0.000000,3.000000,55.000000,,,,0.000000,4.000000,4.000000,4.000000,4.000000,4.000000,4.000000,4.000000,4.000000,4.000000,4.000000,4.000000,4.000000,4.000000,4.000000,100.000000,,,,,,,,,,,,,,,,,,,,,,,,,,,,,,,,,,,,,,,,,,,,,,,
1665770337.857540,1665770337.857741,35.000000,0.000000,4281.666504,4283.974121,4298.205078,4310.384766,4293.205078,4291.025879,4296.666504,4295.641113,4281.025879,4262.563965,4426.410156,4432.179688,4338.461426,4391.922852,0.000000,3.000000,55.000000,,,,0.000000,4.000000,4.000000,4.000000,4.000000,4.000000,4.000000,4.000000,4.000000,4.000000,4.000000,4.000000,4.000000,4.000000,4.000000,100.000000,,,,,,,,,,,,,,,,,,,,,,,,,,,,,,,,,,,,,,,,,,,,,,,
1665770337.865348,1665770337.865549,36.000000,0.000000,4282.307617,4291.153809,4301.282227,4311.025879,4291.794922,4292.692383,4296.025879,4297.820313,4281.922852,4266.922852,4435.128418,4435.769043,4334.743652,4396.282227,0.000000,3.000000,55.000000,,,,0.000000,4.000000,4.000000,4.000000,4.000000,4.000000,4.000000,4.000000,4.000000,4.000000,4.000000,4.000000,4.000000,4.000000,4.000000,100.000000,,,,,,,,,,,,,,,,,,,,,,,,,,,,,,,,,,,,,,,,,,,,,,,
1665770337.873157,1665770337.873258,37.000000,0.000000,4288.589844,4292.179688,4306.794922,4312.307617,4290.000000,4296.153809,4300.128418,4297.436035,4289.871582,4273.077148,4448.974121,4441.282227,4343.846191,4399.230957,0.000000,3.000000,55.000000,,,,0.000000,4.000000,4.000000,4.000000,4.000000,4.000000,4.000000,4.000000,4.000000,4.000000,4.000000,4.000000,4.000000,4.000000,4.000000,100.000000,,,,,,,,,,,,,,,,,,,,,,,,,,,,,,,,,,,,,,,,,,,,,,,
1665770337.880965,1665770337.881066,38.000000,0.000000,4292.307617,4293.717773,4311.025879,4315.128418,4291.153809,4292.051270,4303.077148,4298.717773,4289.615234,4270.641113,4452.692383,4441.794922,4352.179688,4398.717773,0.000000,3.000000,55.000000,,,,0.000000,4.000000,4.000000,4.000000,4.000000,4.000000,4.000000,4.000000,4.000000,4.000000,4.000000,4.000000,4.000000,4.000000,4.000000,100.000000,,,,,,,,,,,,,,,,,,,,,,,,,,,,,,,,,,,,,,,,,,,,,,,
1665770337.888774,1665770337.888775,39.000000,0.000000,4290.897461,4297.563965,4309.743652,4314.871582,4289.102539,4282.436035,4297.436035,4296.282227,4281.282227,4265.256348,4448.589844,4439.615234,4349.230957,4397.563965,0.000000,3.000000,55.000000,,,,0.000000,4.000000,4.000000,4.000000,4.000000,4.000000,4.000000,4.000000,4.000000,4.000000,4.000000,4.000000,4.000000,4.000000,4.000000,100.000000,,,,,,,,,,,,,,,,,,,,,,,,,,,,,,,,,,,,,,,,,,,,,,,
1665770337.896582,1665770337.896583,40.000000,0.000000,4286.538574,4288.461426,4303.077148,4309.871582,4283.333496,4277.179688,4292.820313,4291.538574,4280.384766,4263.077148,4444.358887,4436.538574,4339.487305,4397.948730,0.000000,3.000000,55.000000,,,,0.000000,4.000000,4.000000,4.000000,4.000000,4.000000,4.000000,4.000000,4.000000,4.000000,4.000000,4.000000,4.000000,4.000000,4.000000,100.000000,,,,,,,,,,,,,,,,,,,,,,,,,,,,,,,,,,,,,,,,,,,,,,,
1665770337.904390,1665770337.904292,41.000000,0.000000,4280.384766,4280.384766,4296.666504,4306.025879,4280.256348,4277.948730,4288.974121,4291.282227,4282.948730,4263.589844,4443.077148,4435.256348,4338.333496,4398.461426,0.000000,3.000000,55.000000,,,,0.000000,4.000000,4.000000,4.000000,4.000000,4.000000,4.000000,4.000000,4.000000,4.000000,4.000000,4.000000,4.000000,4.000000,4.000000,100.000000,,,,,,,,,,,,,,,,,,,,,,,,,,,,,,,,,,,,,,,,,,,,,,,
1665770337.912199,1665770337.912100,42.000000,0.000000,4278.717773,4286.025879,4299.615234,4307.948730,4281.410156,4280.897461,4290.128418,4292.692383,4282.307617,4265.000000,4443.589844,4435.769043,4347.820313,4397.307617,0.000000,3.000000,55.000000,,,,0.000000,4.000000,4.000000,4.000000,4.000000,4.000000,4.000000,4.000000,4.000000,4.000000,4.000000,4.000000,4.000000,4.000000,4.000000,100.000000,,,,,,,,,,,,,,,,,,,,,,,,,,,,,,,,,,,,,,,,,,,,,,,
1665770337.920007,1665770337.919809,43.000000,0.000000,4285.897461,4286.922852,4306.666504,4307.051270,4282.563965,4282.051270,4295.384766,4287.820313,4281.025879,4264.102539,4444.743652,4432.051270,4346.538574,4397.948730,0.000000,3.000000,55.000000,,,,0.000000,4.000000,4.000000,4.000000,4.000000,4.000000,4.000000,4.000000,4.000000,4.000000,4.000000,4.000000,4.000000,4.000000,4.000000,100.000000,,,,,,,,,,,,,,,,,,,,,,,,,,,,,,,,,,,,,,,,,,,,,,,
