title:Psychopy_Andrew_Speakers_Blinking, start timestamp:1665769817.155127, stop timestamp:1665769878.162150, headset type:EPOCX, headset serial:E2020A42, headset firmware:720, channels:86, sampling rate:eeg_128;pm_2, samples:7814      , version:2.1, 
Timestamp,OriginalTimestamp,EEG.Counter,EEG.Interpolated,EEG.AF3,EEG.F7,EEG.F3,EEG.FC5,EEG.T7,EEG.P7,EEG.O1,EEG.O2,EEG.P8,EEG.T8,EEG.FC6,EEG.F4,EEG.F8,EEG.AF4,EEG.RawCq,EEG.Battery,EEG.BatteryPercent,MarkerIndex,MarkerType,MarkerValueInt,EEG.MarkerHardware,CQ.AF3,CQ.F7,CQ.F3,CQ.FC5,CQ.T7,CQ.P7,CQ.O1,CQ.O2,CQ.P8,CQ.T8,CQ.FC6,CQ.F4,CQ.F8,CQ.AF4,CQ.Overall,EQ.SampleRateQuality,EQ.OVERALL,EQ.AF3,EQ.F7,EQ.F3,EQ.FC5,EQ.T7,EQ.P7,EQ.O1,EQ.O2,EQ.P8,EQ.T8,EQ.FC6,EQ.F4,EQ.F8,EQ.AF4,PM.Engagement.IsActive,PM.Engagement.Scaled,PM.Engagement.Raw,PM.Engagement.Min,PM.Engagement.Max,PM.Excitement.IsActive,PM.Excitement.Scaled,PM.Excitement.Raw,PM.Excitement.Min,PM.Excitement.Max,PM.LongTermExcitement,PM.Stress.IsActive,PM.Stress.Scaled,PM.Stress.Raw,PM.Stress.Min,PM.Stress.Max,PM.Relaxation.IsActive,PM.Relaxation.Scaled,PM.Relaxation.Raw,PM.Relaxation.Min,PM.Relaxation.Max,PM.Interest.IsActive,PM.Interest.Scaled,PM.Interest.Raw,PM.Interest.Min,PM.Interest.Max,PM.Focus.IsActive,PM.Focus.Scaled,PM.Focus.Raw,PM.Focus.Min,PM.Focus.Max
1665769817.155127,1665769817.155452,38.000000,0.000000,4292.051270,4298.846191,4301.538574,4322.563965,4292.179688,4305.256348,4304.615234,4297.179688,4295.128418,4269.487305,4456.794922,4462.563965,4335.000000,4408.717773,0.000000,3.000000,56.000000,,,,0.000000,4.000000,4.000000,4.000000,4.000000,4.000000,4.000000,4.000000,4.000000,4.000000,4.000000,4.000000,4.000000,4.000000,4.000000,100.000000,,,,,,,,,,,,,,,,,,,,,,,,,,,,,,,,,,,,,,,,,,,,,,,
1665769817.162936,1665769817.163160,39.000000,0.000000,4298.974121,4294.487305,4300.384766,4319.358887,4299.102539,4301.538574,4307.820313,4307.436035,4298.589844,4289.743652,4471.025879,4465.128418,4357.436035,4417.051270,0.000000,3.000000,56.000000,,,,0.000000,4.000000,4.000000,4.000000,4.000000,4.000000,4.000000,4.000000,4.000000,4.000000,4.000000,4.000000,4.000000,4.000000,4.000000,100.000000,,,,,,,,,,,,,,,,,,,,,,,,,,,,,,,,,,,,,,,,,,,,,,,
1665769817.170744,1665769817.170969,40.000000,0.000000,4288.077148,4287.692383,4295.641113,4314.358887,4303.205078,4301.282227,4312.179688,4313.974121,4302.820313,4298.974121,4479.871582,4464.615234,4358.974121,4414.230957,0.000000,3.000000,56.000000,,,,0.000000,4.000000,4.000000,4.000000,4.000000,4.000000,4.000000,4.000000,4.000000,4.000000,4.000000,4.000000,4.000000,4.000000,4.000000,100.000000,,,,,,,,,,,,,,,,,,,,,,,,,,,,,,,,,,,,,,,,,,,,,,,
1665769817.178553,1665769817.178677,41.000000,0.000000,4277.051270,4283.846191,4294.358887,4310.000000,4307.051270,4308.077148,4312.820313,4311.666504,4304.358887,4297.692383,4475.512695,4464.102539,4345.256348,4409.102539,0.000000,3.000000,56.000000,,,,0.000000,4.000000,4.000000,4.000000,4.000000,4.000000,4.000000,4.000000,4.000000,4.000000,4.000000,4.000000,4.000000,4.000000,4.000000,100.000000,,,,,,,,,,,,,,,,,,,,,,,,,,,,,,,,,,,,,,,,,,,,,,,
1665769817.186361,1665769817.186586,42.000000,0.000000,4282.820313,4283.333496,4291.282227,4313.974121,4312.563965,4311.410156,4313.333496,4312.948730,4299.615234,4298.846191,4477.307617,4465.641113,4349.230957,4410.000000,0.000000,3.000000,56.000000,,,,0.000000,4.000000,4.000000,4.000000,4.000000,4.000000,4.000000,4.000000,4.000000,4.000000,4.000000,4.000000,4.000000,4.000000,4.000000,100.000000,,,,,,,,,,,,,,,,,,,,,,,,,,,,,,,,,,,,,,,,,,,,,,,
1665769817.194169,1665769817.194394,43.000000,0.000000,4282.692383,4278.846191,4285.512695,4313.333496,4304.487305,4306.922852,4311.025879,4311.922852,4295.000000,4292.820313,4475.000000,4464.102539,4351.153809,4403.846191,0.000000,3.000000,56.000000,,,,0.000000,4.000000,4.000000,4.000000,4.000000,4.000000,4.000000,4.000000,4.000000,4.000000,4.000000,4.000000,4.000000,4.000000,4.000000,100.000000,,,,,,,,,,,,,,,,,,,,,,,,,,,,,,,,,,,,,,,,,,,,,,,
1665769817.201978,1665769817.202303,44.000000,0.000000,4275.897461,4274.615234,4286.153809,4307.436035,4302.051270,4304.743652,4304.230957,4303.333496,4294.358887,4280.256348,4464.615234,4463.205078,4343.717773,4401.025879,0.000000,3.000000,56.000000,,,,0.000000,4.000000,4.000000,4.000000,4.000000,4.000000,4.000000,4.000000,4.000000,4.000000,4.000000,4.000000,4.000000,4.000000,4.000000,100.000000,,,,,,,,,,,,,,,,,,,,,,,,,,,,,,,,,,,,,,,,,,,,,,,
1665769817.209786,1665769817.210111,45.000000,0.000000,4280.769043,4280.256348,4291.922852,4311.025879,4308.846191,4312.692383,4303.846191,4303.974121,4295.256348,4280.384766,4467.820313,4467.051270,4346.538574,4412.563965,0.000000,3.000000,56.000000,,,,0.000000,4.000000,4.000000,4.000000,4.000000,4.000000,4.000000,4.000000,4.000000,4.000000,4.000000,4.000000,4.000000,4.000000,4.000000,100.000000,,,,,,,,,,,,,,,,,,,,,,,,,,,,,,,,,,,,,,,,,,,,,,,
1665769817.217595,1665769817.218019,46.000000,0.000000,4285.256348,4281.282227,4296.282227,4316.794922,4301.538574,4316.025879,4309.615234,4311.282227,4297.051270,4285.897461,4477.436035,4470.641113,4348.717773,4416.025879,0.000000,3.000000,56.000000,,,,0.000000,4.000000,4.000000,4.000000,4.000000,4.000000,4.000000,4.000000,4.000000,4.000000,4.000000,4.000000,4.000000,4.000000,4.000000,100.000000,,,,,,,,,,,,,,,,,,,,,,,,,,,,,,,,,,,,,,,,,,,,,,,
1665769817.225403,1665769817.225828,47.000000,0.000000,4285.256348,4280.384766,4301.282227,4324.358887,4298.077148,4303.205078,4310.897461,4310.256348,4295.512695,4282.307617,4473.846191,4468.717773,4341.025879,4407.179688,0.000000,3.000000,56.000000,,,,0.000000,4.000000,4.000000,4.000000,4.000000,4.000000,4.000000,4.000000,4.000000,4.000000,4.000000,4.000000,4.000000,4.000000,4.000000,100.000000,,,,,,,,,,,,,,,,,,,,,,,,,,,,,,,,,,,,,,,,,,,,,,,
1665769817.233211,1665769817.233636,48.000000,0.000000,4295.256348,4285.384766,4301.922852,4328.333496,4311.794922,4298.589844,4308.589844,4307.692383,4291.282227,4284.358887,4474.358887,4469.615234,4343.333496,4413.589844,0.000000,3.000000,56.000000,,,,0.000000,4.000000,4.000000,4.000000,4.000000,4.000000,4.000000,4.000000,4.000000,4.000000,4.000000,4.000000,4.000000,4.000000,4.000000,100.000000,,,,,,,,,,,,,,,,,,,,,,,,,,,,,,,,,,,,,,,,,,,,,,,
1665769817.241020,1665769817.241345,49.000000,0.000000,4298.717773,4283.974121,4300.769043,4318.974121,4314.358887,4308.717773,4310.384766,4312.563965,4285.128418,4296.153809,4483.589844,4476.025879,4357.179688,4425.256348,0.000000,3.000000,56.000000,,,,0.000000,4.000000,4.000000,4.000000,4.000000,4.000000,4.000000,4.000000,4.000000,4.000000,4.000000,4.000000,4.000000,4.000000,4.000000,100.000000,,,,,,,,,,,,,,,,,,,,,,,,,,,,,,,,,,,,,,,,,,,,,,,
1665769817.248828,1665769817.249253,50.000000,0.000000,4286.666504,4281.025879,4297.436035,4313.205078,4302.051270,4311.538574,4311.025879,4316.025879,4288.333496,4296.538574,4481.282227,4478.333496,4361.153809,4417.563965,0.000000,3.000000,56.000000,,,,0.000000,4.000000,4.000000,4.000000,4.000000,4.000000,4.000000,4.000000,4.000000,4.000000,4.000000,4.000000,4.000000,4.000000,4.000000,100.000000,,,,,,,,,,,,,,,,,,,,,,,,,,,,,,,,,,,,,,,,,,,,,,,
1665769817.256637,1665769817.257062,51.000000,0.000000,4274.743652,4282.948730,4285.897461,4317.436035,4304.358887,4307.692383,4307.692383,4312.820313,4301.153809,4288.846191,4471.794922,4473.717773,4349.230957,4401.025879,0.000000,3.000000,56.000000,,,,0.000000,4.000000,4.000000,4.000000,4.000000,4.000000,4.000000,4.000000,4.000000,4.000000,4.000000,4.000000,4.000000,4.000000,4.000000,100.000000,,,,,,,,,,,,,,,,,,,,,,,,,,,,,,,,,,,,,,,,,,,,,,,
1665769817.264445,1665769817.264970,52.000000,0.000000,4268.846191,4278.333496,4280.897461,4313.974121,4319.743652,4312.051270,4311.153809,4314.358887,4303.077148,4291.025879,4475.384766,4470.897461,4341.794922,4398.717773,0.000000,3.000000,56.000000,,,,0.000000,4.000000,4.000000,4.000000,4.000000,4.000000,4.000000,4.000000,4.000000,4.000000,4.000000,4.000000,4.000000,4.000000,4.000000,100.000000,,,,,,,,,,,,,,,,,,,,,,,,,,,,,,,,,,,,,,,,,,,,,,,
1665769817.272253,1665769817.272778,53.000000,0.000000,4270.769043,4275.641113,4290.384766,4312.179688,4319.102539,4313.461426,4320.000000,4322.563965,4294.871582,4290.256348,4477.820313,4475.256348,4347.436035,4409.230957,0.000000,3.000000,56.000000,,,,0.000000,4.000000,4.000000,4.000000,4.000000,4.000000,4.000000,4.000000,4.000000,4.000000,4.000000,4.000000,4.000000,4.000000,4.000000,100.000000,,,,,,,,,,,,,,,,,,,,,,,,,,,,,,,,,,,,,,,,,,,,,,,
1665769817.280062,1665769817.280687,54.000000,0.000000,4279.615234,4287.307617,4296.922852,4319.358887,4300.128418,4306.538574,4319.230957,4326.922852,4300.512695,4279.871582,4473.974121,4478.077148,4346.922852,4415.000000,0.000000,3.000000,56.000000,,,,0.000000,4.000000,4.000000,4.000000,4.000000,4.000000,4.000000,4.000000,4.000000,4.000000,4.000000,4.000000,4.000000,4.000000,4.000000,100.000000,,,,,,,,,,,,,,,,,,,,,,,,,,,,,,,,,,,,,,,,,,,,,,,
1665769817.287870,1665769817.288495,55.000000,0.000000,4283.461426,4290.641113,4297.051270,4314.871582,4296.025879,4310.000000,4314.615234,4323.717773,4310.897461,4282.436035,4481.922852,4478.974121,4343.974121,4415.128418,0.000000,3.000000,56.000000,,,,0.000000,4.000000,4.000000,4.000000,4.000000,4.000000,4.000000,4.000000,4.000000,4.000000,4.000000,4.000000,4.000000,4.000000,4.000000,100.000000,,,,,,,,,,,,,,,,,,,,,,,,,,,,,,,,,,,,,,,,,,,,,,,
1665769817.295679,1665769817.296403,56.000000,0.000000,4282.436035,4281.666504,4304.358887,4312.692383,4305.512695,4313.846191,4315.384766,4319.871582,4303.333496,4291.410156,4489.871582,4477.692383,4352.051270,4416.282227,0.000000,3.000000,56.000000,,,,0.000000,4.000000,4.000000,4.000000,4.000000,4.000000,4.000000,4.000000,4.000000,4.000000,4.000000,4.000000,4.000000,4.000000,4.000000,100.000000,,,,,,,,,,,,,,,,,,,,,,,,,,,,,,,,,,,,,,,,,,,,,,,
1665769817.303487,1665769817.304212,57.000000,0.000000,4280.897461,4280.256348,4305.000000,4320.641113,4295.512695,4302.051270,4312.307617,4315.256348,4291.282227,4284.871582,4480.128418,4474.615234,4353.846191,4414.358887,0.000000,3.000000,56.000000,,,,0.000000,4.000000,4.000000,4.000000,4.000000,4.000000,4.000000,4.000000,4.000000,4.000000,4.000000,4.000000,4.000000,4.000000,4.000000,100.000000,,,,,,,,,,,,,,,,,,,,,,,,,,,,,,,,,,,,,,,,,,,,,,,
1665769817.311295,1665769817.312120,58.000000,0.000000,4284.230957,4283.589844,4295.384766,4315.769043,4286.922852,4295.641113,4306.538574,4308.717773,4293.846191,4280.128418,4472.948730,4474.615234,4348.974121,4413.333496,0.000000,3.000000,56.000000,,,,0.000000,4.000000,4.000000,4.000000,4.000000,4.000000,4.000000,4.000000,4.000000,4.000000,4.000000,4.000000,4.000000,4.000000,4.000000,100.000000,,,,,,,,,,,,,,,,,,,,,,,,,,,,,,,,,,,,,,,,,,,,,,,
1665769817.319104,1665769817.319929,59.000000,0.000000,4289.743652,4281.666504,4295.256348,4308.333496,4303.205078,4308.589844,4308.461426,4308.333496,4300.128418,4289.102539,4478.205078,4479.615234,4355.769043,4419.871582,0.000000,3.000000,56.000000,,,,0.000000,4.000000,4.000000,4.000000,4.000000,4.000000,4.000000,4.000000,4.000000,4.000000,4.000000,4.000000,4.000000,4.000000,4.000000,100.000000,,,,,,,,,,,,,,,,,,,,,,,,,,,,,,,,,,,,,,,,,,,,,,,
1665769817.326912,1665769817.327637,60.000000,0.000000,4285.897461,4277.307617,4295.384766,4308.077148,4311.666504,4316.538574,4311.025879,4310.769043,4296.025879,4289.871582,4478.077148,4479.102539,4360.000000,4419.358887,0.000000,3.000000,56.000000,,,,0.000000,4.000000,4.000000,4.000000,4.000000,4.000000,4.000000,4.000000,4.000000,4.000000,4.000000,4.000000,4.000000,4.000000,4.000000,100.000000,,,,,,,,,,,,,,,,,,,,,,,,,,,,,,,,,,,,,,,,,,,,,,,
1665769817.334720,1665769817.335446,61.000000,0.000000,4278.205078,4277.820313,4289.743652,4309.102539,4298.589844,4308.974121,4310.000000,4309.615234,4291.922852,4279.230957,4475.897461,4474.358887,4352.692383,4411.282227,0.000000,3.000000,56.000000,,,,0.000000,4.000000,4.000000,4.000000,4.000000,4.000000,4.000000,4.000000,4.000000,4.000000,4.000000,4.000000,4.000000,4.000000,4.000000,100.000000,,,,,,,,,,,,,,,,,,,,,,,,,,,,,,,,,,,,,,,,,,,,,,,
1665769817.342529,1665769817.343154,62.000000,0.000000,4277.692383,4282.307617,4288.717773,4312.051270,4290.512695,4308.589844,4310.512695,4310.000000,4296.025879,4278.974121,4475.128418,4475.512695,4349.743652,4410.641113,0.000000,3.000000,56.000000,,,,0.000000,4.000000,4.000000,4.000000,4.000000,4.000000,4.000000,4.000000,4.000000,4.000000,4.000000,4.000000,4.000000,4.000000,4.000000,100.000000,,,,,,,,,,,,,,,,,,,,,,,,,,,,,,,,,,,,,,,,,,,,,,,
1665769817.350337,1665769817.350963,63.000000,0.000000,4278.461426,4278.205078,4289.871582,4310.384766,4293.717773,4310.384766,4304.487305,4312.436035,4298.205078,4287.692383,4470.256348,4481.922852,4349.743652,4415.897461,0.000000,3.000000,56.000000,,,,0.000000,4.000000,4.000000,4.000000,4.000000,4.000000,4.000000,4.000000,4.000000,4.000000,4.000000,4.000000,4.000000,4.000000,4.000000,100.000000,,,,,,,,,,,,,,,,,,,,,,,,,,,,,,,,,,,,,,,,,,,,,,,
1665769817.358146,1665769817.358671,64.000000,0.000000,4285.128418,4272.563965,4291.794922,4307.179688,4300.256348,4301.666504,4298.077148,4312.307617,4295.897461,4284.615234,4479.358887,4486.922852,4348.333496,4420.769043,2463.000000,3.000000,56.000000,,,,0.000000,4.000000,4.000000,4.000000,4.000000,4.000000,4.000000,4.000000,4.000000,4.000000,4.000000,4.000000,4.000000,4.000000,4.000000,100.000000,,,,,,,,,,,,,,,,,,,,,,,,,,,,,,,,,,,,,,,,,,,,,,,
1665769817.365954,1665769817.366480,65.000000,0.000000,4302.307617,4290.256348,4306.538574,4318.589844,4312.179688,4300.256348,4304.102539,4310.897461,4297.563965,4279.615234,4493.589844,4489.102539,4357.307617,4430.256348,2282.000000,3.000000,56.000000,,,,0.000000,4.000000,4.000000,4.000000,4.000000,4.000000,4.000000,4.000000,4.000000,4.000000,4.000000,4.000000,4.000000,4.000000,4.000000,100.000000,,,,,,,,,,,,,,,,,,,,,,,,,,,,,,,,,,,,,,,,,,,,,,,
1665769817.373762,1665769817.374188,66.000000,0.000000,4312.436035,4307.820313,4321.922852,4333.717773,4313.589844,4302.436035,4306.794922,4308.974121,4291.282227,4281.410156,4483.846191,4487.307617,4364.487305,4435.512695,2378.000000,3.000000,56.000000,,,,0.000000,4.000000,4.000000,4.000000,4.000000,4.000000,4.000000,4.000000,4.000000,4.000000,4.000000,4.000000,4.000000,4.000000,4.000000,100.000000,,,,,,,,,,,,,,,,,,,,,,,,,,,,,,,,,,,,,,,,,,,,,,,
1665769817.381571,1665769817.381997,67.000000,0.000000,4309.358887,4301.153809,4319.743652,4337.051270,4305.256348,4301.282227,4303.461426,4307.563965,4283.846191,4281.922852,4469.871582,4485.512695,4357.948730,4432.179688,2369.000000,3.000000,56.000000,,,,0.000000,4.000000,4.000000,4.000000,4.000000,4.000000,4.000000,4.000000,4.000000,4.000000,4.000000,4.000000,4.000000,4.000000,4.000000,100.000000,,,,,,,,,,,,,,,,,,,,,,,,,,,,,,,,,,,,,,,,,,,,,,,
1665769817.389379,1665769817.389705,68.000000,0.000000,4310.897461,4301.794922,4315.641113,4337.051270,4315.897461,4302.179688,4306.538574,4310.512695,4289.230957,4283.589844,4480.384766,4486.538574,4362.051270,4436.922852,2406.000000,3.000000,56.000000,,,,0.000000,4.000000,4.000000,4.000000,4.000000,4.000000,4.000000,4.000000,4.000000,4.000000,4.000000,4.000000,4.000000,4.000000,4.000000,100.000000,,,,,,,,,,,,,,,,,,,,,,,,,,,,,,,,,,,,,,,,,,,,,,,
1665769817.397188,1665769817.397514,69.000000,0.000000,4313.461426,4314.743652,4316.025879,4336.538574,4326.410156,4301.025879,4307.436035,4313.461426,4287.948730,4286.153809,4497.179688,4488.974121,4372.948730,4446.922852,2394.000000,3.000000,56.000000,,,,0.000000,4.000000,4.000000,4.000000,4.000000,4.000000,4.000000,4.000000,4.000000,4.000000,4.000000,4.000000,4.000000,4.000000,4.000000,100.000000,,,,,,,,,,,,,,,,,,,,,,,,,,,,,,,,,,,,,,,,,,,,,,,
1665769817.404996,1665769817.405222,70.000000,0.000000,4304.487305,4308.717773,4305.897461,4327.179688,4314.615234,4299.358887,4304.487305,4310.000000,4282.948730,4281.922852,4493.077148,4485.897461,4368.717773,4441.410156,2227.000000,3.000000,56.000000,,,,0.000000,4.000000,4.000000,4.000000,4.000000,4.000000,4.000000,4.000000,4.000000,4.000000,4.000000,4.000000,4.000000,4.000000,4.000000,100.000000,,,,,,,,,,,,,,,,,,,,,,,,,,,,,,,,,,,,,,,,,,,,,,,
1665769817.412804,1665769817.413131,71.000000,0.000000,4293.846191,4295.769043,4294.358887,4318.974121,4305.512695,4301.922852,4308.846191,4309.358887,4293.974121,4277.436035,4477.436035,4482.820313,4362.692383,4428.461426,2391.000000,3.000000,56.000000,,,,0.000000,4.000000,4.000000,4.000000,4.000000,4.000000,4.000000,4.000000,4.000000,4.000000,4.000000,4.000000,4.000000,4.000000,4.000000,100.000000,,,,,,,,,,,,,,,,,,,,,,,,,,,,,,,,,,,,,,,,,,,,,,,
1665769817.420613,1665769817.420939,72.000000,0.000000,4293.974121,4295.897461,4297.307617,4318.205078,4308.333496,4302.051270,4306.666504,4314.358887,4301.153809,4283.077148,4478.589844,4482.307617,4367.051270,4431.538574,2312.000000,3.000000,56.000000,,,,0.000000,4.000000,4.000000,4.000000,4.000000,4.000000,4.000000,4.000000,4.000000,4.000000,4.000000,4.000000,4.000000,4.000000,4.000000,100.000000,,,,,,,,,,,,,,,,,,,,,,,,,,,,,,,,,,,,,,,,,,,,,,,
1665769817.428421,1665769817.428847,73.000000,0.000000,4299.230957,4294.743652,4298.589844,4313.974121,4306.538574,4297.179688,4296.538574,4314.743652,4293.717773,4287.307617,4492.948730,4479.102539,4368.717773,4437.051270,2374.000000,3.000000,56.000000,,,,0.000000,4.000000,4.000000,4.000000,4.000000,4.000000,4.000000,4.000000,4.000000,4.000000,4.000000,4.000000,4.000000,4.000000,4.000000,100.000000,,,,,,,,,,,,,,,,,,,,,,,,,,,,,,,,,,,,,,,,,,,,,,,
1665769817.436230,1665769817.436656,74.000000,0.000000,4305.000000,4294.615234,4296.282227,4310.128418,4301.282227,4297.051270,4301.025879,4311.025879,4296.282227,4289.230957,4495.769043,4478.205078,4370.384766,4434.743652,2717.000000,3.000000,56.000000,,,,0.000000,4.000000,4.000000,4.000000,4.000000,4.000000,4.000000,4.000000,4.000000,4.000000,4.000000,4.000000,4.000000,4.000000,4.000000,100.000000,,,,,,,,,,,,,,,,,,,,,,,,,,,,,,,,,,,,,,,,,,,,,,,
1665769817.444038,1665769817.444564,75.000000,0.000000,4303.717773,4299.487305,4298.717773,4308.974121,4295.512695,4297.820313,4312.436035,4310.769043,4303.461426,4291.538574,4484.871582,4479.743652,4373.333496,4433.077148,2518.000000,3.000000,56.000000,,,,0.000000,4.000000,4.000000,4.000000,4.000000,4.000000,4.000000,4.000000,4.000000,4.000000,4.000000,4.000000,4.000000,4.000000,4.000000,100.000000,,,,,,,,,,,,,,,,,,,,,,,,,,,,,,,,,,,,,,,,,,,,,,,
1665769817.451846,1665769817.452373,76.000000,0.000000,4297.051270,4296.666504,4300.000000,4310.384766,4292.436035,4300.256348,4310.641113,4309.871582,4296.153809,4288.461426,4476.666504,4477.179688,4366.922852,4430.512695,3047.000000,3.000000,56.000000,,,,0.000000,4.000000,4.000000,4.000000,4.000000,4.000000,4.000000,4.000000,4.000000,4.000000,4.000000,4.000000,4.000000,4.000000,4.000000,100.000000,,,,,,,,,,,,,,,,,,,,,,,,,,,,,,,,,,,,,,,,,,,,,,,
1665769817.459655,1665769817.460281,77.000000,0.000000,4302.692383,4294.487305,4303.846191,4324.102539,4305.512695,4307.179688,4310.384766,4310.128418,4292.179688,4290.897461,4477.948730,4474.102539,4365.128418,4429.102539,1429.000000,3.000000,56.000000,,,,0.000000,4.000000,4.000000,4.000000,4.000000,4.000000,4.000000,4.000000,4.000000,4.000000,4.000000,4.000000,4.000000,4.000000,4.000000,100.000000,,,,,,,,,,,,,,,,,,,,,,,,,,,,,,,,,,,,,,,,,,,,,,,
1665769817.467463,1665769817.468089,78.000000,0.000000,4309.615234,4302.820313,4309.743652,4332.692383,4312.436035,4304.871582,4311.794922,4311.410156,4296.666504,4296.794922,4479.358887,4475.000000,4371.538574,4428.205078,2717.000000,3.000000,56.000000,,,,0.000000,4.000000,4.000000,4.000000,4.000000,4.000000,4.000000,4.000000,4.000000,4.000000,4.000000,4.000000,4.000000,4.000000,4.000000,100.000000,,,,,,,,,,,,,,,,,,,,,,,,,,,,,,,,,,,,,,,,,,,,,,,
1665769817.475272,1665769817.475998,79.000000,0.000000,4301.153809,4301.410156,4300.256348,4317.307617,4301.025879,4298.846191,4302.692383,4305.128418,4296.410156,4290.512695,4475.256348,4472.179688,4366.410156,4421.538574,2518.000000,3.000000,56.000000,,,,0.000000,4.000000,4.000000,4.000000,4.000000,4.000000,4.000000,4.000000,4.000000,4.000000,4.000000,4.000000,4.000000,4.000000,4.000000,100.000000,,,,,,,,,,,,,,,,,,,,,,,,,,,,,,,,,,,,,,,,,,,,,,,
1665769817.483080,1665769817.483806,80.000000,0.000000,4287.820313,4282.051270,4281.666504,4302.051270,4293.717773,4295.128418,4291.410156,4298.333496,4290.897461,4278.717773,4470.256348,4467.820313,4356.666504,4415.000000,3047.000000,3.000000,56.000000,,,,0.000000,4.000000,4.000000,4.000000,4.000000,4.000000,4.000000,4.000000,4.000000,4.000000,4.000000,4.000000,4.000000,4.000000,4.000000,100.000000,,,,,,,,,,,,,,,,,,,,,,,,,,,,,,,,,,,,,,,,,,,,,,,
1665769817.490888,1665769817.491715,81.000000,0.000000,4288.077148,4281.410156,4283.461426,4310.384766,4294.743652,4296.282227,4291.922852,4305.000000,4291.794922,4284.743652,4471.666504,4471.410156,4362.563965,4418.077148,1429.000000,3.000000,56.000000,,,,0.000000,4.000000,4.000000,4.000000,4.000000,4.000000,4.000000,4.000000,4.000000,4.000000,4.000000,4.000000,4.000000,4.000000,4.000000,100.000000,,,,,,,,,,,,,,,,,,,,,,,,,,,,,,,,,,,,,,,,,,,,,,,
1665769817.498697,1665769817.499523,82.000000,0.000000,4301.410156,4301.794922,4301.025879,4322.692383,4300.256348,4305.256348,4300.000000,4313.974121,4296.282227,4300.256348,4477.948730,4481.153809,4373.589844,4429.487305,2717.000000,3.000000,56.000000,,,,0.000000,4.000000,4.000000,4.000000,4.000000,4.000000,4.000000,4.000000,4.000000,4.000000,4.000000,4.000000,4.000000,4.000000,4.000000,100.000000,,,,,,,,,,,,,,,,,,,,,,,,,,,,,,,,,,,,,,,,,,,,,,,
1665769817.506505,1665769817.507232,83.000000,0.000000,4310.384766,4304.358887,4304.871582,4322.051270,4310.769043,4304.871582,4303.461426,4311.538574,4295.384766,4300.641113,4486.282227,4483.077148,4373.205078,4436.794922,2518.000000,3.000000,56.000000,,,,0.000000,4.000000,4.000000,4.000000,4.000000,4.000000,4.000000,4.000000,4.000000,4.000000,4.000000,4.000000,4.000000,4.000000,4.000000,100.000000,,,,,,,,,,,,,,,,,,,,,,,,,,,,,,,,,,,,,,,,,,,,,,,
1665769817.514314,1665769817.515040,84.000000,0.000000,4307.307617,4294.102539,4296.794922,4315.256348,4313.974121,4294.871582,4301.666504,4309.230957,4293.846191,4293.333496,4492.692383,4480.000000,4372.563965,4435.769043,3047.000000,3.000000,56.000000,,,,0.000000,4.000000,4.000000,4.000000,4.000000,4.000000,4.000000,4.000000,4.000000,4.000000,4.000000,4.000000,4.000000,4.000000,4.000000,100.000000,,,,,,,,,,,,,,,,,,,,,,,,,,,,,,,,,,,,,,,,,,,,,,,
1665769817.522122,1665769817.522749,85.000000,0.000000,4300.769043,4295.641113,4293.717773,4309.358887,4304.230957,4292.948730,4296.922852,4312.307617,4293.974121,4297.051270,4489.487305,4482.051270,4376.922852,4433.333496,1429.000000,3.000000,56.000000,,,,0.000000,4.000000,4.000000,4.000000,4.000000,4.000000,4.000000,4.000000,4.000000,4.000000,4.000000,4.000000,4.000000,4.000000,4.000000,100.000000,,,,,,,,,,,,,,,,,,,,,,,,,,,,,,,,,,,,,,,,,,,,,,,
1665769817.529930,1665769817.530557,86.000000,0.000000,4301.538574,4300.000000,4295.897461,4311.410156,4296.410156,4297.563965,4294.230957,4312.179688,4292.692383,4300.000000,4483.205078,4481.538574,4376.153809,4431.666504,2717.000000,3.000000,56.000000,,,,0.000000,4.000000,4.000000,4.000000,4.000000,4.000000,4.000000,4.000000,4.000000,4.000000,4.000000,4.000000,4.000000,4.000000,4.000000,100.000000,,,,,,,,,,,,,,,,,,,,,,,,,,,,,,,,,,,,,,,,,,,,,,,
1665769817.537739,1665769817.538465,87.000000,0.000000,4304.487305,4299.230957,4294.743652,4316.666504,4296.538574,4300.128418,4301.410156,4310.897461,4293.589844,4288.077148,4478.461426,4475.384766,4369.230957,4428.205078,2518.000000,3.000000,56.000000,,,,0.000000,4.000000,4.000000,4.000000,4.000000,4.000000,4.000000,4.000000,4.000000,4.000000,4.000000,4.000000,4.000000,4.000000,4.000000,100.000000,,,,,,,,,,,,,,,,,,,,,,,,,,,,,,,,,,,,,,,,,,,,,,,
1665769817.545547,1665769817.546274,88.000000,0.000000,4301.538574,4304.487305,4298.077148,4319.487305,4302.948730,4303.205078,4308.974121,4310.128418,4296.282227,4282.307617,4475.256348,4475.641113,4366.153809,4428.589844,3047.000000,3.000000,56.000000,,,,0.000000,4.000000,4.000000,4.000000,4.000000,4.000000,4.000000,4.000000,4.000000,4.000000,4.000000,4.000000,4.000000,4.000000,4.000000,100.000000,,,,,,,,,,,,,,,,,,,,,,,,,,,,,,,,,,,,,,,,,,,,,,,
1665769817.553356,1665769817.553982,89.000000,0.000000,4298.205078,4308.974121,4308.205078,4319.487305,4310.512695,4305.512695,4309.358887,4308.333496,4297.436035,4289.230957,4476.282227,4479.230957,4370.384766,4432.820313,1429.000000,3.000000,56.000000,,,,0.000000,4.000000,4.000000,4.000000,4.000000,4.000000,4.000000,4.000000,4.000000,4.000000,4.000000,4.000000,4.000000,4.000000,4.000000,100.000000,,,,,,,,,,,,,,,,,,,,,,,,,,,,,,,,,,,,,,,,,,,,,,,
1665769817.561164,1665769817.561791,90.000000,0.000000,4301.282227,4307.307617,4311.922852,4316.153809,4312.179688,4307.307617,4307.307617,4308.589844,4297.051270,4289.102539,4477.307617,4477.948730,4372.436035,4432.948730,2717.000000,3.000000,56.000000,,,,0.000000,4.000000,4.000000,4.000000,4.000000,4.000000,4.000000,4.000000,4.000000,4.000000,4.000000,4.000000,4.000000,4.000000,4.000000,100.000000,,,,,,,,,,,,,,,,,,,,,,,,,,,,,,,,,,,,,,,,,,,,,,,
1665769817.568972,1665769817.569499,91.000000,0.000000,4310.256348,4308.077148,4311.153809,4320.512695,4304.871582,4308.077148,4310.384766,4310.897461,4295.512695,4283.717773,4474.230957,4479.871582,4370.256348,4433.846191,2518.000000,3.000000,56.000000,,,,0.000000,4.000000,4.000000,4.000000,4.000000,4.000000,4.000000,4.000000,4.000000,4.000000,4.000000,4.000000,4.000000,4.000000,4.000000,100.000000,,,,,,,,,,,,,,,,,,,,,,,,,,,,,,,,,,,,,,,,,,,,,,,
1665769817.576781,1665769817.577308,92.000000,0.000000,4317.820313,4309.230957,4316.025879,4328.077148,4298.974121,4300.769043,4307.051270,4309.487305,4293.846191,4282.436035,4473.589844,4479.230957,4372.436035,4437.563965,3047.000000,3.000000,56.000000,,,,0.000000,4.000000,4.000000,4.000000,4.000000,4.000000,4.000000,4.000000,4.000000,4.000000,4.000000,4.000000,4.000000,4.000000,4.000000,100.000000,,,,,,,,,,,,,,,,,,,,,,,,,,,,,,,,,,,,,,,,,,,,,,,
1665769817.584589,1665769817.585016,93.000000,0.000000,4320.256348,4311.666504,4321.538574,4324.230957,4305.769043,4293.333496,4301.666504,4307.692383,4294.615234,4280.000000,4477.948730,4475.384766,4374.743652,4439.743652,1429.000000,3.000000,56.000000,,,,0.000000,4.000000,4.000000,4.000000,4.000000,4.000000,4.000000,4.000000,4.000000,4.000000,4.000000,4.000000,4.000000,4.000000,4.000000,100.000000,1.000000,91.666664,4.000000,4.000000,3.000000,4.000000,4.000000,4.000000,4.000000,4.000000,4.000000,4.000000,4.000000,4.000000,4.000000,4.000000,1.000000,0.523029,-0.315292,-1.310245,0.680371,1.000000,0.126242,4.261520,3.074794,12.475170,0.179794,1.000000,0.269997,33.836670,-90.576859,322.657013,1.000000,0.135334,0.098724,0.076470,0.279802,1.000000,0.336058,3.993887,-4.610134,20.205978,1.000000,0.377528,0.377528,0.000000,1.000000
1665769817.592398,1665769817.592825,94.000000,0.000000,4313.205078,4309.230957,4310.256348,4312.307617,4304.102539,4295.384766,4302.692383,4309.230957,4294.871582,4279.358887,4477.820313,4475.769043,4368.205078,4435.256348,2717.000000,3.000000,56.000000,,,,0.000000,4.000000,4.000000,4.000000,4.000000,4.000000,4.000000,4.000000,4.000000,4.000000,4.000000,4.000000,4.000000,4.000000,4.000000,100.000000,,,,,,,,,,,,,,,,,,,,,,,,,,,,,,,,,,,,,,,,,,,,,,,
1665769817.600206,1665769817.600533,95.000000,0.000000,4306.538574,4299.871582,4293.974121,4308.717773,4294.871582,4302.179688,4301.538574,4308.461426,4294.487305,4288.461426,4474.615234,4475.512695,4369.615234,4433.077148,2518.000000,3.000000,56.000000,,,,0.000000,4.000000,4.000000,4.000000,4.000000,4.000000,4.000000,4.000000,4.000000,4.000000,4.000000,4.000000,4.000000,4.000000,4.000000,100.000000,,,,,,,,,,,,,,,,,,,,,,,,,,,,,,,,,,,,,,,,,,,,,,,
1665769817.608014,1665769817.608342,96.000000,0.000000,4309.230957,4292.563965,4298.974121,4314.102539,4303.077148,4304.871582,4298.461426,4308.205078,4297.692383,4294.230957,4476.794922,4470.897461,4380.769043,4436.410156,3047.000000,3.000000,56.000000,,,,0.000000,4.000000,4.000000,4.000000,4.000000,4.000000,4.000000,4.000000,4.000000,4.000000,4.000000,4.000000,4.000000,4.000000,4.000000,100.000000,,,,,,,,,,,,,,,,,,,,,,,,,,,,,,,,,,,,,,,,,,,,,,,
1665769817.615823,1665769817.616050,97.000000,0.000000,4310.384766,4293.205078,4310.512695,4315.256348,4311.922852,4302.692383,4302.179688,4309.102539,4299.615234,4289.102539,4475.512695,4469.102539,4378.077148,4436.410156,1429.000000,3.000000,56.000000,,,,0.000000,4.000000,4.000000,4.000000,4.000000,4.000000,4.000000,4.000000,4.000000,4.000000,4.000000,4.000000,4.000000,4.000000,4.000000,100.000000,,,,,,,,,,,,,,,,,,,,,,,,,,,,,,,,,,,,,,,,,,,,,,,
1665769817.623631,1665769817.623959,98.000000,0.000000,4313.589844,4303.205078,4313.589844,4317.307617,4309.487305,4308.333496,4308.205078,4306.666504,4298.077148,4286.922852,4470.897461,4473.717773,4368.974121,4433.846191,2717.000000,3.000000,56.000000,,,,0.000000,4.000000,4.000000,4.000000,4.000000,4.000000,4.000000,4.000000,4.000000,4.000000,4.000000,4.000000,4.000000,4.000000,4.000000,100.000000,,,,,,,,,,,,,,,,,,,,,,,,,,,,,,,,,,,,,,,,,,,,,,,
1665769817.631440,1665769817.631767,99.000000,0.000000,4323.717773,4310.641113,4317.051270,4322.179688,4315.769043,4310.769043,4303.846191,4303.846191,4294.102539,4289.230957,4475.256348,4474.871582,4373.974121,4437.563965,2518.000000,3.000000,56.000000,,,,0.000000,4.000000,4.000000,4.000000,4.000000,4.000000,4.000000,4.000000,4.000000,4.000000,4.000000,4.000000,4.000000,4.000000,4.000000,100.000000,,,,,,,,,,,,,,,,,,,,,,,,,,,,,,,,,,,,,,,,,,,,,,,
1665769817.639248,1665769817.639675,100.000000,0.000000,4325.769043,4312.179688,4322.307617,4327.948730,4314.230957,4299.102539,4299.230957,4306.666504,4293.589844,4291.410156,4478.589844,4475.128418,4383.333496,4443.717773,3047.000000,3.000000,56.000000,,,,0.000000,4.000000,4.000000,4.000000,4.000000,4.000000,4.000000,4.000000,4.000000,4.000000,4.000000,4.000000,4.000000,4.000000,4.000000,100.000000,,,,,,,,,,,,,,,,,,,,,,,,,,,,,,,,,,,,,,,,,,,,,,,
1665769817.647056,1665769817.647484,101.000000,0.000000,4325.769043,4316.025879,4324.615234,4335.000000,4302.692383,4295.641113,4299.871582,4310.769043,4298.846191,4292.692383,4475.769043,4482.948730,4382.563965,4446.282227,1429.000000,3.000000,56.000000,,,,0.000000,4.000000,4.000000,4.000000,4.000000,4.000000,4.000000,4.000000,4.000000,4.000000,4.000000,4.000000,4.000000,4.000000,4.000000,100.000000,,,,,,,,,,,,,,,,,,,,,,,,,,,,,,,,,,,,,,,,,,,,,,,
1665769817.654865,1665769817.655392,102.000000,0.000000,4338.717773,4320.769043,4328.974121,4337.051270,4311.410156,4309.358887,4300.512695,4313.974121,4304.615234,4294.743652,4484.358887,4489.102539,4382.307617,4449.102539,2717.000000,3.000000,56.000000,,,,0.000000,4.000000,4.000000,4.000000,4.000000,4.000000,4.000000,4.000000,4.000000,4.000000,4.000000,4.000000,4.000000,4.000000,4.000000,100.000000,,,,,,,,,,,,,,,,,,,,,,,,,,,,,,,,,,,,,,,,,,,,,,,
1665769817.662673,1665769817.663201,103.000000,0.000000,4345.000000,4318.461426,4334.358887,4332.307617,4324.230957,4312.436035,4306.666504,4320.128418,4306.153809,4296.922852,4497.563965,4488.333496,4384.358887,4451.666504,2518.000000,3.000000,56.000000,,,,0.000000,4.000000,4.000000,4.000000,4.000000,4.000000,4.000000,4.000000,4.000000,4.000000,4.000000,4.000000,4.000000,4.000000,4.000000,100.000000,,,,,,,,,,,,,,,,,,,,,,,,,,,,,,,,,,,,,,,,,,,,,,,
1665769817.670482,1665769817.671109,104.000000,0.000000,4333.974121,4311.922852,4330.128418,4327.563965,4321.153809,4301.282227,4306.794922,4318.717773,4300.000000,4295.000000,4490.128418,4483.717773,4381.538574,4451.153809,3047.000000,3.000000,56.000000,,,,0.000000,4.000000,4.000000,4.000000,4.000000,4.000000,4.000000,4.000000,4.000000,4.000000,4.000000,4.000000,4.000000,4.000000,4.000000,100.000000,,,,,,,,,,,,,,,,,,,,,,,,,,,,,,,,,,,,,,,,,,,,,,,
1665769817.678290,1665769817.678917,105.000000,0.000000,4323.461426,4309.743652,4319.487305,4327.051270,4316.282227,4299.743652,4296.794922,4310.897461,4297.051270,4292.692383,4476.794922,4481.538574,4379.615234,4446.025879,1429.000000,3.000000,56.000000,,,,0.000000,4.000000,4.000000,4.000000,4.000000,4.000000,4.000000,4.000000,4.000000,4.000000,4.000000,4.000000,4.000000,4.000000,4.000000,100.000000,,,,,,,,,,,,,,,,,,,,,,,,,,,,,,,,,,,,,,,,,,,,,,,
1665769817.686098,1665769817.686826,106.000000,0.000000,4317.307617,4306.410156,4311.153809,4320.256348,4312.563965,4305.256348,4295.256348,4309.230957,4297.051270,4292.307617,4478.589844,4482.563965,4380.128418,4440.512695,2717.000000,3.000000,56.000000,,,,0.000000,4.000000,4.000000,4.000000,4.000000,4.000000,4.000000,4.000000,4.000000,4.000000,4.000000,4.000000,4.000000,4.000000,4.000000,100.000000,,,,,,,,,,,,,,,,,,,,,,,,,,,,,,,,,,,,,,,,,,,,,,,
1665769817.693907,1665769817.694634,107.000000,0.000000,4313.846191,4305.384766,4311.922852,4314.102539,4307.948730,4304.743652,4306.410156,4310.512695,4288.205078,4288.974121,4479.743652,4482.307617,4374.871582,4440.256348,2518.000000,3.000000,56.000000,,,,0.000000,4.000000,4.000000,4.000000,4.000000,4.000000,4.000000,4.000000,4.000000,4.000000,4.000000,4.000000,4.000000,4.000000,4.000000,100.000000,,,,,,,,,,,,,,,,,,,,,,,,,,,,,,,,,,,,,,,,,,,,,,,
1665769817.701715,1665769817.702343,108.000000,0.000000,4320.000000,4310.000000,4320.256348,4322.948730,4310.000000,4301.153809,4307.051270,4306.538574,4283.205078,4279.102539,4469.358887,4474.871582,4365.384766,4435.256348,3047.000000,3.000000,56.000000,,,,0.000000,4.000000,4.000000,4.000000,4.000000,4.000000,4.000000,4.000000,4.000000,4.000000,4.000000,4.000000,4.000000,4.000000,4.000000,100.000000,,,,,,,,,,,,,,,,,,,,,,,,,,,,,,,,,,,,,,,,,,,,,,,
1665769817.709524,1665769817.710151,109.000000,0.000000,4319.102539,4309.871582,4318.589844,4328.589844,4310.000000,4302.307617,4301.666504,4300.384766,4287.948730,4266.153809,4456.794922,4465.256348,4358.333496,4422.563965,1429.000000,3.000000,56.000000,,,,0.000000,4.000000,4.000000,4.000000,4.000000,4.000000,4.000000,4.000000,4.000000,4.000000,4.000000,4.000000,4.000000,4.000000,4.000000,100.000000,,,,,,,,,,,,,,,,,,,,,,,,,,,,,,,,,,,,,,,,,,,,,,,
1665769817.717332,1665769817.717860,110.000000,0.000000,4309.615234,4304.102539,4309.871582,4319.487305,4308.333496,4307.307617,4306.666504,4299.871582,4290.897461,4267.436035,4453.333496,4467.051270,4352.436035,4422.692383,2717.000000,3.000000,56.000000,,,,0.000000,4.000000,4.000000,4.000000,4.000000,4.000000,4.000000,4.000000,4.000000,4.000000,4.000000,4.000000,4.000000,4.000000,4.000000,100.000000,,,,,,,,,,,,,,,,,,,,,,,,,,,,,,,,,,,,,,,,,,,,,,,
1665769817.725140,1665769817.725668,111.000000,0.000000,4315.256348,4308.333496,4319.743652,4317.436035,4314.102539,4310.384766,4311.410156,4309.102539,4298.077148,4284.615234,4468.077148,4471.025879,4361.153809,4438.717773,2518.000000,3.000000,56.000000,,,,0.000000,4.000000,4.000000,4.000000,4.000000,4.000000,4.000000,4.000000,4.000000,4.000000,4.000000,4.000000,4.000000,4.000000,4.000000,100.000000,,,,,,,,,,,,,,,,,,,,,,,,,,,,,,,,,,,,,,,,,,,,,,,
1665769817.732949,1665769817.733377,112.000000,0.000000,4329.230957,4321.922852,4336.025879,4330.769043,4320.000000,4311.538574,4313.333496,4322.692383,4312.436035,4300.769043,4490.256348,4473.717773,4388.333496,4453.077148,3047.000000,3.000000,56.000000,,,,0.000000,4.000000,4.000000,4.000000,4.000000,4.000000,4.000000,4.000000,4.000000,4.000000,4.000000,4.000000,4.000000,4.000000,4.000000,100.000000,,,,,,,,,,,,,,,,,,,,,,,,,,,,,,,,,,,,,,,,,,,,,,,
1665769817.740757,1665769817.741185,113.000000,0.000000,4333.333496,4324.743652,4332.436035,4335.769043,4320.641113,4311.025879,4316.282227,4327.307617,4315.000000,4307.179688,4498.077148,4477.179688,4402.179688,4456.025879,1429.000000,3.000000,56.000000,,,,0.000000,4.000000,4.000000,4.000000,4.000000,4.000000,4.000000,4.000000,4.000000,4.000000,4.000000,4.000000,4.000000,4.000000,4.000000,100.000000,,,,,,,,,,,,,,,,,,,,,,,,,,,,,,,,,,,,,,,,,,,,,,,
1665769817.748566,1665769817.748894,114.000000,0.000000,4335.256348,4320.769043,4325.384766,4334.743652,4313.717773,4313.333496,4315.512695,4323.461426,4314.871582,4311.025879,4494.358887,4477.948730,4398.077148,4455.256348,2717.000000,3.000000,56.000000,,,,0.000000,4.000000,4.000000,4.000000,4.000000,4.000000,4.000000,4.000000,4.000000,4.000000,4.000000,4.000000,4.000000,4.000000,4.000000,100.000000,,,,,,,,,,,,,,,,,,,,,,,,,,,,,,,,,,,,,,,,,,,,,,,
1665769817.756374,1665769817.756802,115.000000,0.000000,4337.563965,4317.820313,4330.512695,4335.512695,4301.538574,4314.615234,4311.282227,4322.307617,4320.384766,4313.717773,4493.717773,4476.282227,4395.769043,4453.974121,2518.000000,3.000000,56.000000,,,,0.000000,4.000000,4.000000,4.000000,4.000000,4.000000,4.000000,4.000000,4.000000,4.000000,4.000000,4.000000,4.000000,4.000000,4.000000,100.000000,,,,,,,,,,,,,,,,,,,,,,,,,,,,,,,,,,,,,,,,,,,,,,,
1665769817.764182,1665769817.764611,116.000000,0.000000,4331.794922,4311.538574,4327.948730,4323.205078,4298.461426,4311.666504,4307.436035,4322.948730,4313.974121,4311.538574,4493.077148,4474.487305,4395.641113,4447.563965,3047.000000,3.000000,56.000000,,,,0.000000,4.000000,4.000000,4.000000,4.000000,4.000000,4.000000,4.000000,4.000000,4.000000,4.000000,4.000000,4.000000,4.000000,4.000000,100.000000,,,,,,,,,,,,,,,,,,,,,,,,,,,,,,,,,,,,,,,,,,,,,,,
1665769817.771991,1665769817.772519,117.000000,0.000000,4325.384766,4307.051270,4315.769043,4311.794922,4308.974121,4310.512695,4309.230957,4323.717773,4309.230957,4308.205078,4489.102539,4476.794922,4392.692383,4443.589844,1429.000000,3.000000,56.000000,,,,0.000000,4.000000,4.000000,4.000000,4.000000,4.000000,4.000000,4.000000,4.000000,4.000000,4.000000,4.000000,4.000000,4.000000,4.000000,100.000000,,,,,,,,,,,,,,,,,,,,,,,,,,,,,,,,,,,,,,,,,,,,,,,
1665769817.779799,1665769817.780327,118.000000,0.000000,4323.974121,4309.487305,4312.179688,4317.692383,4314.871582,4309.743652,4311.410156,4321.282227,4312.307617,4303.205078,4482.051270,4475.897461,4392.948730,4442.563965,2717.000000,3.000000,56.000000,,,,0.000000,4.000000,4.000000,4.000000,4.000000,4.000000,4.000000,4.000000,4.000000,4.000000,4.000000,4.000000,4.000000,4.000000,4.000000,100.000000,,,,,,,,,,,,,,,,,,,,,,,,,,,,,,,,,,,,,,,,,,,,,,,
1665769817.787608,1665769817.788136,119.000000,0.000000,4317.436035,4308.333496,4309.743652,4318.846191,4311.282227,4303.461426,4304.358887,4313.333496,4301.794922,4295.769043,4472.692383,4472.948730,4388.589844,4441.538574,2518.000000,3.000000,56.000000,,,,0.000000,4.000000,4.000000,4.000000,4.000000,4.000000,4.000000,4.000000,4.000000,4.000000,4.000000,4.000000,4.000000,4.000000,4.000000,100.000000,,,,,,,,,,,,,,,,,,,,,,,,,,,,,,,,,,,,,,,,,,,,,,,
1665769817.795416,1665769817.795844,120.000000,0.000000,4314.358887,4306.153809,4309.743652,4317.820313,4311.282227,4294.230957,4294.743652,4309.743652,4289.871582,4292.563965,4476.922852,4474.615234,4379.230957,4440.512695,3047.000000,3.000000,56.000000,,,,0.000000,4.000000,4.000000,4.000000,4.000000,4.000000,4.000000,4.000000,4.000000,4.000000,4.000000,4.000000,4.000000,4.000000,4.000000,100.000000,,,,,,,,,,,,,,,,,,,,,,,,,,,,,,,,,,,,,,,,,,,,,,,
1665769817.803224,1665769817.803753,121.000000,0.000000,4324.230957,4310.897461,4320.512695,4330.256348,4312.563965,4296.025879,4296.538574,4315.384766,4296.538574,4297.051270,4489.743652,4478.846191,4384.871582,4443.717773,1429.000000,3.000000,56.000000,,,,0.000000,4.000000,4.000000,4.000000,4.000000,4.000000,4.000000,4.000000,4.000000,4.000000,4.000000,4.000000,4.000000,4.000000,4.000000,100.000000,,,,,,,,,,,,,,,,,,,,,,,,,,,,,,,,,,,,,,,,,,,,,,,
1665769817.811033,1665769817.811561,122.000000,0.000000,4329.743652,4313.461426,4326.025879,4335.256348,4312.179688,4305.128418,4303.461426,4320.641113,4306.282227,4297.307617,4494.743652,4481.410156,4395.512695,4448.461426,2717.000000,3.000000,56.000000,,,,0.000000,4.000000,4.000000,4.000000,4.000000,4.000000,4.000000,4.000000,4.000000,4.000000,4.000000,4.000000,4.000000,4.000000,4.000000,100.000000,,,,,,,,,,,,,,,,,,,,,,,,,,,,,,,,,,,,,,,,,,,,,,,
1665769817.818841,1665769817.819470,123.000000,0.000000,4318.205078,4309.102539,4318.846191,4323.717773,4310.000000,4303.461426,4305.000000,4318.205078,4302.307617,4290.384766,4489.230957,4481.153809,4389.102539,4447.307617,2518.000000,3.000000,56.000000,,,,0.000000,4.000000,4.000000,4.000000,4.000000,4.000000,4.000000,4.000000,4.000000,4.000000,4.000000,4.000000,4.000000,4.000000,4.000000,100.000000,,,,,,,,,,,,,,,,,,,,,,,,,,,,,,,,,,,,,,,,,,,,,,,
1665769817.826650,1665769817.827278,124.000000,0.000000,4314.743652,4307.948730,4316.538574,4321.922852,4305.256348,4297.051270,4304.230957,4315.384766,4299.102539,4290.384766,4482.051270,4481.153809,4380.384766,4443.461426,3047.000000,3.000000,56.000000,,,,0.000000,4.000000,4.000000,4.000000,4.000000,4.000000,4.000000,4.000000,4.000000,4.000000,4.000000,4.000000,4.000000,4.000000,4.000000,100.000000,,,,,,,,,,,,,,,,,,,,,,,,,,,,,,,,,,,,,,,,,,,,,,,
1665769817.834458,1665769817.835186,125.000000,0.000000,4320.769043,4314.615234,4320.000000,4327.948730,4311.538574,4296.153809,4298.846191,4313.461426,4301.282227,4292.563965,4478.205078,4478.846191,4381.153809,4442.179688,1429.000000,3.000000,56.000000,,,,0.000000,4.000000,4.000000,4.000000,4.000000,4.000000,4.000000,4.000000,4.000000,4.000000,4.000000,4.000000,4.000000,4.000000,4.000000,100.000000,,,,,,,,,,,,,,,,,,,,,,,,,,,,,,,,,,,,,,,,,,,,,,,
1665769817.842266,1665769817.842995,126.000000,0.000000,4313.846191,4309.487305,4313.333496,4320.256348,4317.436035,4291.666504,4291.153809,4305.000000,4298.205078,4285.256348,4471.153809,4472.307617,4377.307617,4436.410156,2717.000000,3.000000,56.000000,,,,0.000000,4.000000,4.000000,4.000000,4.000000,4.000000,4.000000,4.000000,4.000000,4.000000,4.000000,4.000000,4.000000,4.000000,4.000000,100.000000,,,,,,,,,,,,,,,,,,,,,,,,,,,,,,,,,,,,,,,,,,,,,,,
1665769817.850075,1665769817.850903,127.000000,0.000000,4307.179688,4298.205078,4305.512695,4309.102539,4308.974121,4290.897461,4291.153809,4296.025879,4293.589844,4278.205078,4459.102539,4466.922852,4367.563965,4427.563965,56.000000,3.000000,56.000000,,,,0.000000,4.000000,4.000000,4.000000,4.000000,4.000000,4.000000,4.000000,4.000000,4.000000,4.000000,4.000000,4.000000,4.000000,4.000000,100.000000,,,,,,,,,,,,,,,,,,,,,,,,,,,,,,,,,,,,,,,,,,,,,,,
1665769817.857883,1665769817.858712,0.000000,0.000000,4311.922852,4302.820313,4307.179688,4309.871582,4307.436035,4300.384766,4293.589844,4294.487305,4290.769043,4276.282227,4451.794922,4464.743652,4364.615234,4427.051270,2469.000000,3.000000,56.000000,,,,0.000000,4.000000,4.000000,4.000000,4.000000,4.000000,4.000000,4.000000,4.000000,4.000000,4.000000,4.000000,4.000000,4.000000,4.000000,100.000000,,,,,,,,,,,,,,,,,,,,,,,,,,,,,,,,,,,,,,,,,,,,,,,
1665769817.865692,1665769817.866620,1.000000,0.000000,4315.256348,4313.077148,4309.743652,4316.410156,4308.717773,4302.563965,4298.461426,4301.282227,4291.153809,4273.333496,4459.487305,4465.256348,4367.948730,4433.205078,2267.000000,3.000000,56.000000,,,,0.000000,4.000000,4.000000,4.000000,4.000000,4.000000,4.000000,4.000000,4.000000,4.000000,4.000000,4.000000,4.000000,4.000000,4.000000,100.000000,,,,,,,,,,,,,,,,,,,,,,,,,,,,,,,,,,,,,,,,,,,,,,,
1665769817.873500,1665769817.874528,2.000000,0.000000,4314.487305,4310.000000,4312.563965,4319.358887,4297.179688,4300.128418,4305.512695,4308.717773,4295.512695,4276.922852,4467.179688,4464.871582,4372.948730,4434.487305,2381.000000,3.000000,56.000000,,,,0.000000,4.000000,4.000000,4.000000,4.000000,4.000000,4.000000,4.000000,4.000000,4.000000,4.000000,4.000000,4.000000,4.000000,4.000000,100.000000,,,,,,,,,,,,,,,,,,,,,,,,,,,,,,,,,,,,,,,,,,,,,,,
1665769817.881308,1665769817.882337,3.000000,0.000000,4317.948730,4301.025879,4319.102539,4319.743652,4298.077148,4307.563965,4308.846191,4310.384766,4295.384766,4277.948730,4466.538574,4466.794922,4372.820313,4436.538574,2376.000000,3.000000,56.000000,,,,0.000000,4.000000,4.000000,4.000000,4.000000,4.000000,4.000000,4.000000,4.000000,4.000000,4.000000,4.000000,4.000000,4.000000,4.000000,100.000000,,,,,,,,,,,,,,,,,,,,,,,,,,,,,,,,,,,,,,,,,,,,,,,
1665769817.889117,1665769817.890145,4.000000,0.000000,4322.307617,4300.000000,4319.615234,4318.589844,4313.846191,4305.000000,4306.922852,4308.717773,4290.641113,4269.487305,4469.615234,4467.948730,4371.410156,4437.948730,2364.000000,3.000000,56.000000,,,,0.000000,4.000000,4.000000,4.000000,4.000000,4.000000,4.000000,4.000000,4.000000,4.000000,4.000000,4.000000,4.000000,4.000000,4.000000,100.000000,,,,,,,,,,,,,,,,,,,,,,,,,,,,,,,,,,,,,,,,,,,,,,,
1665769817.896925,1665769817.897854,5.000000,0.000000,4318.205078,4302.820313,4312.948730,4315.384766,4313.077148,4294.102539,4303.205078,4307.563965,4292.436035,4271.666504,4475.000000,4467.820313,4376.410156,4435.000000,2406.000000,3.000000,56.000000,,,,0.000000,4.000000,4.000000,4.000000,4.000000,4.000000,4.000000,4.000000,4.000000,4.000000,4.000000,4.000000,4.000000,4.000000,4.000000,100.000000,,,,,,,,,,,,,,,,,,,,,,,,,,,,,,,,,,,,,,,,,,,,,,,
1665769817.904734,1665769817.905662,6.000000,0.000000,4311.922852,4304.743652,4310.641113,4320.512695,4306.794922,4300.256348,4303.461426,4311.410156,4298.461426,4282.820313,4474.230957,4467.948730,4382.563965,4434.743652,2244.000000,3.000000,56.000000,,,,0.000000,4.000000,4.000000,4.000000,4.000000,4.000000,4.000000,4.000000,4.000000,4.000000,4.000000,4.000000,4.000000,4.000000,4.000000,100.000000,,,,,,,,,,,,,,,,,,,,,,,,,,,,,,,,,,,,,,,,,,,,,,,
1665769817.912542,1665769817.913371,7.000000,0.000000,4312.692383,4304.615234,4310.512695,4325.128418,4309.487305,4308.974121,4302.436035,4309.743652,4296.025879,4283.205078,4464.230957,4466.153809,4382.436035,4432.692383,2401.000000,3.000000,56.000000,,,,0.000000,4.000000,4.000000,4.000000,4.000000,4.000000,4.000000,4.000000,4.000000,4.000000,4.000000,4.000000,4.000000,4.000000,4.000000,100.000000,,,,,,,,,,,,,,,,,,,,,,,,,,,,,,,,,,,,,,,,,,,,,,,
1665769817.920350,1665769817.921179,8.000000,0.000000,4318.846191,4305.128418,4309.743652,4321.666504,4310.384766,4301.410156,4297.820313,4301.666504,4295.384766,4278.333496,4457.948730,4465.128418,4377.436035,4428.205078,2326.000000,3.000000,56.000000,1,1,1,0.000000,4.000000,4.000000,4.000000,4.000000,4.000000,4.000000,4.000000,4.000000,4.000000,4.000000,4.000000,4.000000,4.000000,4.000000,100.000000,,,,,,,,,,,,,,,,,,,,,,,,,,,,,,,,,,,,,,,,,,,,,,,
1665769817.928159,1665769817.928888,9.000000,0.000000,4322.692383,4303.974121,4313.974121,4321.666504,4311.666504,4293.333496,4291.666504,4299.487305,4296.282227,4277.948730,4461.794922,4466.794922,4372.820313,4430.641113,2369.000000,3.000000,56.000000,,,,0.000000,4.000000,4.000000,4.000000,4.000000,4.000000,4.000000,4.000000,4.000000,4.000000,4.000000,4.000000,4.000000,4.000000,4.000000,100.000000,,,,,,,,,,,,,,,,,,,,,,,,,,,,,,,,,,,,,,,,,,,,,,,
1665769817.935967,1665769817.936696,10.000000,0.000000,4317.692383,4301.922852,4307.948730,4320.512695,4307.563965,4288.461426,4285.000000,4298.461426,4286.153809,4276.410156,4463.077148,4464.615234,4374.230957,4432.820313,2728.000000,3.000000,56.000000,,,,0.000000,4.000000,4.000000,4.000000,4.000000,4.000000,4.000000,4.000000,4.000000,4.000000,4.000000,4.000000,4.000000,4.000000,4.000000,100.000000,,,,,,,,,,,,,,,,,,,,,,,,,,,,,,,,,,,,,,,,,,,,,,,
1665769817.943776,1665769817.944405,11.000000,0.000000,4309.230957,4296.282227,4296.410156,4318.205078,4291.025879,4281.410156,4278.077148,4294.230957,4281.282227,4276.025879,4461.666504,4461.922852,4375.769043,4426.666504,2536.000000,3.000000,56.000000,,,,0.000000,4.000000,4.000000,4.000000,4.000000,4.000000,4.000000,4.000000,4.000000,4.000000,4.000000,4.000000,4.000000,4.000000,4.000000,100.000000,,,,,,,,,,,,,,,,,,,,,,,,,,,,,,,,,,,,,,,,,,,,,,,
1665769817.951584,1665769817.952213,12.000000,0.000000,4306.922852,4283.717773,4303.717773,4320.256348,4286.666504,4284.615234,4280.769043,4297.051270,4289.743652,4278.333496,4465.000000,4467.563965,4373.846191,4425.769043,3086.000000,3.000000,56.000000,,,,0.000000,4.000000,4.000000,4.000000,4.000000,4.000000,4.000000,4.000000,4.000000,4.000000,4.000000,4.000000,4.000000,4.000000,4.000000,100.000000,,,,,,,,,,,,,,,,,,,,,,,,,,,,,,,,,,,,,,,,,,,,,,,
1665769817.959392,1665769817.959922,13.000000,0.000000,4306.922852,4282.563965,4314.743652,4314.358887,4304.487305,4296.538574,4291.153809,4300.641113,4289.230957,4275.769043,4464.102539,4469.358887,4371.153809,4426.666504,1426.000000,3.000000,56.000000,,,,0.000000,4.000000,4.000000,4.000000,4.000000,4.000000,4.000000,4.000000,4.000000,4.000000,4.000000,4.000000,4.000000,4.000000,4.000000,100.000000,,,,,,,,,,,,,,,,,,,,,,,,,,,,,,,,,,,,,,,,,,,,,,,
1665769817.967201,1665769817.967730,14.000000,0.000000,4304.615234,4297.051270,4311.538574,4310.128418,4316.666504,4299.230957,4290.641113,4297.307617,4281.025879,4273.333496,4462.051270,4467.563965,4367.436035,4423.333496,2728.000000,3.000000,56.000000,,,,0.000000,4.000000,4.000000,4.000000,4.000000,4.000000,4.000000,4.000000,4.000000,4.000000,4.000000,4.000000,4.000000,4.000000,4.000000,100.000000,,,,,,,,,,,,,,,,,,,,,,,,,,,,,,,,,,,,,,,,,,,,,,,
1665769817.975009,1665769817.975439,15.000000,0.000000,4304.230957,4303.461426,4310.897461,4323.974121,4311.922852,4291.794922,4289.230957,4300.128418,4283.461426,4276.025879,4472.051270,4474.871582,4368.461426,4426.025879,2536.000000,3.000000,56.000000,,,,0.000000,4.000000,4.000000,4.000000,4.000000,4.000000,4.000000,4.000000,4.000000,4.000000,4.000000,4.000000,4.000000,4.000000,4.000000,100.000000,,,,,,,,,,,,,,,,,,,,,,,,,,,,,,,,,,,,,,,,,,,,,,,
1665769817.982818,1665769817.983247,16.000000,0.000000,4303.846191,4298.717773,4312.692383,4329.358887,4308.717773,4286.794922,4295.256348,4306.025879,4291.538574,4277.179688,4476.282227,4477.563965,4377.563965,4429.102539,0.000000,3.000000,56.000000,,,,0.000000,4.000000,4.000000,4.000000,4.000000,4.000000,4.000000,4.000000,4.000000,4.000000,4.000000,4.000000,4.000000,4.000000,4.000000,100.000000,,,,,,,,,,,,,,,,,,,,,,,,,,,,,,,,,,,,,,,,,,,,,,,
1665769817.990626,1665769817.990956,17.000000,0.000000,4306.410156,4306.538574,4307.563965,4322.563965,4311.282227,4289.358887,4295.641113,4305.128418,4294.743652,4280.256348,4471.794922,4469.615234,4383.077148,4427.820313,0.000000,3.000000,56.000000,,,,0.000000,4.000000,4.000000,4.000000,4.000000,4.000000,4.000000,4.000000,4.000000,4.000000,4.000000,4.000000,4.000000,4.000000,4.000000,100.000000,,,,,,,,,,,,,,,,,,,,,,,,,,,,,,,,,,,,,,,,,,,,,,,
1665769817.998434,1665769817.998864,18.000000,0.000000,4314.871582,4314.871582,4310.128418,4327.692383,4306.538574,4290.769043,4294.102539,4305.384766,4297.692383,4287.179688,4477.563965,4468.974121,4382.051270,4432.179688,0.000000,3.000000,56.000000,,,,0.000000,4.000000,4.000000,4.000000,4.000000,4.000000,4.000000,4.000000,4.000000,4.000000,4.000000,4.000000,4.000000,4.000000,4.000000,100.000000,,,,,,,,,,,,,,,,,,,,,,,,,,,,,,,,,,,,,,,,,,,,,,,
1665769818.006243,1665769818.006672,19.000000,0.000000,4316.666504,4302.948730,4313.205078,4323.461426,4295.000000,4285.769043,4295.897461,4303.717773,4299.487305,4285.512695,4479.230957,4471.410156,4382.692383,4433.589844,0.000000,3.000000,56.000000,,,,0.000000,4.000000,4.000000,4.000000,4.000000,4.000000,4.000000,4.000000,4.000000,4.000000,4.000000,4.000000,4.000000,4.000000,4.000000,100.000000,,,,,,,,,,,,,,,,,,,,,,,,,,,,,,,,,,,,,,,,,,,,,,,
1665769818.014051,1665769818.014581,20.000000,0.000000,4309.743652,4293.846191,4303.846191,4309.102539,4291.282227,4280.512695,4288.589844,4298.077148,4295.512695,4278.461426,4470.641113,4462.948730,4383.205078,4427.179688,0.000000,3.000000,56.000000,,,,0.000000,4.000000,4.000000,4.000000,4.000000,4.000000,4.000000,4.000000,4.000000,4.000000,4.000000,4.000000,4.000000,4.000000,4.000000,100.000000,,,,,,,,,,,,,,,,,,,,,,,,,,,,,,,,,,,,,,,,,,,,,,,
1665769818.021860,1665769818.022389,21.000000,0.000000,4301.922852,4294.358887,4295.512695,4310.512695,4295.128418,4280.000000,4279.871582,4295.128418,4289.615234,4279.487305,4466.922852,4455.641113,4379.102539,4425.256348,0.000000,3.000000,56.000000,,,,0.000000,4.000000,4.000000,4.000000,4.000000,4.000000,4.000000,4.000000,4.000000,4.000000,4.000000,4.000000,4.000000,4.000000,4.000000,100.000000,,,,,,,,,,,,,,,,,,,,,,,,,,,,,,,,,,,,,,,,,,,,,,,
1665769818.029668,1665769818.030298,22.000000,0.000000,4293.333496,4285.256348,4288.717773,4310.000000,4298.205078,4285.128418,4286.410156,4295.769043,4287.948730,4279.102539,4460.897461,4455.641113,4375.897461,4421.666504,0.000000,3.000000,56.000000,,,,0.000000,4.000000,4.000000,4.000000,4.000000,4.000000,4.000000,4.000000,4.000000,4.000000,4.000000,4.000000,4.000000,4.000000,4.000000,100.000000,,,,,,,,,,,,,,,,,,,,,,,,,,,,,,,,,,,,,,,,,,,,,,,
1665769818.037476,1665769818.038106,23.000000,0.000000,4289.615234,4275.512695,4283.846191,4303.333496,4296.282227,4288.589844,4290.641113,4291.666504,4286.153809,4267.820313,4453.717773,4453.333496,4373.461426,4413.461426,0.000000,3.000000,56.000000,,,,0.000000,4.000000,4.000000,4.000000,4.000000,4.000000,4.000000,4.000000,4.000000,4.000000,4.000000,4.000000,4.000000,4.000000,4.000000,100.000000,,,,,,,,,,,,,,,,,,,,,,,,,,,,,,,,,,,,,,,,,,,,,,,
1665769818.045285,1665769818.046014,24.000000,0.000000,4296.666504,4287.820313,4292.179688,4312.307617,4296.282227,4283.589844,4283.461426,4284.230957,4280.641113,4264.102539,4457.692383,4448.461426,4366.666504,4414.102539,0.000000,3.000000,56.000000,,,,0.000000,4.000000,4.000000,4.000000,4.000000,4.000000,4.000000,4.000000,4.000000,4.000000,4.000000,4.000000,4.000000,4.000000,4.000000,100.000000,,,,,,,,,,,,,,,,,,,,,,,,,,,,,,,,,,,,,,,,,,,,,,,
1665769818.053093,1665769818.053823,25.000000,0.000000,4306.282227,4298.846191,4303.846191,4322.820313,4305.000000,4279.230957,4278.333496,4286.153809,4279.615234,4273.846191,4460.769043,4450.897461,4367.307617,4417.051270,0.000000,3.000000,56.000000,,,,0.000000,4.000000,4.000000,4.000000,4.000000,4.000000,4.000000,4.000000,4.000000,4.000000,4.000000,4.000000,4.000000,4.000000,4.000000,100.000000,,,,,,,,,,,,,,,,,,,,,,,,,,,,,,,,,,,,,,,,,,,,,,,
1665769818.060902,1665769818.061731,26.000000,0.000000,4312.692383,4297.436035,4304.871582,4324.230957,4312.948730,4290.000000,4283.717773,4297.948730,4286.538574,4281.922852,4458.205078,4461.538574,4379.487305,4419.871582,0.000000,3.000000,56.000000,,,,0.000000,4.000000,4.000000,4.000000,4.000000,4.000000,4.000000,4.000000,4.000000,4.000000,4.000000,4.000000,4.000000,4.000000,4.000000,100.000000,,,,,,,,,,,,,,,,,,,,,,,,,,,,,,,,,,,,,,,,,,,,,,,
1665769818.068710,1665769818.069540,27.000000,0.000000,4306.922852,4293.974121,4302.307617,4327.179688,4312.179688,4299.358887,4294.102539,4300.641113,4286.153809,4282.179688,4461.282227,4466.410156,4380.897461,4422.563965,0.000000,3.000000,56.000000,,,,0.000000,4.000000,4.000000,4.000000,4.000000,4.000000,4.000000,4.000000,4.000000,4.000000,4.000000,4.000000,4.000000,4.000000,4.000000,100.000000,,,,,,,,,,,,,,,,,,,,,,,,,,,,,,,,,,,,,,,,,,,,,,,
1665769818.076518,1665769818.077248,28.000000,0.000000,4294.743652,4287.179688,4293.333496,4318.717773,4304.358887,4289.487305,4294.230957,4295.384766,4281.410156,4277.692383,4463.333496,4458.846191,4369.230957,4417.436035,0.000000,3.000000,56.000000,,,,0.000000,4.000000,4.000000,4.000000,4.000000,4.000000,4.000000,4.000000,4.000000,4.000000,4.000000,4.000000,4.000000,4.000000,4.000000,100.000000,,,,,,,,,,,,,,,,,,,,,,,,,,,,,,,,,,,,,,,,,,,,,,,
1665769818.084327,1665769818.085057,29.000000,0.000000,4290.897461,4280.000000,4283.717773,4302.436035,4296.153809,4281.410156,4286.282227,4299.871582,4288.589844,4277.692383,4462.051270,4456.282227,4368.333496,4411.025879,0.000000,3.000000,56.000000,,,,0.000000,4.000000,4.000000,4.000000,4.000000,4.000000,4.000000,4.000000,4.000000,4.000000,4.000000,4.000000,4.000000,4.000000,4.000000,100.000000,1.000000,100.000000,4.000000,4.000000,4.000000,4.000000,4.000000,4.000000,4.000000,4.000000,4.000000,4.000000,4.000000,4.000000,4.000000,4.000000,1.000000,0.520290,-0.448622,-1.310085,0.680194,1.000000,0.106082,4.072006,3.074794,12.475170,0.178445,1.000000,0.272949,35.042522,-90.594193,322.606110,1.000000,0.135129,0.129226,0.076462,0.279770,1.000000,0.330934,4.030586,-4.612155,20.204208,1.000000,0.377221,0.377221,0.000000,1.000000
1665769818.092135,1665769818.092765,30.000000,0.000000,4290.128418,4279.615234,4288.589844,4303.461426,4293.077148,4281.282227,4284.615234,4306.666504,4297.436035,4280.769043,4463.974121,4461.666504,4372.179688,4411.666504,0.000000,3.000000,56.000000,,,,0.000000,4.000000,4.000000,4.000000,4.000000,4.000000,4.000000,4.000000,4.000000,4.000000,4.000000,4.000000,4.000000,4.000000,4.000000,100.000000,,,,,,,,,,,,,,,,,,,,,,,,,,,,,,,,,,,,,,,,,,,,,,,
1665769818.099944,1665769818.100574,31.000000,0.000000,4288.077148,4280.000000,4290.512695,4310.384766,4294.743652,4277.563965,4286.153809,4306.282227,4294.871582,4277.692383,4463.717773,4460.897461,4366.410156,4413.333496,0.000000,3.000000,56.000000,,,,0.000000,4.000000,4.000000,4.000000,4.000000,4.000000,4.000000,4.000000,4.000000,4.000000,4.000000,4.000000,4.000000,4.000000,4.000000,100.000000,,,,,,,,,,,,,,,,,,,,,,,,,,,,,,,,,,,,,,,,,,,,,,,
1665769818.107752,1665769818.108282,32.000000,0.000000,4290.128418,4282.051270,4289.743652,4310.897461,4299.487305,4282.051270,4287.948730,4306.538574,4294.102539,4276.410156,4460.000000,4457.436035,4364.358887,4414.358887,0.000000,3.000000,56.000000,,,,0.000000,4.000000,4.000000,4.000000,4.000000,4.000000,4.000000,4.000000,4.000000,4.000000,4.000000,4.000000,4.000000,4.000000,4.000000,100.000000,,,,,,,,,,,,,,,,,,,,,,,,,,,,,,,,,,,,,,,,,,,,,,,
1665769818.115560,1665769818.116091,33.000000,0.000000,4294.743652,4286.666504,4300.512695,4313.333496,4300.897461,4294.743652,4294.230957,4307.692383,4298.589844,4277.948730,4462.179688,4462.692383,4367.436035,4420.769043,0.000000,3.000000,56.000000,,,,0.000000,4.000000,4.000000,4.000000,4.000000,4.000000,4.000000,4.000000,4.000000,4.000000,4.000000,4.000000,4.000000,4.000000,4.000000,100.000000,,,,,,,,,,,,,,,,,,,,,,,,,,,,,,,,,,,,,,,,,,,,,,,
1665769818.123369,1665769818.123799,34.000000,0.000000,4296.410156,4285.384766,4305.769043,4313.846191,4300.512695,4289.743652,4297.051270,4304.615234,4287.179688,4272.179688,4462.436035,4466.282227,4362.051270,4421.666504,0.000000,3.000000,56.000000,,,,0.000000,4.000000,4.000000,4.000000,4.000000,4.000000,4.000000,4.000000,4.000000,4.000000,4.000000,4.000000,4.000000,4.000000,4.000000,100.000000,,,,,,,,,,,,,,,,,,,,,,,,,,,,,,,,,,,,,,,,,,,,,,,
1665769818.131177,1665769818.131608,35.000000,0.000000,4295.897461,4281.025879,4298.077148,4308.974121,4295.641113,4277.948730,4290.000000,4300.128418,4273.974121,4262.563965,4450.384766,4460.897461,4353.333496,4414.743652,0.000000,3.000000,56.000000,,,,0.000000,4.000000,4.000000,4.000000,4.000000,4.000000,4.000000,4.000000,4.000000,4.000000,4.000000,4.000000,4.000000,4.000000,4.000000,100.000000,,,,,,,,,,,,,,,,,,,,,,,,,,,,,,,,,,,,,,,,,,,,,,,
1665769818.138986,1665769818.139316,36.000000,0.000000,4295.256348,4282.563965,4296.410156,4308.077148,4283.589844,4284.102539,4286.666504,4302.051270,4286.922852,4262.692383,4450.000000,4459.487305,4356.025879,4413.205078,0.000000,3.000000,56.000000,,,,0.000000,4.000000,4.000000,4.000000,4.000000,4.000000,4.000000,4.000000,4.000000,4.000000,4.000000,4.000000,4.000000,4.000000,4.000000,100.000000,,,,,,,,,,,,,,,,,,,,,,,,,,,,,,,,,,,,,,,,,,,,,,,
1665769818.146794,1665769818.147125,37.000000,0.000000,4295.000000,4281.538574,4299.615234,4310.641113,4281.922852,4293.846191,4293.333496,4307.692383,4301.153809,4272.307617,4463.846191,4461.794922,4365.128418,4416.282227,0.000000,3.000000,56.000000,,,,0.000000,4.000000,4.000000,4.000000,4.000000,4.000000,4.000000,4.000000,4.000000,4.000000,4.000000,4.000000,4.000000,4.000000,4.000000,100.000000,,,,,,,,,,,,,,,,,,,,,,,,,,,,,,,,,,,,,,,,,,,,,,,
1665769818.154602,1665769818.154833,38.000000,0.000000,4294.743652,4282.051270,4294.358887,4307.179688,4300.641113,4295.384766,4298.461426,4310.897461,4297.692383,4281.794922,4466.410156,4459.487305,4368.333496,4416.410156,0.000000,3.000000,56.000000,,,,0.000000,4.000000,4.000000,4.000000,4.000000,4.000000,4.000000,4.000000,4.000000,4.000000,4.000000,4.000000,4.000000,4.000000,4.000000,100.000000,,,,,,,,,,,,,,,,,,,,,,,,,,,,,,,,,,,,,,,,,,,,,,,
1665769818.162411,1665769818.162741,39.000000,0.000000,4293.205078,4286.922852,4291.282227,4302.307617,4310.384766,4291.794922,4298.205078,4310.000000,4296.410156,4284.743652,4458.974121,4456.282227,4366.025879,4415.000000,0.000000,3.000000,56.000000,,,,0.000000,4.000000,4.000000,4.000000,4.000000,4.000000,4.000000,4.000000,4.000000,4.000000,4.000000,4.000000,4.000000,4.000000,4.000000,100.000000,,,,,,,,,,,,,,,,,,,,,,,,,,,,,,,,,,,,,,,,,,,,,,,
1665769818.170219,1665769818.170550,40.000000,0.000000,4298.205078,4286.666504,4293.974121,4304.230957,4293.846191,4288.077148,4293.974121,4306.153809,4300.512695,4274.487305,4456.666504,4453.974121,4363.461426,4416.153809,0.000000,3.000000,56.000000,,,,0.000000,4.000000,4.000000,4.000000,4.000000,4.000000,4.000000,4.000000,4.000000,4.000000,4.000000,4.000000,4.000000,4.000000,4.000000,100.000000,,,,,,,,,,,,,,,,,,,,,,,,,,,,,,,,,,,,,,,,,,,,,,,
1665769818.178028,1665769818.178358,41.000000,0.000000,4309.358887,4284.871582,4296.922852,4309.358887,4289.743652,4291.153809,4293.205078,4306.538574,4297.563965,4269.871582,4461.922852,4455.641113,4367.820313,4418.846191,0.000000,3.000000,56.000000,,,,0.000000,4.000000,4.000000,4.000000,4.000000,4.000000,4.000000,4.000000,4.000000,4.000000,4.000000,4.000000,4.000000,4.000000,4.000000,100.000000,,,,,,,,,,,,,,,,,,,,,,,,,,,,,,,,,,,,,,,,,,,,,,,
1665769818.185836,1665769818.186067,42.000000,0.000000,4306.794922,4285.512695,4295.897461,4310.128418,4303.461426,4295.384766,4295.128418,4307.692383,4293.974121,4276.410156,4465.128418,4459.743652,4371.410156,4421.794922,0.000000,3.000000,56.000000,,,,0.000000,4.000000,4.000000,4.000000,4.000000,4.000000,4.000000,4.000000,4.000000,4.000000,4.000000,4.000000,4.000000,4.000000,4.000000,100.000000,,,,,,,,,,,,,,,,,,,,,,,,,,,,,,,,,,,,,,,,,,,,,,,
1665769818.193644,1665769818.193975,43.000000,0.000000,4292.563965,4280.641113,4291.666504,4309.102539,4302.307617,4294.358887,4296.025879,4301.410156,4288.717773,4270.769043,4456.025879,4455.384766,4362.051270,4415.256348,0.000000,3.000000,56.000000,,,,0.000000,4.000000,4.000000,4.000000,4.000000,4.000000,4.000000,4.000000,4.000000,4.000000,4.000000,4.000000,4.000000,4.000000,4.000000,100.000000,,,,,,,,,,,,,,,,,,,,,,,,,,,,,,,,,,,,,,,,,,,,,,,
1665769818.201453,1665769818.201784,44.000000,0.000000,4291.282227,4280.256348,4294.871582,4312.692383,4298.974121,4292.563965,4295.256348,4298.589844,4279.615234,4265.384766,4446.794922,4452.179688,4352.820313,4407.820313,0.000000,3.000000,56.000000,,,,0.000000,4.000000,4.000000,4.000000,4.000000,4.000000,4.000000,4.000000,4.000000,4.000000,4.000000,4.000000,4.000000,4.000000,4.000000,100.000000,,,,,,,,,,,,,,,,,,,,,,,,,,,,,,,,,,,,,,,,,,,,,,,
1665769818.209261,1665769818.209692,45.000000,0.000000,4299.230957,4289.615234,4301.282227,4315.128418,4310.512695,4294.871582,4293.333496,4304.230957,4282.563965,4270.512695,4454.102539,4462.307617,4356.282227,4414.743652,0.000000,3.000000,56.000000,,,,0.000000,4.000000,4.000000,4.000000,4.000000,4.000000,4.000000,4.000000,4.000000,4.000000,4.000000,4.000000,4.000000,4.000000,4.000000,100.000000,,,,,,,,,,,,,,,,,,,,,,,,,,,,,,,,,,,,,,,,,,,,,,,
1665769818.217070,1665769818.217500,46.000000,0.000000,4296.025879,4286.666504,4298.717773,4310.897461,4311.666504,4299.615234,4294.743652,4305.769043,4291.153809,4268.717773,4461.666504,4463.589844,4358.717773,4416.922852,0.000000,3.000000,56.000000,,,,0.000000,4.000000,4.000000,4.000000,4.000000,4.000000,4.000000,4.000000,4.000000,4.000000,4.000000,4.000000,4.000000,4.000000,4.000000,100.000000,,,,,,,,,,,,,,,,,,,,,,,,,,,,,,,,,,,,,,,,,,,,,,,
1665769818.224878,1665769818.225409,47.000000,0.000000,4290.641113,4273.846191,4293.717773,4310.384766,4295.897461,4298.717773,4298.717773,4305.384766,4290.641113,4264.743652,4458.333496,4452.948730,4355.000000,4407.051270,0.000000,3.000000,56.000000,,,,0.000000,4.000000,4.000000,4.000000,4.000000,4.000000,4.000000,4.000000,4.000000,4.000000,4.000000,4.000000,4.000000,4.000000,4.000000,100.000000,,,,,,,,,,,,,,,,,,,,,,,,,,,,,,,,,,,,,,,,,,,,,,,
1665769818.232686,1665769818.233217,48.000000,0.000000,4294.358887,4281.538574,4295.256348,4314.871582,4299.743652,4291.538574,4297.563965,4311.538574,4292.179688,4278.205078,4458.333496,4458.717773,4357.179688,4411.410156,0.000000,3.000000,56.000000,,,,0.000000,4.000000,4.000000,4.000000,4.000000,4.000000,4.000000,4.000000,4.000000,4.000000,4.000000,4.000000,4.000000,4.000000,4.000000,100.000000,,,,,,,,,,,,,,,,,,,,,,,,,,,,,,,,,,,,,,,,,,,,,,,
1665769818.240495,1665769818.241126,49.000000,0.000000,4296.922852,4298.077148,4296.794922,4313.205078,4312.563965,4294.871582,4296.025879,4315.000000,4300.512695,4285.000000,4463.333496,4468.589844,4361.794922,4424.615234,0.000000,3.000000,56.000000,,,,0.000000,4.000000,4.000000,4.000000,4.000000,4.000000,4.000000,4.000000,4.000000,4.000000,4.000000,4.000000,4.000000,4.000000,4.000000,100.000000,,,,,,,,,,,,,,,,,,,,,,,,,,,,,,,,,,,,,,,,,,,,,,,
1665769818.248303,1665769818.248934,50.000000,0.000000,4295.000000,4295.769043,4295.256348,4305.897461,4303.589844,4296.922852,4297.179688,4311.538574,4295.512695,4273.846191,4462.179688,4465.000000,4362.051270,4423.077148,0.000000,3.000000,56.000000,,,,0.000000,4.000000,4.000000,4.000000,4.000000,4.000000,4.000000,4.000000,4.000000,4.000000,4.000000,4.000000,4.000000,4.000000,4.000000,100.000000,,,,,,,,,,,,,,,,,,,,,,,,,,,,,,,,,,,,,,,,,,,,,,,
1665769818.256112,1665769818.256842,51.000000,0.000000,4296.538574,4285.512695,4297.051270,4307.436035,4293.461426,4285.769043,4295.000000,4309.358887,4287.692383,4273.974121,4457.820313,4459.871582,4363.846191,4422.820313,0.000000,3.000000,56.000000,,,,0.000000,4.000000,4.000000,4.000000,4.000000,4.000000,4.000000,4.000000,4.000000,4.000000,4.000000,4.000000,4.000000,4.000000,4.000000,100.000000,,,,,,,,,,,,,,,,,,,,,,,,,,,,,,,,,,,,,,,,,,,,,,,
1665769818.263920,1665769818.264651,52.000000,0.000000,4304.358887,4292.563965,4300.512695,4308.589844,4298.205078,4288.333496,4297.563965,4312.307617,4299.102539,4284.358887,4464.487305,4463.461426,4370.769043,4436.538574,0.000000,3.000000,56.000000,,,,0.000000,4.000000,4.000000,4.000000,4.000000,4.000000,4.000000,4.000000,4.000000,4.000000,4.000000,4.000000,4.000000,4.000000,4.000000,100.000000,,,,,,,,,,,,,,,,,,,,,,,,,,,,,,,,,,,,,,,,,,,,,,,
1665769818.271728,1665769818.272359,53.000000,0.000000,4303.846191,4297.307617,4297.179688,4299.230957,4299.487305,4300.128418,4304.230957,4313.717773,4306.922852,4285.384766,4475.512695,4466.538574,4375.897461,4440.256348,0.000000,3.000000,56.000000,,,,0.000000,4.000000,4.000000,4.000000,4.000000,4.000000,4.000000,4.000000,4.000000,4.000000,4.000000,4.000000,4.000000,4.000000,4.000000,100.000000,,,,,,,,,,,,,,,,,,,,,,,,,,,,,,,,,,,,,,,,,,,,,,,
1665769818.279537,1665769818.280168,54.000000,0.000000,4294.230957,4282.948730,4290.128418,4296.538574,4294.487305,4294.487305,4299.230957,4307.563965,4296.666504,4277.692383,4466.538574,4461.666504,4374.102539,4427.948730,0.000000,3.000000,56.000000,,,,0.000000,4.000000,4.000000,4.000000,4.000000,4.000000,4.000000,4.000000,4.000000,4.000000,4.000000,4.000000,4.000000,4.000000,4.000000,100.000000,,,,,,,,,,,,,,,,,,,,,,,,,,,,,,,,,,,,,,,,,,,,,,,
1665769818.287345,1665769818.287876,55.000000,0.000000,4297.051270,4278.717773,4295.000000,4306.025879,4297.436035,4289.615234,4296.282227,4305.769043,4294.615234,4275.897461,4454.358887,4455.512695,4372.820313,4423.589844,0.000000,3.000000,56.000000,,,,0.000000,4.000000,4.000000,4.000000,4.000000,4.000000,4.000000,4.000000,4.000000,4.000000,4.000000,4.000000,4.000000,4.000000,4.000000,100.000000,,,,,,,,,,,,,,,,,,,,,,,,,,,,,,,,,,,,,,,,,,,,,,,
1665769818.295154,1665769818.295685,56.000000,0.000000,4305.897461,4293.205078,4307.436035,4315.256348,4307.179688,4299.743652,4310.512695,4313.333496,4305.000000,4283.205078,4468.205078,4456.922852,4376.153809,4429.102539,0.000000,3.000000,56.000000,,,,0.000000,4.000000,4.000000,4.000000,4.000000,4.000000,4.000000,4.000000,4.000000,4.000000,4.000000,4.000000,4.000000,4.000000,4.000000,100.000000,,,,,,,,,,,,,,,,,,,,,,,,,,,,,,,,,,,,,,,,,,,,,,,
1665769818.302962,1665769818.303393,57.000000,0.000000,4300.128418,4299.743652,4303.974121,4315.512695,4309.487305,4301.153809,4312.692383,4316.025879,4303.077148,4283.717773,4475.000000,4459.102539,4371.922852,4426.025879,0.000000,3.000000,56.000000,,,,0.000000,4.000000,4.000000,4.000000,4.000000,4.000000,4.000000,4.000000,4.000000,4.000000,4.000000,4.000000,4.000000,4.000000,4.000000,100.000000,,,,,,,,,,,,,,,,,,,,,,,,,,,,,,,,,,,,,,,,,,,,,,,
1665769818.310770,1665769818.311202,58.000000,0.000000,4293.717773,4292.692383,4293.717773,4312.436035,4300.384766,4298.077148,4297.436035,4310.000000,4292.436035,4277.051270,4461.666504,4455.128418,4363.846191,4416.282227,0.000000,3.000000,56.000000,,,,0.000000,4.000000,4.000000,4.000000,4.000000,4.000000,4.000000,4.000000,4.000000,4.000000,4.000000,4.000000,4.000000,4.000000,4.000000,100.000000,,,,,,,,,,,,,,,,,,,,,,,,,,,,,,,,,,,,,,,,,,,,,,,
1665769818.318579,1665769818.318910,59.000000,0.000000,4306.282227,4291.538574,4296.538574,4311.153809,4303.846191,4308.205078,4296.922852,4309.615234,4292.692383,4281.666504,4466.025879,4457.692383,4371.538574,4419.102539,0.000000,3.000000,56.000000,,,,0.000000,4.000000,4.000000,4.000000,4.000000,4.000000,4.000000,4.000000,4.000000,4.000000,4.000000,4.000000,4.000000,4.000000,4.000000,100.000000,,,,,,,,,,,,,,,,,,,,,,,,,,,,,,,,,,,,,,,,,,,,,,,
1665769818.326387,1665769818.326819,60.000000,0.000000,4311.794922,4297.179688,4299.102539,4304.743652,4314.487305,4309.743652,4301.025879,4312.820313,4299.487305,4294.358887,4480.512695,4462.692383,4384.743652,4427.307617,0.000000,3.000000,56.000000,,,,0.000000,4.000000,4.000000,4.000000,4.000000,4.000000,4.000000,4.000000,4.000000,4.000000,4.000000,4.000000,4.000000,4.000000,4.000000,100.000000,,,,,,,,,,,,,,,,,,,,,,,,,,,,,,,,,,,,,,,,,,,,,,,
1665769818.334196,1665769818.334627,61.000000,0.000000,4301.922852,4297.436035,4294.102539,4298.589844,4304.487305,4297.307617,4290.769043,4304.871582,4299.487305,4295.128418,4472.692383,4459.615234,4383.974121,4427.307617,0.000000,3.000000,56.000000,,,,0.000000,4.000000,4.000000,4.000000,4.000000,4.000000,4.000000,4.000000,4.000000,4.000000,4.000000,4.000000,4.000000,4.000000,4.000000,100.000000,,,,,,,,,,,,,,,,,,,,,,,,,,,,,,,,,,,,,,,,,,,,,,,
1665769818.342004,1665769818.342536,62.000000,0.000000,4298.077148,4291.282227,4290.897461,4302.948730,4290.128418,4289.615234,4277.051270,4292.307617,4286.922852,4284.102539,4459.487305,4453.974121,4374.487305,4420.256348,0.000000,3.000000,56.000000,,,,0.000000,4.000000,4.000000,4.000000,4.000000,4.000000,4.000000,4.000000,4.000000,4.000000,4.000000,4.000000,4.000000,4.000000,4.000000,100.000000,,,,,,,,,,,,,,,,,,,,,,,,,,,,,,,,,,,,,,,,,,,,,,,
1665769818.349812,1665769818.350344,63.000000,0.000000,4303.333496,4289.230957,4294.615234,4312.436035,4295.000000,4294.102539,4280.384766,4293.589844,4280.641113,4280.641113,4461.410156,4456.025879,4368.077148,4419.615234,0.000000,3.000000,56.000000,,,,0.000000,4.000000,4.000000,4.000000,4.000000,4.000000,4.000000,4.000000,4.000000,4.000000,4.000000,4.000000,4.000000,4.000000,4.000000,100.000000,,,,,,,,,,,,,,,,,,,,,,,,,,,,,,,,,,,,,,,,,,,,,,,
1665769818.357621,1665769818.358152,64.000000,0.000000,4302.051270,4293.205078,4295.641113,4311.282227,4310.769043,4294.615234,4290.897461,4301.025879,4289.743652,4281.153809,4460.769043,4460.512695,4366.025879,4421.410156,2481.000000,3.000000,56.000000,,,,0.000000,4.000000,4.000000,4.000000,4.000000,4.000000,4.000000,4.000000,4.000000,4.000000,4.000000,4.000000,4.000000,4.000000,4.000000,100.000000,,,,,,,,,,,,,,,,,,,,,,,,,,,,,,,,,,,,,,,,,,,,,,,
1665769818.365429,1665769818.365861,65.000000,0.000000,4287.948730,4288.846191,4286.538574,4298.717773,4308.846191,4287.307617,4289.743652,4300.000000,4294.102539,4271.922852,4456.025879,4459.358887,4364.487305,4414.358887,2299.000000,3.000000,56.000000,,,,0.000000,4.000000,4.000000,4.000000,4.000000,4.000000,4.000000,4.000000,4.000000,4.000000,4.000000,4.000000,4.000000,4.000000,4.000000,100.000000,,,,,,,,,,,,,,,,,,,,,,,,,,,,,,,,,,,,,,,,,,,,,,,
1665769818.373237,1665769818.373669,66.000000,0.000000,4281.153809,4278.846191,4283.077148,4291.922852,4287.948730,4285.512695,4286.922852,4300.128418,4289.487305,4267.948730,4457.563965,4457.692383,4357.820313,4409.358887,2381.000000,3.000000,56.000000,,,,0.000000,4.000000,4.000000,4.000000,4.000000,4.000000,4.000000,4.000000,4.000000,4.000000,4.000000,4.000000,4.000000,4.000000,4.000000,100.000000,,,,,,,,,,,,,,,,,,,,,,,,,,,,,,,,,,,,,,,,,,,,,,,
1665769818.381046,1665769818.381378,67.000000,0.000000,4290.128418,4278.846191,4294.230957,4300.384766,4283.333496,4294.743652,4292.820313,4308.077148,4290.512695,4275.256348,4459.871582,4460.641113,4355.256348,4412.948730,2384.000000,3.000000,56.000000,,,,0.000000,4.000000,4.000000,4.000000,4.000000,4.000000,4.000000,4.000000,4.000000,4.000000,4.000000,4.000000,4.000000,4.000000,4.000000,100.000000,,,,,,,,,,,,,,,,,,,,,,,,,,,,,,,,,,,,,,,,,,,,,,,
1665769818.388854,1665769818.389286,68.000000,0.000000,4297.179688,4283.974121,4300.384766,4305.769043,4302.436035,4302.307617,4297.820313,4310.512695,4296.153809,4272.948730,4458.974121,4463.589844,4360.256348,4413.717773,2411.000000,3.000000,56.000000,,,,0.000000,4.000000,4.000000,4.000000,4.000000,4.000000,4.000000,4.000000,4.000000,4.000000,4.000000,4.000000,4.000000,4.000000,4.000000,100.000000,,,,,,,,,,,,,,,,,,,,,,,,,,,,,,,,,,,,,,,,,,,,,,,
1665769818.396663,1665769818.397095,69.000000,0.000000,4293.974121,4283.461426,4296.922852,4294.358887,4308.846191,4301.794922,4295.000000,4307.307617,4296.153809,4265.512695,4458.717773,4459.871582,4360.128418,4412.179688,2391.000000,3.000000,56.000000,,,,0.000000,4.000000,4.000000,4.000000,4.000000,4.000000,4.000000,4.000000,4.000000,4.000000,4.000000,4.000000,4.000000,4.000000,4.000000,100.000000,,,,,,,,,,,,,,,,,,,,,,,,,,,,,,,,,,,,,,,,,,,,,,,
1665769818.404471,1665769818.405003,70.000000,0.000000,4292.820313,4283.974121,4297.948730,4291.025879,4298.461426,4294.871582,4293.333496,4305.641113,4292.436035,4273.589844,4458.205078,4458.461426,4358.717773,4418.333496,2242.000000,3.000000,56.000000,,,,0.000000,4.000000,4.000000,4.000000,4.000000,4.000000,4.000000,4.000000,4.000000,4.000000,4.000000,4.000000,4.000000,4.000000,4.000000,100.000000,,,,,,,,,,,,,,,,,,,,,,,,,,,,,,,,,,,,,,,,,,,,,,,
1665769818.412279,1665769818.412812,71.000000,0.000000,4302.307617,4290.384766,4301.666504,4299.615234,4292.307617,4284.230957,4293.717773,4307.692383,4290.128418,4283.205078,4459.871582,4459.615234,4366.025879,4426.282227,2406.000000,3.000000,56.000000,,,,0.000000,4.000000,4.000000,4.000000,4.000000,4.000000,4.000000,4.000000,4.000000,4.000000,4.000000,4.000000,4.000000,4.000000,4.000000,100.000000,,,,,,,,,,,,,,,,,,,,,,,,,,,,,,,,,,,,,,,,,,,,,,,
1665769818.420088,1665769818.420720,72.000000,0.000000,4312.307617,4294.487305,4306.666504,4300.384766,4286.282227,4285.256348,4292.563965,4308.461426,4293.589844,4279.230957,4463.846191,4458.717773,4373.205078,4429.230957,2329.000000,3.000000,56.000000,,,,0.000000,4.000000,4.000000,4.000000,4.000000,4.000000,4.000000,4.000000,4.000000,4.000000,4.000000,4.000000,4.000000,4.000000,4.000000,100.000000,,,,,,,,,,,,,,,,,,,,,,,,,,,,,,,,,,,,,,,,,,,,,,,
1665769818.427896,1665769818.428528,73.000000,0.000000,4313.205078,4294.358887,4310.384766,4300.000000,4280.897461,4296.153809,4294.615234,4299.615234,4297.307617,4276.153809,4457.692383,4459.871582,4369.230957,4428.205078,2383.000000,3.000000,56.000000,,,,0.000000,4.000000,4.000000,4.000000,4.000000,4.000000,4.000000,4.000000,4.000000,4.000000,4.000000,4.000000,4.000000,4.000000,4.000000,100.000000,,,,,,,,,,,,,,,,,,,,,,,,,,,,,,,,,,,,,,,,,,,,,,,
1665769818.435705,1665769818.436437,74.000000,0.000000,4311.025879,4293.461426,4310.512695,4309.487305,4294.743652,4296.282227,4294.230957,4297.051270,4296.666504,4280.000000,4453.333496,4459.487305,4364.871582,4426.282227,2732.000000,3.000000,56.000000,,,,0.000000,4.000000,4.000000,4.000000,4.000000,4.000000,4.000000,4.000000,4.000000,4.000000,4.000000,4.000000,4.000000,4.000000,4.000000,100.000000,,,,,,,,,,,,,,,,,,,,,,,,,,,,,,,,,,,,,,,,,,,,,,,
1665769818.443513,1665769818.444245,75.000000,0.000000,4312.436035,4293.461426,4312.820313,4314.102539,4310.641113,4298.077148,4295.769043,4308.589844,4296.666504,4280.769043,4462.307617,4452.563965,4370.897461,4427.436035,2523.000000,3.000000,56.000000,,,,0.000000,4.000000,4.000000,4.000000,4.000000,4.000000,4.000000,4.000000,4.000000,4.000000,4.000000,4.000000,4.000000,4.000000,4.000000,100.000000,,,,,,,,,,,,,,,,,,,,,,,,,,,,,,,,,,,,,,,,,,,,,,,
1665769818.451321,1665769818.452153,76.000000,0.000000,4306.922852,4292.563965,4306.410156,4306.025879,4303.205078,4306.666504,4301.153809,4312.436035,4297.820313,4278.333496,4462.307617,4450.641113,4372.051270,4424.230957,3081.000000,3.000000,56.000000,,,,0.000000,4.000000,4.000000,4.000000,4.000000,4.000000,4.000000,4.000000,4.000000,4.000000,4.000000,4.000000,4.000000,4.000000,4.000000,100.000000,,,,,,,,,,,,,,,,,,,,,,,,,,,,,,,,,,,,,,,,,,,,,,,
1665769818.459130,1665769818.460062,77.000000,0.000000,4300.512695,4291.282227,4297.563965,4303.461426,4291.153809,4306.153809,4300.512695,4309.743652,4298.205078,4277.051270,4457.948730,4458.589844,4368.846191,4418.589844,1421.000000,3.000000,56.000000,,,,0.000000,4.000000,4.000000,4.000000,4.000000,4.000000,4.000000,4.000000,4.000000,4.000000,4.000000,4.000000,4.000000,4.000000,4.000000,100.000000,,,,,,,,,,,,,,,,,,,,,,,,,,,,,,,,,,,,,,,,,,,,,,,
1665769818.466938,1665769818.467870,78.000000,0.000000,4306.410156,4290.000000,4304.871582,4309.487305,4293.717773,4300.256348,4297.051270,4317.051270,4297.948730,4278.846191,4467.307617,4462.820313,4375.000000,4423.717773,2732.000000,3.000000,56.000000,,,,0.000000,4.000000,4.000000,4.000000,4.000000,4.000000,4.000000,4.000000,4.000000,4.000000,4.000000,4.000000,4.000000,4.000000,4.000000,100.000000,,,,,,,,,,,,,,,,,,,,,,,,,,,,,,,,,,,,,,,,,,,,,,,
1665769818.474747,1665769818.475679,79.000000,0.000000,4310.641113,4290.384766,4313.077148,4311.410156,4296.410156,4301.025879,4297.051270,4319.358887,4297.692383,4281.794922,4472.179688,4461.538574,4374.358887,4430.897461,2523.000000,3.000000,56.000000,,,,0.000000,4.000000,4.000000,4.000000,4.000000,4.000000,4.000000,4.000000,4.000000,4.000000,4.000000,4.000000,4.000000,4.000000,4.000000,100.000000,,,,,,,,,,,,,,,,,,,,,,,,,,,,,,,,,,,,,,,,,,,,,,,
1665769818.482555,1665769818.483387,80.000000,0.000000,4304.102539,4292.692383,4305.384766,4308.205078,4298.461426,4298.717773,4296.794922,4310.769043,4297.307617,4280.256348,4461.538574,4460.897461,4362.307617,4426.794922,3081.000000,3.000000,56.000000,,,,0.000000,4.000000,4.000000,4.000000,4.000000,4.000000,4.000000,4.000000,4.000000,4.000000,4.000000,4.000000,4.000000,4.000000,4.000000,100.000000,,,,,,,,,,,,,,,,,,,,,,,,,,,,,,,,,,,,,,,,,,,,,,,
1665769818.490363,1665769818.491196,81.000000,0.000000,4300.128418,4294.487305,4296.153809,4306.666504,4299.871582,4293.461426,4292.563965,4308.205078,4295.512695,4277.692383,4448.333496,4457.563965,4362.692383,4417.820313,1421.000000,3.000000,56.000000,,,,0.000000,4.000000,4.000000,4.000000,4.000000,4.000000,4.000000,4.000000,4.000000,4.000000,4.000000,4.000000,4.000000,4.000000,4.000000,100.000000,,,,,,,,,,,,,,,,,,,,,,,,,,,,,,,,,,,,,,,,,,,,,,,
1665769818.498172,1665769818.498904,82.000000,0.000000,4303.589844,4294.743652,4292.692383,4311.153809,4296.922852,4293.846191,4285.512695,4303.333496,4292.436035,4278.589844,4443.077148,4456.410156,4369.615234,4417.563965,2732.000000,3.000000,56.000000,,,,0.000000,4.000000,4.000000,4.000000,4.000000,4.000000,4.000000,4.000000,4.000000,4.000000,4.000000,4.000000,4.000000,4.000000,4.000000,100.000000,,,,,,,,,,,,,,,,,,,,,,,,,,,,,,,,,,,,,,,,,,,,,,,
1665769818.505980,1665769818.506713,83.000000,0.000000,4310.384766,4296.666504,4293.717773,4311.410156,4303.461426,4292.820313,4277.948730,4294.487305,4286.282227,4272.563965,4447.179688,4456.666504,4363.846191,4422.179688,2523.000000,3.000000,56.000000,,,,0.000000,4.000000,4.000000,4.000000,4.000000,4.000000,4.000000,4.000000,4.000000,4.000000,4.000000,4.000000,4.000000,4.000000,4.000000,100.000000,,,,,,,,,,,,,,,,,,,,,,,,,,,,,,,,,,,,,,,,,,,,,,,
1665769818.513789,1665769818.514421,84.000000,0.000000,4307.948730,4297.820313,4296.922852,4304.230957,4309.487305,4285.769043,4277.051270,4292.051270,4280.769043,4256.153809,4446.794922,4452.692383,4354.871582,4416.282227,3081.000000,3.000000,56.000000,,,,0.000000,4.000000,4.000000,4.000000,4.000000,4.000000,4.000000,4.000000,4.000000,4.000000,4.000000,4.000000,4.000000,4.000000,4.000000,100.000000,,,,,,,,,,,,,,,,,,,,,,,,,,,,,,,,,,,,,,,,,,,,,,,
1665769818.521597,1665769818.522230,85.000000,0.000000,4286.922852,4287.179688,4286.538574,4292.692383,4293.717773,4279.102539,4279.743652,4288.205078,4275.897461,4244.358887,4429.230957,4442.307617,4343.077148,4398.589844,1421.000000,3.000000,56.000000,,,,0.000000,4.000000,4.000000,4.000000,4.000000,4.000000,4.000000,4.000000,4.000000,4.000000,4.000000,4.000000,4.000000,4.000000,4.000000,100.000000,,,,,,,,,,,,,,,,,,,,,,,,,,,,,,,,,,,,,,,,,,,,,,,
1665769818.529405,1665769818.529938,86.000000,0.000000,4270.512695,4274.871582,4273.974121,4287.051270,4284.358887,4284.487305,4278.077148,4286.922852,4274.743652,4243.333496,4419.358887,4437.692383,4330.641113,4387.307617,2732.000000,3.000000,56.000000,,,,0.000000,4.000000,4.000000,4.000000,4.000000,4.000000,4.000000,4.000000,4.000000,4.000000,4.000000,4.000000,4.000000,4.000000,4.000000,100.000000,,,,,,,,,,,,,,,,,,,,,,,,,,,,,,,,,,,,,,,,,,,,,,,
1665769818.537214,1665769818.537747,87.000000,0.000000,4283.077148,4286.922852,4293.077148,4301.025879,4297.820313,4300.256348,4287.563965,4301.666504,4288.205078,4254.230957,4439.230957,4448.846191,4341.538574,4397.692383,2523.000000,3.000000,56.000000,,,,0.000000,4.000000,4.000000,4.000000,4.000000,4.000000,4.000000,4.000000,4.000000,4.000000,4.000000,4.000000,4.000000,4.000000,4.000000,100.000000,,,,,,,,,,,,,,,,,,,,,,,,,,,,,,,,,,,,,,,,,,,,,,,
1665769818.545022,1665769818.545455,88.000000,0.000000,4307.948730,4308.846191,4321.794922,4320.000000,4305.000000,4302.820313,4299.487305,4318.717773,4304.102539,4272.948730,4462.436035,4465.000000,4363.333496,4416.282227,3081.000000,3.000000,56.000000,,,,0.000000,4.000000,4.000000,4.000000,4.000000,4.000000,4.000000,4.000000,4.000000,4.000000,4.000000,4.000000,4.000000,4.000000,4.000000,100.000000,,,,,,,,,,,,,,,,,,,,,,,,,,,,,,,,,,,,,,,,,,,,,,,
1665769818.552831,1665769818.553264,89.000000,0.000000,4314.487305,4308.846191,4323.589844,4317.692383,4299.743652,4295.512695,4299.615234,4322.307617,4301.153809,4280.512695,4472.563965,4469.358887,4374.615234,4425.000000,1421.000000,3.000000,56.000000,,,,0.000000,4.000000,4.000000,4.000000,4.000000,4.000000,4.000000,4.000000,4.000000,4.000000,4.000000,4.000000,4.000000,4.000000,4.000000,100.000000,,,,,,,,,,,,,,,,,,,,,,,,,,,,,,,,,,,,,,,,,,,,,,,
1665769818.560639,1665769818.560972,90.000000,0.000000,4307.307617,4299.615234,4319.615234,4304.743652,4294.743652,4299.743652,4304.230957,4321.538574,4299.743652,4279.871582,4475.384766,4465.000000,4375.128418,4425.897461,2732.000000,3.000000,56.000000,,,,0.000000,4.000000,4.000000,4.000000,4.000000,4.000000,4.000000,4.000000,4.000000,4.000000,4.000000,4.000000,4.000000,4.000000,4.000000,100.000000,,,,,,,,,,,,,,,,,,,,,,,,,,,,,,,,,,,,,,,,,,,,,,,
1665769818.568447,1665769818.568781,91.000000,0.000000,4310.384766,4305.384766,4326.538574,4308.974121,4300.384766,4308.077148,4314.102539,4325.897461,4316.025879,4288.461426,4477.051270,4466.666504,4376.025879,4435.641113,2523.000000,3.000000,56.000000,,,,0.000000,4.000000,4.000000,4.000000,4.000000,4.000000,4.000000,4.000000,4.000000,4.000000,4.000000,4.000000,4.000000,4.000000,4.000000,100.000000,,,,,,,,,,,,,,,,,,,,,,,,,,,,,,,,,,,,,,,,,,,,,,,
1665769818.576256,1665769818.576489,92.000000,0.000000,4319.230957,4312.563965,4327.820313,4320.512695,4309.358887,4308.077148,4312.820313,4325.512695,4320.512695,4292.179688,4477.436035,4467.179688,4384.743652,4447.563965,3081.000000,3.000000,56.000000,,,,0.000000,4.000000,4.000000,4.000000,4.000000,4.000000,4.000000,4.000000,4.000000,4.000000,4.000000,4.000000,4.000000,4.000000,4.000000,100.000000,,,,,,,,,,,,,,,,,,,,,,,,,,,,,,,,,,,,,,,,,,,,,,,
1665769818.584064,1665769818.584298,93.000000,0.000000,4318.846191,4313.846191,4324.102539,4320.128418,4307.563965,4304.871582,4306.282227,4316.410156,4313.077148,4284.230957,4476.153809,4461.922852,4392.563965,4445.769043,1421.000000,3.000000,56.000000,,,,0.000000,4.000000,4.000000,4.000000,4.000000,4.000000,4.000000,4.000000,4.000000,4.000000,4.000000,4.000000,4.000000,4.000000,4.000000,100.000000,1.000000,91.666664,4.000000,4.000000,4.000000,4.000000,4.000000,4.000000,4.000000,4.000000,4.000000,4.000000,4.000000,4.000000,4.000000,3.000000,1.000000,0.518154,-0.318348,-1.309927,0.680017,1.000000,0.071834,3.750062,3.074794,12.475170,0.176512,1.000000,0.275102,35.909996,-90.610550,322.555023,1.000000,0.136599,0.110541,0.076454,0.279737,1.000000,0.332973,4.447857,-4.614101,20.202412,1.000000,0.374810,0.374810,0.000000,1.000000
1665769818.591873,1665769818.592006,94.000000,0.000000,4318.461426,4311.538574,4325.769043,4314.487305,4307.820313,4304.102539,4303.974121,4311.922852,4308.461426,4281.794922,4476.410156,4459.743652,4388.461426,4437.051270,2732.000000,3.000000,56.000000,,,,0.000000,4.000000,4.000000,4.000000,4.000000,4.000000,4.000000,4.000000,4.000000,4.000000,4.000000,4.000000,4.000000,4.000000,4.000000,100.000000,,,,,,,,,,,,,,,,,,,,,,,,,,,,,,,,,,,,,,,,,,,,,,,
1665769818.599681,1665769818.599915,95.000000,0.000000,4320.769043,4303.717773,4323.974121,4309.871582,4303.461426,4306.025879,4302.563965,4313.077148,4301.153809,4283.205078,4473.333496,4461.282227,4379.230957,4435.769043,2523.000000,3.000000,56.000000,,,,0.000000,4.000000,4.000000,4.000000,4.000000,4.000000,4.000000,4.000000,4.000000,4.000000,4.000000,4.000000,4.000000,4.000000,4.000000,100.000000,,,,,,,,,,,,,,,,,,,,,,,,,,,,,,,,,,,,,,,,,,,,,,,
1665769818.607489,1665769818.607723,96.000000,0.000000,4317.051270,4298.846191,4321.666504,4312.307617,4295.769043,4308.846191,4304.743652,4312.820313,4302.436035,4281.538574,4472.692383,4460.769043,4382.179688,4437.051270,3081.000000,3.000000,56.000000,,,,0.000000,4.000000,4.000000,4.000000,4.000000,4.000000,4.000000,4.000000,4.000000,4.000000,4.000000,4.000000,4.000000,4.000000,4.000000,100.000000,,,,,,,,,,,,,,,,,,,,,,,,,,,,,,,,,,,,,,,,,,,,,,,
1665769818.615298,1665769818.615631,97.000000,0.000000,4313.205078,4300.256348,4320.512695,4312.307617,4300.897461,4303.333496,4302.051270,4312.820313,4309.615234,4281.282227,4474.615234,4456.666504,4385.128418,4431.282227,1421.000000,3.000000,56.000000,,,,0.000000,4.000000,4.000000,4.000000,4.000000,4.000000,4.000000,4.000000,4.000000,4.000000,4.000000,4.000000,4.000000,4.000000,4.000000,100.000000,,,,,,,,,,,,,,,,,,,,,,,,,,,,,,,,,,,,,,,,,,,,,,,
1665769818.623106,1665769818.623440,98.000000,0.000000,4312.051270,4297.436035,4314.230957,4308.461426,4303.974121,4294.871582,4292.307617,4311.794922,4299.615234,4280.897461,4468.205078,4456.410156,4377.692383,4424.230957,2732.000000,3.000000,56.000000,,,,0.000000,4.000000,4.000000,4.000000,4.000000,4.000000,4.000000,4.000000,4.000000,4.000000,4.000000,4.000000,4.000000,4.000000,4.000000,100.000000,,,,,,,,,,,,,,,,,,,,,,,,,,,,,,,,,,,,,,,,,,,,,,,
1665769818.630915,1665769818.631348,99.000000,0.000000,4308.589844,4294.743652,4314.230957,4315.384766,4295.256348,4299.102539,4295.256348,4311.922852,4296.410156,4280.512695,4466.922852,4462.436035,4375.256348,4424.487305,2523.000000,3.000000,56.000000,,,,0.000000,4.000000,4.000000,4.000000,4.000000,4.000000,4.000000,4.000000,4.000000,4.000000,4.000000,4.000000,4.000000,4.000000,4.000000,100.000000,,,,,,,,,,,,,,,,,,,,,,,,,,,,,,,,,,,,,,,,,,,,,,,
1665769818.638723,1665769818.639157,100.000000,0.000000,4309.230957,4302.051270,4320.384766,4321.666504,4302.179688,4307.051270,4305.512695,4318.205078,4309.615234,4283.333496,4476.282227,4466.410156,4383.333496,4430.769043,3081.000000,3.000000,56.000000,,,,0.000000,4.000000,4.000000,4.000000,4.000000,4.000000,4.000000,4.000000,4.000000,4.000000,4.000000,4.000000,4.000000,4.000000,4.000000,100.000000,,,,,,,,,,,,,,,,,,,,,,,,,,,,,,,,,,,,,,,,,,,,,,,
1665769818.646531,1665769818.647065,101.000000,0.000000,4309.615234,4305.384766,4315.384766,4314.230957,4315.897461,4299.871582,4300.512695,4317.948730,4303.974121,4282.820313,4475.128418,4465.641113,4383.589844,4430.641113,1421.000000,3.000000,56.000000,,,,0.000000,4.000000,4.000000,4.000000,4.000000,4.000000,4.000000,4.000000,4.000000,4.000000,4.000000,4.000000,4.000000,4.000000,4.000000,100.000000,,,,,,,,,,,,,,,,,,,,,,,,,,,,,,,,,,,,,,,,,,,,,,,
1665769818.654340,1665769818.654873,102.000000,0.000000,4300.897461,4298.077148,4302.692383,4307.051270,4303.205078,4288.333496,4290.256348,4310.000000,4289.102539,4275.384766,4467.948730,4464.743652,4374.615234,4426.666504,2732.000000,3.000000,56.000000,,,,0.000000,4.000000,4.000000,4.000000,4.000000,4.000000,4.000000,4.000000,4.000000,4.000000,4.000000,4.000000,4.000000,4.000000,4.000000,100.000000,,,,,,,,,,,,,,,,,,,,,,,,,,,,,,,,,,,,,,,,,,,,,,,
1665769818.662148,1665769818.662682,103.000000,0.000000,4297.307617,4294.487305,4301.794922,4310.256348,4290.897461,4289.743652,4292.692383,4311.922852,4296.666504,4273.077148,4473.077148,4460.769043,4378.333496,4429.102539,2523.000000,3.000000,56.000000,,,,0.000000,4.000000,4.000000,4.000000,4.000000,4.000000,4.000000,4.000000,4.000000,4.000000,4.000000,4.000000,4.000000,4.000000,4.000000,100.000000,,,,,,,,,,,,,,,,,,,,,,,,,,,,,,,,,,,,,,,,,,,,,,,
1665769818.669957,1665769818.670490,104.000000,0.000000,4304.358887,4298.077148,4309.487305,4309.358887,4295.000000,4294.230957,4295.769043,4315.128418,4305.128418,4277.051270,4476.153809,4457.179688,4384.615234,4430.897461,3081.000000,3.000000,56.000000,,,,0.000000,4.000000,4.000000,4.000000,4.000000,4.000000,4.000000,4.000000,4.000000,4.000000,4.000000,4.000000,4.000000,4.000000,4.000000,100.000000,,,,,,,,,,,,,,,,,,,,,,,,,,,,,,,,,,,,,,,,,,,,,,,
1665769818.677765,1665769818.678199,105.000000,0.000000,4307.179688,4300.256348,4312.948730,4300.769043,4295.256348,4292.436035,4291.025879,4310.384766,4298.846191,4271.538574,4471.025879,4462.436035,4378.333496,4430.897461,1421.000000,3.000000,56.000000,,,,0.000000,4.000000,4.000000,4.000000,4.000000,4.000000,4.000000,4.000000,4.000000,4.000000,4.000000,4.000000,4.000000,4.000000,4.000000,100.000000,,,,,,,,,,,,,,,,,,,,,,,,,,,,,,,,,,,,,,,,,,,,,,,
1665769818.685573,1665769818.686007,106.000000,0.000000,4304.743652,4296.794922,4311.922852,4295.641113,4293.333496,4292.051270,4293.589844,4311.666504,4297.436035,4261.794922,4472.692383,4462.948730,4377.179688,4436.410156,2732.000000,3.000000,56.000000,,,,0.000000,4.000000,4.000000,4.000000,4.000000,4.000000,4.000000,4.000000,4.000000,4.000000,4.000000,4.000000,4.000000,4.000000,4.000000,100.000000,,,,,,,,,,,,,,,,,,,,,,,,,,,,,,,,,,,,,,,,,,,,,,,
1665769818.693382,1665769818.693716,107.000000,0.000000,4305.000000,4292.307617,4309.230957,4293.717773,4297.051270,4292.820313,4303.205078,4320.769043,4304.102539,4268.974121,4476.153809,4453.333496,4381.410156,4439.102539,2523.000000,3.000000,56.000000,,,,0.000000,4.000000,4.000000,4.000000,4.000000,4.000000,4.000000,4.000000,4.000000,4.000000,4.000000,4.000000,4.000000,4.000000,4.000000,100.000000,,,,,,,,,,,,,,,,,,,,,,,,,,,,,,,,,,,,,,,,,,,,,,,
1665769818.701190,1665769818.701524,108.000000,0.000000,4303.461426,4292.820313,4308.077148,4296.922852,4298.077148,4296.025879,4306.538574,4324.102539,4309.102539,4283.077148,4475.128418,4452.179688,4380.128418,4435.256348,3081.000000,3.000000,56.000000,,,,0.000000,4.000000,4.000000,4.000000,4.000000,4.000000,4.000000,4.000000,4.000000,4.000000,4.000000,4.000000,4.000000,4.000000,4.000000,100.000000,,,,,,,,,,,,,,,,,,,,,,,,,,,,,,,,,,,,,,,,,,,,,,,
1665769818.708999,1665769818.709233,109.000000,0.000000,4301.282227,4293.589844,4309.230957,4303.846191,4291.025879,4298.205078,4297.436035,4319.358887,4305.256348,4277.563965,4467.436035,4457.179688,4377.820313,4435.128418,1421.000000,3.000000,56.000000,,,,0.000000,4.000000,4.000000,4.000000,4.000000,4.000000,4.000000,4.000000,4.000000,4.000000,4.000000,4.000000,4.000000,4.000000,4.000000,100.000000,,,,,,,,,,,,,,,,,,,,,,,,,,,,,,,,,,,,,,,,,,,,,,,
1665769818.716807,1665769818.717041,110.000000,0.000000,4303.589844,4286.153809,4311.794922,4305.384766,4285.384766,4287.051270,4287.436035,4313.461426,4300.641113,4265.384766,4459.230957,4455.128418,4377.179688,4438.077148,2732.000000,3.000000,56.000000,,,,0.000000,4.000000,4.000000,4.000000,4.000000,4.000000,4.000000,4.000000,4.000000,4.000000,4.000000,4.000000,4.000000,4.000000,4.000000,100.000000,,,,,,,,,,,,,,,,,,,,,,,,,,,,,,,,,,,,,,,,,,,,,,,
1665769818.724615,1665769818.724750,111.000000,0.000000,4306.025879,4278.461426,4311.666504,4298.461426,4278.461426,4277.307617,4287.563965,4305.000000,4295.384766,4261.666504,4461.922852,4452.692383,4373.205078,4436.025879,2523.000000,3.000000,56.000000,,,,0.000000,4.000000,4.000000,4.000000,4.000000,4.000000,4.000000,4.000000,4.000000,4.000000,4.000000,4.000000,4.000000,4.000000,4.000000,100.000000,,,,,,,,,,,,,,,,,,,,,,,,,,,,,,,,,,,,,,,,,,,,,,,
1665769818.732424,1665769818.732558,112.000000,0.000000,4306.922852,4279.743652,4310.641113,4291.922852,4276.282227,4282.820313,4287.692383,4296.025879,4284.102539,4259.230957,4463.077148,4455.641113,4368.461426,4431.282227,3081.000000,3.000000,56.000000,,,,0.000000,4.000000,4.000000,4.000000,4.000000,4.000000,4.000000,4.000000,4.000000,4.000000,4.000000,4.000000,4.000000,4.000000,4.000000,100.000000,,,,,,,,,,,,,,,,,,,,,,,,,,,,,,,,,,,,,,,,,,,,,,,
1665769818.740232,1665769818.740267,113.000000,0.000000,4307.051270,4281.794922,4310.641113,4292.820313,4282.307617,4283.205078,4284.358887,4294.743652,4283.077148,4260.641113,4457.820313,4454.358887,4370.897461,4428.077148,1421.000000,3.000000,56.000000,,,,0.000000,4.000000,4.000000,4.000000,4.000000,4.000000,4.000000,4.000000,4.000000,4.000000,4.000000,4.000000,4.000000,4.000000,4.000000,100.000000,,,,,,,,,,,,,,,,,,,,,,,,,,,,,,,,,,,,,,,,,,,,,,,
1665769818.748041,1665769818.748075,114.000000,0.000000,4304.487305,4282.051270,4304.487305,4297.436035,4288.589844,4278.717773,4283.077148,4298.333496,4289.102539,4268.461426,4461.538574,4450.897461,4378.589844,4427.563965,2732.000000,3.000000,56.000000,,,,0.000000,4.000000,4.000000,4.000000,4.000000,4.000000,4.000000,4.000000,4.000000,4.000000,4.000000,4.000000,4.000000,4.000000,4.000000,100.000000,,,,,,,,,,,,,,,,,,,,,,,,,,,,,,,,,,,,,,,,,,,,,,,
1665769818.755849,1665769818.755784,115.000000,0.000000,4297.307617,4282.051270,4296.794922,4296.410156,4285.000000,4284.487305,4281.153809,4294.743652,4283.717773,4266.153809,4458.461426,4450.256348,4374.230957,4422.436035,2523.000000,3.000000,56.000000,,,,0.000000,4.000000,4.000000,4.000000,4.000000,4.000000,4.000000,4.000000,4.000000,4.000000,4.000000,4.000000,4.000000,4.000000,4.000000,100.000000,,,,,,,,,,,,,,,,,,,,,,,,,,,,,,,,,,,,,,,,,,,,,,,
1665769818.763657,1665769818.763692,116.000000,0.000000,4296.410156,4280.512695,4302.948730,4293.717773,4278.589844,4287.563965,4279.743652,4288.333496,4275.256348,4250.256348,4444.615234,4450.897461,4357.692383,4415.000000,3081.000000,3.000000,56.000000,,,,0.000000,4.000000,4.000000,4.000000,4.000000,4.000000,4.000000,4.000000,4.000000,4.000000,4.000000,4.000000,4.000000,4.000000,4.000000,100.000000,,,,,,,,,,,,,,,,,,,,,,,,,,,,,,,,,,,,,,,,,,,,,,,
1665769818.771466,1665769818.771501,117.000000,0.000000,4304.743652,4283.205078,4315.000000,4304.230957,4289.743652,4282.436035,4284.871582,4291.153809,4279.743652,4246.538574,4448.333496,4451.666504,4358.077148,4417.948730,1421.000000,3.000000,56.000000,,,,0.000000,4.000000,4.000000,4.000000,4.000000,4.000000,4.000000,4.000000,4.000000,4.000000,4.000000,4.000000,4.000000,4.000000,4.000000,100.000000,,,,,,,,,,,,,,,,,,,,,,,,,,,,,,,,,,,,,,,,,,,,,,,
1665769818.779274,1665769818.779409,118.000000,0.000000,4310.384766,4287.692383,4315.128418,4313.974121,4297.179688,4279.358887,4284.871582,4296.794922,4283.461426,4258.461426,4460.000000,4453.717773,4369.743652,4425.128418,2732.000000,3.000000,56.000000,,,,0.000000,4.000000,4.000000,4.000000,4.000000,4.000000,4.000000,4.000000,4.000000,4.000000,4.000000,4.000000,4.000000,4.000000,4.000000,100.000000,,,,,,,,,,,,,,,,,,,,,,,,,,,,,,,,,,,,,,,,,,,,,,,
1665769818.787083,1665769818.787217,119.000000,0.000000,4303.077148,4284.487305,4309.358887,4307.948730,4285.256348,4278.589844,4277.179688,4296.282227,4278.717773,4263.333496,4457.948730,4453.461426,4367.563965,4420.128418,2523.000000,3.000000,56.000000,,,,0.000000,4.000000,4.000000,4.000000,4.000000,4.000000,4.000000,4.000000,4.000000,4.000000,4.000000,4.000000,4.000000,4.000000,4.000000,100.000000,,,,,,,,,,,,,,,,,,,,,,,,,,,,,,,,,,,,,,,,,,,,,,,
1665769818.794891,1665769818.795126,120.000000,0.000000,4296.153809,4281.538574,4310.256348,4307.563965,4282.307617,4278.589844,4280.897461,4297.179688,4280.128418,4260.384766,4456.410156,4454.871582,4363.461426,4415.000000,3081.000000,3.000000,56.000000,,,,0.000000,4.000000,4.000000,4.000000,4.000000,4.000000,4.000000,4.000000,4.000000,4.000000,4.000000,4.000000,4.000000,4.000000,4.000000,100.000000,,,,,,,,,,,,,,,,,,,,,,,,,,,,,,,,,,,,,,,,,,,,,,,
1665769818.802699,1665769818.802934,121.000000,0.000000,4297.051270,4282.307617,4311.282227,4312.051270,4292.051270,4281.153809,4287.563965,4302.051270,4286.410156,4263.333496,4462.820313,4458.717773,4364.871582,4419.487305,1421.000000,3.000000,56.000000,,,,0.000000,4.000000,4.000000,4.000000,4.000000,4.000000,4.000000,4.000000,4.000000,4.000000,4.000000,4.000000,4.000000,4.000000,4.000000,100.000000,,,,,,,,,,,,,,,,,,,,,,,,,,,,,,,,,,,,,,,,,,,,,,,
1665769818.810508,1665769818.810843,122.000000,0.000000,4296.025879,4280.384766,4304.615234,4302.307617,4291.794922,4282.307617,4282.051270,4301.410156,4285.897461,4263.717773,4462.820313,4455.769043,4364.230957,4420.384766,2732.000000,3.000000,56.000000,,,,0.000000,4.000000,4.000000,4.000000,4.000000,4.000000,4.000000,4.000000,4.000000,4.000000,4.000000,4.000000,4.000000,4.000000,4.000000,100.000000,,,,,,,,,,,,,,,,,,,,,,,,,,,,,,,,,,,,,,,,,,,,,,,
1665769818.818316,1665769818.818651,123.000000,0.000000,4294.871582,4277.820313,4297.179688,4293.333496,4283.974121,4280.384766,4279.230957,4300.256348,4278.077148,4258.333496,4458.846191,4452.820313,4365.128418,4416.538574,2523.000000,3.000000,56.000000,,,,0.000000,4.000000,4.000000,4.000000,4.000000,4.000000,4.000000,4.000000,4.000000,4.000000,4.000000,4.000000,4.000000,4.000000,4.000000,100.000000,,,,,,,,,,,,,,,,,,,,,,,,,,,,,,,,,,,,,,,,,,,,,,,
1665769818.826125,1665769818.826559,124.000000,0.000000,4289.871582,4278.333496,4293.205078,4292.692383,4285.000000,4279.743652,4286.666504,4305.256348,4283.333496,4262.436035,4461.025879,4456.282227,4365.128418,4416.282227,3081.000000,3.000000,56.000000,,,,0.000000,4.000000,4.000000,4.000000,4.000000,4.000000,4.000000,4.000000,4.000000,4.000000,4.000000,4.000000,4.000000,4.000000,4.000000,100.000000,,,,,,,,,,,,,,,,,,,,,,,,,,,,,,,,,,,,,,,,,,,,,,,
1665769818.833933,1665769818.834368,125.000000,0.000000,4280.769043,4277.563965,4291.153809,4292.692383,4282.563965,4277.179688,4288.717773,4305.769043,4297.179688,4270.384766,4461.666504,4456.282227,4361.025879,4416.410156,1421.000000,3.000000,56.000000,,,,0.000000,4.000000,4.000000,4.000000,4.000000,4.000000,4.000000,4.000000,4.000000,4.000000,4.000000,4.000000,4.000000,4.000000,4.000000,100.000000,,,,,,,,,,,,,,,,,,,,,,,,,,,,,,,,,,,,,,,,,,,,,,,
1665769818.841741,1665769818.842276,126.000000,0.000000,4284.871582,4276.282227,4298.205078,4300.384766,4273.846191,4276.538574,4288.205078,4302.179688,4297.051270,4267.179688,4459.871582,4453.077148,4362.307617,4415.256348,2732.000000,3.000000,56.000000,,,,0.000000,4.000000,4.000000,4.000000,4.000000,4.000000,4.000000,4.000000,4.000000,4.000000,4.000000,4.000000,4.000000,4.000000,4.000000,100.000000,,,,,,,,,,,,,,,,,,,,,,,,,,,,,,,,,,,,,,,,,,,,,,,
1665769818.849550,1665769818.850085,127.000000,0.000000,4298.205078,4278.974121,4311.538574,4303.846191,4276.538574,4280.769043,4289.871582,4303.589844,4293.846191,4263.205078,4461.025879,4454.615234,4372.563965,4421.153809,56.000000,3.000000,56.000000,,,,0.000000,4.000000,4.000000,4.000000,4.000000,4.000000,4.000000,4.000000,4.000000,4.000000,4.000000,4.000000,4.000000,4.000000,4.000000,100.000000,,,,,,,,,,,,,,,,,,,,,,,,,,,,,,,,,,,,,,,,,,,,,,,
1665769818.857358,1665769818.857793,0.000000,0.000000,4297.051270,4283.077148,4309.358887,4301.282227,4281.794922,4283.461426,4282.436035,4300.769043,4293.077148,4266.153809,4463.205078,4451.922852,4376.538574,4423.589844,2451.000000,3.000000,56.000000,,,,0.000000,4.000000,4.000000,4.000000,4.000000,4.000000,4.000000,4.000000,4.000000,4.000000,4.000000,4.000000,4.000000,4.000000,4.000000,100.000000,,,,,,,,,,,,,,,,,,,,,,,,,,,,,,,,,,,,,,,,,,,,,,,
1665769818.865167,1665769818.865602,1.000000,0.000000,4291.794922,4283.205078,4296.922852,4305.897461,4279.230957,4281.538574,4277.563965,4293.589844,4288.077148,4265.897461,4461.410156,4445.897461,4369.358887,4415.256348,2264.000000,3.000000,56.000000,,,,0.000000,4.000000,4.000000,4.000000,4.000000,4.000000,4.000000,4.000000,4.000000,4.000000,4.000000,4.000000,4.000000,4.000000,4.000000,100.000000,,,,,,,,,,,,,,,,,,,,,,,,,,,,,,,,,,,,,,,,,,,,,,,
1665769818.872975,1665769818.873310,2.000000,0.000000,4297.563965,4279.871582,4300.128418,4305.512695,4284.743652,4282.051270,4288.461426,4298.846191,4287.692383,4262.820313,4461.410156,4446.025879,4365.641113,4413.333496,2376.000000,3.000000,56.000000,,,,0.000000,4.000000,4.000000,4.000000,4.000000,4.000000,4.000000,4.000000,4.000000,4.000000,4.000000,4.000000,4.000000,4.000000,4.000000,100.000000,,,,,,,,,,,,,,,,,,,,,,,,,,,,,,,,,,,,,,,,,,,,,,,
1665769818.880783,1665769818.881218,3.000000,0.000000,4299.615234,4277.820313,4306.666504,4296.025879,4296.538574,4281.538574,4292.692383,4307.051270,4292.179688,4265.512695,4465.512695,4451.025879,4374.230957,4420.641113,2351.000000,3.000000,56.000000,,,,0.000000,4.000000,4.000000,4.000000,4.000000,4.000000,4.000000,4.000000,4.000000,4.000000,4.000000,4.000000,4.000000,4.000000,4.000000,100.000000,,,,,,,,,,,,,,,,,,,,,,,,,,,,,,,,,,,,,,,,,,,,,,,
1665769818.888592,1665769818.889027,4.000000,0.000000,4296.538574,4280.512695,4300.384766,4295.000000,4286.922852,4279.102539,4280.641113,4303.077148,4287.307617,4268.205078,4461.153809,4453.077148,4377.563965,4420.512695,2359.000000,3.000000,56.000000,,,,0.000000,4.000000,4.000000,4.000000,4.000000,4.000000,4.000000,4.000000,4.000000,4.000000,4.000000,4.000000,4.000000,4.000000,4.000000,100.000000,,,,,,,,,,,,,,,,,,,,,,,,,,,,,,,,,,,,,,,,,,,,,,,
1665769818.896400,1665769818.896935,5.000000,0.000000,4297.436035,4283.717773,4295.128418,4297.307617,4269.871582,4286.538574,4278.205078,4297.051270,4284.230957,4266.538574,4453.589844,4446.025879,4365.256348,4414.102539,2393.000000,3.000000,56.000000,,,,0.000000,4.000000,4.000000,4.000000,4.000000,4.000000,4.000000,4.000000,4.000000,4.000000,4.000000,4.000000,4.000000,4.000000,4.000000,100.000000,,,,,,,,,,,,,,,,,,,,,,,,,,,,,,,,,,,,,,,,,,,,,,,
1665769818.904209,1665769818.904744,6.000000,0.000000,4293.589844,4279.615234,4295.769043,4295.769043,4277.179688,4286.922852,4282.948730,4297.692383,4287.051270,4265.641113,4451.794922,4441.025879,4357.436035,4408.589844,2262.000000,3.000000,56.000000,,,,0.000000,4.000000,4.000000,4.000000,4.000000,4.000000,4.000000,4.000000,4.000000,4.000000,4.000000,4.000000,4.000000,4.000000,4.000000,100.000000,,,,,,,,,,,,,,,,,,,,,,,,,,,,,,,,,,,,,,,,,,,,,,,
1665769818.912017,1665769818.912652,7.000000,0.000000,4283.333496,4272.179688,4289.230957,4296.025879,4283.333496,4273.717773,4277.051270,4295.000000,4284.358887,4264.230957,4442.820313,4440.769043,4353.974121,4396.922852,2389.000000,3.000000,56.000000,,,,0.000000,4.000000,4.000000,4.000000,4.000000,4.000000,4.000000,4.000000,4.000000,4.000000,4.000000,4.000000,4.000000,4.000000,4.000000,100.000000,,,,,,,,,,,,,,,,,,,,,,,,,,,,,,,,,,,,,,,,,,,,,,,
1665769818.919825,1665769818.920461,8.000000,0.000000,4279.871582,4275.641113,4285.384766,4294.871582,4277.948730,4280.256348,4278.846191,4294.487305,4285.897461,4260.384766,4437.948730,4441.794922,4351.282227,4392.436035,2334.000000,3.000000,56.000000,,,,0.000000,4.000000,4.000000,4.000000,4.000000,4.000000,4.000000,4.000000,4.000000,4.000000,4.000000,4.000000,4.000000,4.000000,4.000000,100.000000,,,,,,,,,,,,,,,,,,,,,,,,,,,,,,,,,,,,,,,,,,,,,,,
1665769818.927634,1665769818.928269,9.000000,0.000000,4285.128418,4282.051270,4293.205078,4293.846191,4281.410156,4296.922852,4288.846191,4301.282227,4291.666504,4262.948730,4451.025879,4443.846191,4357.307617,4403.461426,2368.000000,3.000000,56.000000,,,,0.000000,4.000000,4.000000,4.000000,4.000000,4.000000,4.000000,4.000000,4.000000,4.000000,4.000000,4.000000,4.000000,4.000000,4.000000,100.000000,,,,,,,,,,,,,,,,,,,,,,,,,,,,,,,,,,,,,,,,,,,,,,,
1665769818.935442,1665769818.935978,10.000000,0.000000,4284.358887,4272.179688,4295.769043,4295.641113,4280.000000,4288.589844,4285.512695,4303.333496,4284.871582,4267.692383,4455.128418,4445.769043,4358.077148,4403.974121,2695.000000,3.000000,56.000000,,,,0.000000,4.000000,4.000000,4.000000,4.000000,4.000000,4.000000,4.000000,4.000000,4.000000,4.000000,4.000000,4.000000,4.000000,4.000000,100.000000,,,,,,,,,,,,,,,,,,,,,,,,,,,,,,,,,,,,,,,,,,,,,,,
1665769818.943251,1665769818.943886,11.000000,0.000000,4279.102539,4260.256348,4292.948730,4294.230957,4268.717773,4276.282227,4282.948730,4304.358887,4278.077148,4262.436035,4448.846191,4446.153809,4351.410156,4394.230957,2513.000000,3.000000,56.000000,,,,0.000000,4.000000,4.000000,4.000000,4.000000,4.000000,4.000000,4.000000,4.000000,4.000000,4.000000,4.000000,4.000000,4.000000,4.000000,100.000000,,,,,,,,,,,,,,,,,,,,,,,,,,,,,,,,,,,,,,,,,,,,,,,
1665769818.951059,1665769818.951694,12.000000,0.000000,4280.128418,4269.102539,4295.000000,4294.487305,4276.666504,4282.179688,4295.641113,4311.538574,4284.743652,4258.589844,4454.615234,4448.974121,4352.179688,4399.358887,3087.000000,3.000000,56.000000,,,,0.000000,4.000000,4.000000,4.000000,4.000000,4.000000,4.000000,4.000000,4.000000,4.000000,4.000000,4.000000,4.000000,4.000000,4.000000,100.000000,,,,,,,,,,,,,,,,,,,,,,,,,,,,,,,,,,,,,,,,,,,,,,,
1665769818.958867,1665769818.959603,13.000000,0.000000,4279.743652,4280.897461,4296.410156,4295.512695,4293.333496,4285.000000,4298.077148,4309.871582,4293.333496,4263.333496,4460.256348,4453.589844,4353.333496,4407.051270,1412.000000,3.000000,56.000000,,,,0.000000,4.000000,4.000000,4.000000,4.000000,4.000000,4.000000,4.000000,4.000000,4.000000,4.000000,4.000000,4.000000,4.000000,4.000000,100.000000,,,,,,,,,,,,,,,,,,,,,,,,,,,,,,,,,,,,,,,,,,,,,,,
1665769818.966676,1665769818.967411,14.000000,0.000000,4282.820313,4279.358887,4298.333496,4295.128418,4289.615234,4280.641113,4284.615234,4305.256348,4292.307617,4268.846191,4458.717773,4455.000000,4352.563965,4406.410156,2695.000000,3.000000,56.000000,,,,0.000000,4.000000,4.000000,4.000000,4.000000,4.000000,4.000000,4.000000,4.000000,4.000000,4.000000,4.000000,4.000000,4.000000,4.000000,100.000000,,,,,,,,,,,,,,,,,,,,,,,,,,,,,,,,,,,,,,,,,,,,,,,
1665769818.974484,1665769818.975319,15.000000,0.000000,4291.025879,4277.179688,4301.922852,4293.717773,4281.025879,4279.615234,4284.871582,4310.256348,4285.769043,4267.692383,4457.436035,4452.051270,4358.717773,4406.794922,2513.000000,3.000000,56.000000,,,,0.000000,4.000000,4.000000,4.000000,4.000000,4.000000,4.000000,4.000000,4.000000,4.000000,4.000000,4.000000,4.000000,4.000000,4.000000,100.000000,,,,,,,,,,,,,,,,,,,,,,,,,,,,,,,,,,,,,,,,,,,,,,,
1665769818.982293,1665769818.983128,16.000000,0.000000,4287.179688,4279.102539,4297.051270,4292.179688,4282.436035,4282.307617,4293.461426,4308.846191,4278.205078,4255.256348,4448.077148,4448.974121,4354.615234,4405.769043,0.000000,3.000000,56.000000,,,,0.000000,4.000000,4.000000,4.000000,4.000000,4.000000,4.000000,4.000000,4.000000,4.000000,4.000000,4.000000,4.000000,4.000000,4.000000,100.000000,,,,,,,,,,,,,,,,,,,,,,,,,,,,,,,,,,,,,,,,,,,,,,,
1665769818.990101,1665769818.991036,17.000000,0.000000,4284.487305,4279.871582,4293.077148,4298.205078,4280.000000,4290.384766,4296.666504,4301.410156,4279.487305,4245.641113,4441.922852,4448.077148,4346.794922,4406.282227,0.000000,3.000000,56.000000,,,,0.000000,4.000000,4.000000,4.000000,4.000000,4.000000,4.000000,4.000000,4.000000,4.000000,4.000000,4.000000,4.000000,4.000000,4.000000,100.000000,,,,,,,,,,,,,,,,,,,,,,,,,,,,,,,,,,,,,,,,,,,,,,,
1665769818.997909,1665769818.998845,18.000000,0.000000,4292.179688,4281.153809,4297.820313,4303.461426,4278.846191,4296.282227,4296.666504,4302.436035,4285.897461,4250.897461,4451.153809,4448.077148,4355.384766,4412.948730,0.000000,3.000000,56.000000,,,,0.000000,4.000000,4.000000,4.000000,4.000000,4.000000,4.000000,4.000000,4.000000,4.000000,4.000000,4.000000,4.000000,4.000000,4.000000,100.000000,,,,,,,,,,,,,,,,,,,,,,,,,,,,,,,,,,,,,,,,,,,,,,,
1665769819.005718,1665769819.006753,19.000000,0.000000,4286.666504,4281.538574,4294.871582,4295.769043,4286.282227,4296.922852,4292.051270,4300.000000,4282.307617,4252.692383,4449.615234,4442.179688,4357.820313,4408.333496,0.000000,3.000000,56.000000,,,,0.000000,4.000000,4.000000,4.000000,4.000000,4.000000,4.000000,4.000000,4.000000,4.000000,4.000000,4.000000,4.000000,4.000000,4.000000,100.000000,,,,,,,,,,,,,,,,,,,,,,,,,,,,,,,,,,,,,,,,,,,,,,,
1665769819.013526,1665769819.014561,20.000000,0.000000,4278.333496,4280.000000,4289.230957,4290.000000,4295.641113,4292.563965,4290.000000,4294.871582,4278.205078,4245.769043,4440.384766,4437.436035,4349.615234,4399.743652,0.000000,3.000000,56.000000,,,,0.000000,4.000000,4.000000,4.000000,4.000000,4.000000,4.000000,4.000000,4.000000,4.000000,4.000000,4.000000,4.000000,4.000000,4.000000,100.000000,,,,,,,,,,,,,,,,,,,,,,,,,,,,,,,,,,,,,,,,,,,,,,,
1665769819.021335,1665769819.022370,21.000000,0.000000,4290.384766,4280.897461,4293.846191,4297.051270,4291.282227,4285.641113,4292.563965,4299.102539,4286.025879,4252.820313,4440.769043,4438.589844,4351.025879,4403.589844,0.000000,3.000000,56.000000,,,,0.000000,4.000000,4.000000,4.000000,4.000000,4.000000,4.000000,4.000000,4.000000,4.000000,4.000000,4.000000,4.000000,4.000000,4.000000,100.000000,,,,,,,,,,,,,,,,,,,,,,,,,,,,,,,,,,,,,,,,,,,,,,,
1665769819.029143,1665769819.030178,22.000000,0.000000,4294.615234,4279.358887,4295.000000,4297.179688,4279.102539,4286.410156,4296.153809,4303.461426,4291.922852,4264.871582,4444.358887,4436.922852,4353.461426,4403.077148,0.000000,3.000000,56.000000,,,,0.000000,4.000000,4.000000,4.000000,4.000000,4.000000,4.000000,4.000000,4.000000,4.000000,4.000000,4.000000,4.000000,4.000000,4.000000,100.000000,,,,,,,,,,,,,,,,,,,,,,,,,,,,,,,,,,,,,,,,,,,,,,,
1665769819.036951,1665769819.037887,23.000000,0.000000,4289.102539,4278.846191,4296.666504,4294.102539,4287.051270,4295.384766,4298.974121,4307.307617,4294.615234,4265.000000,4452.563965,4438.717773,4357.820313,4401.410156,0.000000,3.000000,56.000000,,,,0.000000,4.000000,4.000000,4.000000,4.000000,4.000000,4.000000,4.000000,4.000000,4.000000,4.000000,4.000000,4.000000,4.000000,4.000000,100.000000,,,,,,,,,,,,,,,,,,,,,,,,,,,,,,,,,,,,,,,,,,,,,,,
1665769819.044760,1665769819.045695,24.000000,0.000000,4294.871582,4280.256348,4303.077148,4301.666504,4292.820313,4298.333496,4294.871582,4310.641113,4296.794922,4264.871582,4456.538574,4445.128418,4362.436035,4410.000000,0.000000,3.000000,56.000000,,,,0.000000,4.000000,4.000000,4.000000,4.000000,4.000000,4.000000,4.000000,4.000000,4.000000,4.000000,4.000000,4.000000,4.000000,4.000000,100.000000,,,,,,,,,,,,,,,,,,,,,,,,,,,,,,,,,,,,,,,,,,,,,,,
1665769819.052568,1665769819.053404,25.000000,0.000000,4291.153809,4270.897461,4293.974121,4297.820313,4277.307617,4291.794922,4283.205078,4300.769043,4285.384766,4265.128418,4448.717773,4444.743652,4354.615234,4408.974121,0.000000,3.000000,56.000000,,,,0.000000,4.000000,4.000000,4.000000,4.000000,4.000000,4.000000,4.000000,4.000000,4.000000,4.000000,4.000000,4.000000,4.000000,4.000000,100.000000,,,,,,,,,,,,,,,,,,,,,,,,,,,,,,,,,,,,,,,,,,,,,,,
1665769819.060377,1665769819.061212,26.000000,0.000000,4277.179688,4263.846191,4276.282227,4284.743652,4280.769043,4288.846191,4284.743652,4292.563965,4273.846191,4260.256348,4442.820313,4437.436035,4348.333496,4396.794922,0.000000,3.000000,56.000000,,,,0.000000,4.000000,4.000000,4.000000,4.000000,4.000000,4.000000,4.000000,4.000000,4.000000,4.000000,4.000000,4.000000,4.000000,4.000000,100.000000,,,,,,,,,,,,,,,,,,,,,,,,,,,,,,,,,,,,,,,,,,,,,,,
1665769819.068185,1665769819.068921,27.000000,0.000000,4277.820313,4273.846191,4278.077148,4288.846191,4301.794922,4293.461426,4297.436035,4299.615234,4282.179688,4257.436035,4444.487305,4437.692383,4356.282227,4396.794922,0.000000,3.000000,56.000000,,,,0.000000,4.000000,4.000000,4.000000,4.000000,4.000000,4.000000,4.000000,4.000000,4.000000,4.000000,4.000000,4.000000,4.000000,4.000000,100.000000,,,,,,,,,,,,,,,,,,,,,,,,,,,,,,,,,,,,,,,,,,,,,,,
1665769819.075993,1665769819.076729,28.000000,0.000000,4288.461426,4282.436035,4292.563965,4303.974121,4301.538574,4296.922852,4297.563965,4306.922852,4287.563965,4259.743652,4451.153809,4447.051270,4359.871582,4403.846191,0.000000,3.000000,56.000000,,,,0.000000,4.000000,4.000000,4.000000,4.000000,4.000000,4.000000,4.000000,4.000000,4.000000,4.000000,4.000000,4.000000,4.000000,4.000000,100.000000,,,,,,,,,,,,,,,,,,,,,,,,,,,,,,,,,,,,,,,,,,,,,,,
1665769819.083802,1665769819.084438,29.000000,0.000000,4294.743652,4280.897461,4298.717773,4306.410156,4291.410156,4295.512695,4292.692383,4303.846191,4282.051270,4262.563965,4457.563965,4449.615234,4355.128418,4406.538574,0.000000,3.000000,56.000000,,,,0.000000,4.000000,4.000000,4.000000,4.000000,4.000000,4.000000,4.000000,4.000000,4.000000,4.000000,4.000000,4.000000,4.000000,4.000000,100.000000,1.000000,100.000000,4.000000,4.000000,4.000000,4.000000,4.000000,4.000000,4.000000,4.000000,4.000000,4.000000,4.000000,4.000000,4.000000,4.000000,1.000000,0.519899,-0.086500,-1.309767,0.679840,1.000000,0.061984,3.657468,3.074794,12.475170,0.174404,1.000000,0.274022,35.434441,-90.627388,322.504059,1.000000,0.137936,0.105069,0.076447,0.279704,1.000000,0.339980,4.859184,-4.615792,20.200520,1.000000,0.372027,0.372027,0.000000,1.000000
1665769819.091610,1665769819.092246,30.000000,0.000000,4294.102539,4280.897461,4301.538574,4300.128418,4294.487305,4295.256348,4295.256348,4300.000000,4283.974121,4266.538574,4455.256348,4446.282227,4355.512695,4407.436035,0.000000,3.000000,56.000000,,,,0.000000,4.000000,4.000000,4.000000,4.000000,4.000000,4.000000,4.000000,4.000000,4.000000,4.000000,4.000000,4.000000,4.000000,4.000000,100.000000,,,,,,,,,,,,,,,,,,,,,,,,,,,,,,,,,,,,,,,,,,,,,,,
1665769819.099419,1665769819.099955,31.000000,0.000000,4286.794922,4282.179688,4302.692383,4298.717773,4293.974121,4299.871582,4294.358887,4299.871582,4288.717773,4266.153809,4451.025879,4447.563965,4358.205078,4405.512695,0.000000,3.000000,56.000000,,,,0.000000,4.000000,4.000000,4.000000,4.000000,4.000000,4.000000,4.000000,4.000000,4.000000,4.000000,4.000000,4.000000,4.000000,4.000000,100.000000,,,,,,,,,,,,,,,,,,,,,,,,,,,,,,,,,,,,,,,,,,,,,,,
1665769819.107227,1665769819.107763,32.000000,0.000000,4280.897461,4279.615234,4299.230957,4297.820313,4290.000000,4292.436035,4287.563965,4302.436035,4292.179688,4265.256348,4456.410156,4447.436035,4357.051270,4402.179688,0.000000,3.000000,56.000000,,,,0.000000,4.000000,4.000000,4.000000,4.000000,4.000000,4.000000,4.000000,4.000000,4.000000,4.000000,4.000000,4.000000,4.000000,4.000000,100.000000,,,,,,,,,,,,,,,,,,,,,,,,,,,,,,,,,,,,,,,,,,,,,,,
1665769819.115035,1665769819.115472,33.000000,0.000000,4279.358887,4277.948730,4293.333496,4295.512695,4289.615234,4283.333496,4286.025879,4306.538574,4295.000000,4271.922852,4458.461426,4445.641113,4355.384766,4400.641113,0.000000,3.000000,56.000000,,,,0.000000,4.000000,4.000000,4.000000,4.000000,4.000000,4.000000,4.000000,4.000000,4.000000,4.000000,4.000000,4.000000,4.000000,4.000000,100.000000,,,,,,,,,,,,,,,,,,,,,,,,,,,,,,,,,,,,,,,,,,,,,,,
1665769819.122844,1665769819.123380,34.000000,0.000000,4281.538574,4278.846191,4292.820313,4292.307617,4295.128418,4288.205078,4292.051270,4310.769043,4295.256348,4279.487305,4457.436035,4448.974121,4358.846191,4401.794922,0.000000,3.000000,56.000000,,,,0.000000,4.000000,4.000000,4.000000,4.000000,4.000000,4.000000,4.000000,4.000000,4.000000,4.000000,4.000000,4.000000,4.000000,4.000000,100.000000,,,,,,,,,,,,,,,,,,,,,,,,,,,,,,,,,,,,,,,,,,,,,,,
1665769819.130652,1665769819.131189,35.000000,0.000000,4284.230957,4280.897461,4299.743652,4297.179688,4296.666504,4288.205078,4296.922852,4312.436035,4297.179688,4278.717773,4463.589844,4452.563965,4366.922852,4407.051270,0.000000,3.000000,56.000000,,,,0.000000,4.000000,4.000000,4.000000,4.000000,4.000000,4.000000,4.000000,4.000000,4.000000,4.000000,4.000000,4.000000,4.000000,4.000000,100.000000,,,,,,,,,,,,,,,,,,,,,,,,,,,,,,,,,,,,,,,,,,,,,,,
1665769819.138461,1665769819.138997,36.000000,0.000000,4283.974121,4279.487305,4299.230957,4297.692383,4285.897461,4279.230957,4292.820313,4307.948730,4296.922852,4271.538574,4462.948730,4449.615234,4368.589844,4410.512695,0.000000,3.000000,56.000000,,,,0.000000,4.000000,4.000000,4.000000,4.000000,4.000000,4.000000,4.000000,4.000000,4.000000,4.000000,4.000000,4.000000,4.000000,4.000000,100.000000,,,,,,,,,,,,,,,,,,,,,,,,,,,,,,,,,,,,,,,,,,,,,,,
1665769819.146269,1665769819.146806,37.000000,0.000000,4285.769043,4276.794922,4290.512695,4284.615234,4278.717773,4282.051270,4289.358887,4304.102539,4290.769043,4265.000000,4457.179688,4450.128418,4366.153809,4410.769043,0.000000,3.000000,56.000000,,,,0.000000,4.000000,4.000000,4.000000,4.000000,4.000000,4.000000,4.000000,4.000000,4.000000,4.000000,4.000000,4.000000,4.000000,4.000000,100.000000,,,,,,,,,,,,,,,,,,,,,,,,,,,,,,,,,,,,,,,,,,,,,,,
1665769819.154077,1665769819.154714,38.000000,0.000000,4293.333496,4277.948730,4290.769043,4282.820313,4278.846191,4292.051270,4292.307617,4308.589844,4291.153809,4263.974121,4459.871582,4451.153809,4366.410156,4417.563965,0.000000,3.000000,56.000000,,,,0.000000,4.000000,4.000000,4.000000,4.000000,4.000000,4.000000,4.000000,4.000000,4.000000,4.000000,4.000000,4.000000,4.000000,4.000000,100.000000,,,,,,,,,,,,,,,,,,,,,,,,,,,,,,,,,,,,,,,,,,,,,,,
1665769819.161886,1665769819.162522,39.000000,0.000000,4303.077148,4283.846191,4301.922852,4294.358887,4287.051270,4294.358887,4297.563965,4313.077148,4296.666504,4266.794922,4463.077148,4450.897461,4369.487305,4426.410156,0.000000,3.000000,56.000000,,,,0.000000,4.000000,4.000000,4.000000,4.000000,4.000000,4.000000,4.000000,4.000000,4.000000,4.000000,4.000000,4.000000,4.000000,4.000000,100.000000,,,,,,,,,,,,,,,,,,,,,,,,,,,,,,,,,,,,,,,,,,,,,,,
1665769819.169694,1665769819.170431,40.000000,0.000000,4307.820313,4289.615234,4309.615234,4299.487305,4300.128418,4296.794922,4295.384766,4303.717773,4295.384766,4265.384766,4457.692383,4451.153809,4370.384766,4427.436035,0.000000,3.000000,56.000000,,,,0.000000,4.000000,4.000000,4.000000,4.000000,4.000000,4.000000,4.000000,4.000000,4.000000,4.000000,4.000000,4.000000,4.000000,4.000000,100.000000,,,,,,,,,,,,,,,,,,,,,,,,,,,,,,,,,,,,,,,,,,,,,,,
1665769819.177503,1665769819.178239,41.000000,0.000000,4313.205078,4294.871582,4316.666504,4306.410156,4304.230957,4307.179688,4292.692383,4295.897461,4291.538574,4266.153809,4455.384766,4450.384766,4370.769043,4427.179688,0.000000,3.000000,56.000000,,,,0.000000,4.000000,4.000000,4.000000,4.000000,4.000000,4.000000,4.000000,4.000000,4.000000,4.000000,4.000000,4.000000,4.000000,4.000000,100.000000,,,,,,,,,,,,,,,,,,,,,,,,,,,,,,,,,,,,,,,,,,,,,,,
