title:Psychopy_Rahul_Speakers_Closed , start timestamp:1665722784.604101, stop timestamp:1665722845.611232, headset type:EPOCX, headset serial:E2020A42, headset firmware:720, channels:86, sampling rate:eeg_128;pm_2, samples:7814      , version:2.1, 
Timestamp,OriginalTimestamp,EEG.Counter,EEG.Interpolated,EEG.AF3,EEG.F7,EEG.F3,EEG.FC5,EEG.T7,EEG.P7,EEG.O1,EEG.O2,EEG.P8,EEG.T8,EEG.FC6,EEG.F4,EEG.F8,EEG.AF4,EEG.RawCq,EEG.Battery,EEG.BatteryPercent,MarkerIndex,MarkerType,MarkerValueInt,EEG.MarkerHardware,CQ.AF3,CQ.F7,CQ.F3,CQ.FC5,CQ.T7,CQ.P7,CQ.O1,CQ.O2,CQ.P8,CQ.T8,CQ.FC6,CQ.F4,CQ.F8,CQ.AF4,CQ.Overall,EQ.SampleRateQuality,EQ.OVERALL,EQ.AF3,EQ.F7,EQ.F3,EQ.FC5,EQ.T7,EQ.P7,EQ.O1,EQ.O2,EQ.P8,EQ.T8,EQ.FC6,EQ.F4,EQ.F8,EQ.AF4,PM.Engagement.IsActive,PM.Engagement.Scaled,PM.Engagement.Raw,PM.Engagement.Min,PM.Engagement.Max,PM.Excitement.IsActive,PM.Excitement.Scaled,PM.Excitement.Raw,PM.Excitement.Min,PM.Excitement.Max,PM.LongTermExcitement,PM.Stress.IsActive,PM.Stress.Scaled,PM.Stress.Raw,PM.Stress.Min,PM.Stress.Max,PM.Relaxation.IsActive,PM.Relaxation.Scaled,PM.Relaxation.Raw,PM.Relaxation.Min,PM.Relaxation.Max,PM.Interest.IsActive,PM.Interest.Scaled,PM.Interest.Raw,PM.Interest.Min,PM.Interest.Max,PM.Focus.IsActive,PM.Focus.Scaled,PM.Focus.Raw,PM.Focus.Min,PM.Focus.Max
1665722784.604101,1665722784.603739,66.000000,0.000000,4294.871582,4276.794922,4300.897461,4299.102539,4304.102539,4303.717773,4307.948730,4310.769043,4296.794922,4286.025879,4451.794922,4467.051270,4356.282227,4394.615234,2354.000000,4.000000,80.000000,,,,0.000000,4.000000,4.000000,4.000000,4.000000,4.000000,4.000000,4.000000,4.000000,4.000000,4.000000,4.000000,4.000000,4.000000,4.000000,100.000000,,,,,,,,,,,,,,,,,,,,,,,,,,,,,,,,,,,,,,,,,,,,,,,
1665722784.611910,1665722784.611648,67.000000,0.000000,4288.077148,4276.794922,4290.897461,4306.666504,4308.974121,4304.615234,4302.307617,4302.563965,4288.717773,4275.641113,4435.512695,4461.025879,4354.358887,4392.436035,2125.000000,4.000000,80.000000,,,,0.000000,4.000000,4.000000,4.000000,4.000000,4.000000,4.000000,4.000000,4.000000,4.000000,4.000000,4.000000,4.000000,4.000000,4.000000,100.000000,,,,,,,,,,,,,,,,,,,,,,,,,,,,,,,,,,,,,,,,,,,,,,,
1665722784.619718,1665722784.619456,68.000000,0.000000,4295.897461,4291.025879,4294.230957,4326.282227,4314.871582,4301.153809,4299.102539,4302.179688,4289.102539,4285.256348,4454.487305,4464.615234,4367.948730,4399.102539,1785.000000,4.000000,80.000000,,,,0.000000,4.000000,4.000000,4.000000,4.000000,4.000000,4.000000,4.000000,4.000000,4.000000,4.000000,4.000000,4.000000,4.000000,4.000000,100.000000,,,,,,,,,,,,,,,,,,,,,,,,,,,,,,,,,,,,,,,,,,,,,,,
1665722784.627526,1665722784.627364,69.000000,0.000000,4303.461426,4290.769043,4307.307617,4315.897461,4313.333496,4295.000000,4299.487305,4306.922852,4292.436035,4287.820313,4468.589844,4470.384766,4371.666504,4398.333496,2221.000000,4.000000,80.000000,,,,0.000000,4.000000,4.000000,4.000000,4.000000,4.000000,4.000000,4.000000,4.000000,4.000000,4.000000,4.000000,4.000000,4.000000,4.000000,100.000000,,,,,,,,,,,,,,,,,,,,,,,,,,,,,,,,,,,,,,,,,,,,,,,
1665722784.635335,1665722784.635173,70.000000,0.000000,4297.692383,4278.846191,4305.641113,4304.871582,4308.974121,4292.692383,4293.846191,4301.666504,4283.077148,4278.205078,4449.487305,4466.666504,4357.307617,4392.051270,2349.000000,4.000000,80.000000,,,,0.000000,4.000000,4.000000,4.000000,4.000000,4.000000,4.000000,4.000000,4.000000,4.000000,4.000000,4.000000,4.000000,4.000000,4.000000,100.000000,,,,,,,,,,,,,,,,,,,,,,,,,,,,,,,,,,,,,,,,,,,,,,,
1665722784.643143,1665722784.643081,71.000000,0.000000,4293.974121,4278.077148,4298.461426,4315.769043,4308.717773,4294.102539,4290.512695,4296.538574,4276.282227,4276.410156,4430.897461,4463.077148,4350.384766,4394.487305,1680.000000,4.000000,80.000000,,,,0.000000,4.000000,4.000000,4.000000,4.000000,4.000000,4.000000,4.000000,4.000000,4.000000,4.000000,4.000000,4.000000,4.000000,4.000000,100.000000,,,,,,,,,,,,,,,,,,,,,,,,,,,,,,,,,,,,,,,,,,,,,,,
1665722784.650952,1665722784.650890,72.000000,0.000000,4297.948730,4282.820313,4302.436035,4314.358887,4309.871582,4294.743652,4294.743652,4303.205078,4283.205078,4278.333496,4440.000000,4467.307617,4356.922852,4399.358887,2112.000000,4.000000,80.000000,,,,0.000000,4.000000,4.000000,4.000000,4.000000,4.000000,4.000000,4.000000,4.000000,4.000000,4.000000,4.000000,4.000000,4.000000,4.000000,100.000000,,,,,,,,,,,,,,,,,,,,,,,,,,,,,,,,,,,,,,,,,,,,,,,
1665722784.658760,1665722784.658798,73.000000,0.000000,4298.077148,4281.666504,4305.897461,4305.897461,4309.358887,4293.846191,4289.230957,4302.820313,4278.974121,4278.717773,4456.282227,4468.461426,4362.948730,4397.820313,2276.000000,4.000000,80.000000,,,,0.000000,4.000000,4.000000,4.000000,4.000000,4.000000,4.000000,4.000000,4.000000,4.000000,4.000000,4.000000,4.000000,4.000000,4.000000,100.000000,,,,,,,,,,,,,,,,,,,,,,,,,,,,,,,,,,,,,,,,,,,,,,,
1665722784.666568,1665722784.666606,74.000000,0.000000,4293.974121,4279.358887,4299.615234,4310.641113,4311.666504,4292.436035,4280.000000,4290.128418,4267.179688,4276.410156,4450.897461,4460.769043,4357.051270,4394.615234,2506.000000,4.000000,80.000000,,,,0.000000,4.000000,4.000000,4.000000,4.000000,4.000000,4.000000,4.000000,4.000000,4.000000,4.000000,4.000000,4.000000,4.000000,4.000000,100.000000,,,,,,,,,,,,,,,,,,,,,,,,,,,,,,,,,,,,,,,,,,,,,,,
1665722784.674377,1665722784.674515,75.000000,0.000000,4293.461426,4281.410156,4296.025879,4311.282227,4310.384766,4293.205078,4286.282227,4291.794922,4271.025879,4273.974121,4435.256348,4458.846191,4348.077148,4396.153809,1639.000000,4.000000,80.000000,,,,0.000000,4.000000,4.000000,4.000000,4.000000,4.000000,4.000000,4.000000,4.000000,4.000000,4.000000,4.000000,4.000000,4.000000,4.000000,100.000000,,,,,,,,,,,,,,,,,,,,,,,,,,,,,,,,,,,,,,,,,,,,,,,
1665722784.682185,1665722784.682323,76.000000,0.000000,4295.512695,4284.230957,4299.871582,4305.512695,4307.692383,4295.128418,4297.051270,4304.615234,4281.025879,4277.051270,4437.307617,4467.179688,4354.102539,4398.333496,2793.000000,4.000000,80.000000,,,,0.000000,4.000000,4.000000,4.000000,4.000000,4.000000,4.000000,4.000000,4.000000,4.000000,4.000000,4.000000,4.000000,4.000000,4.000000,100.000000,,,,,,,,,,,,,,,,,,,,,,,,,,,,,,,,,,,,,,,,,,,,,,,
1665722784.689994,1665722784.690232,77.000000,0.000000,4302.307617,4287.820313,4309.358887,4307.051270,4310.512695,4297.307617,4298.461426,4307.307617,4284.487305,4277.563965,4452.563965,4477.948730,4365.256348,4401.794922,2723.000000,4.000000,80.000000,,,,0.000000,4.000000,4.000000,4.000000,4.000000,4.000000,4.000000,4.000000,4.000000,4.000000,4.000000,4.000000,4.000000,4.000000,4.000000,100.000000,,,,,,,,,,,,,,,,,,,,,,,,,,,,,,,,,,,,,,,,,,,,,,,
1665722784.697802,1665722784.698040,78.000000,0.000000,4309.358887,4288.846191,4310.128418,4314.487305,4314.743652,4299.871582,4295.897461,4301.794922,4282.692383,4275.384766,4455.641113,4481.922852,4365.384766,4402.948730,2506.000000,4.000000,80.000000,,,,0.000000,4.000000,4.000000,4.000000,4.000000,4.000000,4.000000,4.000000,4.000000,4.000000,4.000000,4.000000,4.000000,4.000000,4.000000,100.000000,,,,,,,,,,,,,,,,,,,,,,,,,,,,,,,,,,,,,,,,,,,,,,,
1665722784.705610,1665722784.705948,79.000000,0.000000,4307.307617,4289.615234,4304.615234,4319.230957,4315.769043,4303.589844,4299.358887,4300.000000,4281.922852,4278.205078,4443.333496,4480.128418,4358.974121,4398.589844,1639.000000,4.000000,80.000000,,,,0.000000,4.000000,4.000000,4.000000,4.000000,4.000000,4.000000,4.000000,4.000000,4.000000,4.000000,4.000000,4.000000,4.000000,4.000000,100.000000,,,,,,,,,,,,,,,,,,,,,,,,,,,,,,,,,,,,,,,,,,,,,,,
1665722784.713419,1665722784.713757,80.000000,0.000000,4298.077148,4290.512695,4304.102539,4316.538574,4314.102539,4305.769043,4304.102539,4301.410156,4281.922852,4280.384766,4442.820313,4477.948730,4358.974121,4396.538574,2793.000000,4.000000,80.000000,,,,0.000000,4.000000,4.000000,4.000000,4.000000,4.000000,4.000000,4.000000,4.000000,4.000000,4.000000,4.000000,4.000000,4.000000,4.000000,100.000000,,,,,,,,,,,,,,,,,,,,,,,,,,,,,,,,,,,,,,,,,,,,,,,
1665722784.721227,1665722784.721665,81.000000,0.000000,4296.794922,4289.230957,4305.897461,4314.230957,4310.256348,4304.615234,4302.563965,4302.692383,4281.538574,4275.512695,4455.384766,4478.205078,4363.077148,4400.641113,2723.000000,4.000000,80.000000,,,,0.000000,4.000000,4.000000,4.000000,4.000000,4.000000,4.000000,4.000000,4.000000,4.000000,4.000000,4.000000,4.000000,4.000000,4.000000,100.000000,,,,,,,,,,,,,,,,,,,,,,,,,,,,,,,,,,,,,,,,,,,,,,,
1665722784.729036,1665722784.729474,82.000000,0.000000,4299.230957,4280.512695,4303.717773,4308.077148,4306.794922,4300.769043,4296.025879,4298.461426,4279.230957,4267.820313,4449.102539,4473.333496,4356.666504,4397.179688,2506.000000,4.000000,80.000000,,,,0.000000,4.000000,4.000000,4.000000,4.000000,4.000000,4.000000,4.000000,4.000000,4.000000,4.000000,4.000000,4.000000,4.000000,4.000000,100.000000,,,,,,,,,,,,,,,,,,,,,,,,,,,,,,,,,,,,,,,,,,,,,,,
1665722784.736844,1665722784.737182,83.000000,0.000000,4291.282227,4270.000000,4299.743652,4297.692383,4306.025879,4293.974121,4290.128418,4291.666504,4273.589844,4260.769043,4429.871582,4463.205078,4343.846191,4387.948730,1639.000000,4.000000,80.000000,,,,0.000000,4.000000,4.000000,4.000000,4.000000,4.000000,4.000000,4.000000,4.000000,4.000000,4.000000,4.000000,4.000000,4.000000,4.000000,100.000000,,,,,,,,,,,,,,,,,,,,,,,,,,,,,,,,,,,,,,,,,,,,,,,
1665722784.744653,1665722784.745091,84.000000,0.000000,4288.589844,4277.179688,4299.358887,4303.333496,4309.871582,4292.820313,4290.256348,4293.974121,4273.461426,4265.897461,4428.077148,4460.384766,4343.333496,4389.615234,2793.000000,4.000000,80.000000,,,,0.000000,4.000000,4.000000,4.000000,4.000000,4.000000,4.000000,4.000000,4.000000,4.000000,4.000000,4.000000,4.000000,4.000000,4.000000,100.000000,,,,,,,,,,,,,,,,,,,,,,,,,,,,,,,,,,,,,,,,,,,,,,,
1665722784.752461,1665722784.752899,85.000000,0.000000,4292.563965,4286.666504,4299.487305,4312.820313,4309.871582,4294.743652,4293.717773,4300.769043,4276.025879,4272.692383,4436.538574,4465.641113,4352.436035,4397.307617,2723.000000,4.000000,80.000000,,,,0.000000,4.000000,4.000000,4.000000,4.000000,4.000000,4.000000,4.000000,4.000000,4.000000,4.000000,4.000000,4.000000,4.000000,4.000000,100.000000,,,,,,,,,,,,,,,,,,,,,,,,,,,,,,,,,,,,,,,,,,,,,,,
1665722784.760269,1665722784.760807,86.000000,0.000000,4290.641113,4282.307617,4301.666504,4310.384766,4300.769043,4296.794922,4296.538574,4301.922852,4278.974121,4275.769043,4445.128418,4469.102539,4354.615234,4398.974121,2506.000000,4.000000,80.000000,,,,0.000000,4.000000,4.000000,4.000000,4.000000,4.000000,4.000000,4.000000,4.000000,4.000000,4.000000,4.000000,4.000000,4.000000,4.000000,100.000000,,,,,,,,,,,,,,,,,,,,,,,,,,,,,,,,,,,,,,,,,,,,,,,
1665722784.768078,1665722784.768616,87.000000,0.000000,4300.641113,4286.794922,4309.102539,4315.000000,4301.538574,4302.820313,4306.538574,4306.666504,4288.846191,4285.512695,4450.256348,4477.563965,4358.717773,4401.666504,1639.000000,4.000000,80.000000,,,,0.000000,4.000000,4.000000,4.000000,4.000000,4.000000,4.000000,4.000000,4.000000,4.000000,4.000000,4.000000,4.000000,4.000000,4.000000,100.000000,,,,,,,,,,,,,,,,,,,,,,,,,,,,,,,,,,,,,,,,,,,,,,,
1665722784.775886,1665722784.776424,88.000000,0.000000,4313.461426,4298.077148,4315.256348,4318.974121,4312.563965,4307.179688,4313.974121,4317.179688,4298.846191,4289.871582,4446.794922,4485.512695,4368.974121,4404.615234,2793.000000,4.000000,80.000000,,,,0.000000,4.000000,4.000000,4.000000,4.000000,4.000000,4.000000,4.000000,4.000000,4.000000,4.000000,4.000000,4.000000,4.000000,4.000000,100.000000,,,,,,,,,,,,,,,,,,,,,,,,,,,,,,,,,,,,,,,,,,,,,,,
1665722784.783695,1665722784.784133,89.000000,0.000000,4303.846191,4294.230957,4310.128418,4306.282227,4314.102539,4302.948730,4303.333496,4316.282227,4296.666504,4286.153809,4451.794922,4480.384766,4370.641113,4401.153809,2723.000000,4.000000,80.000000,,,,0.000000,4.000000,4.000000,4.000000,4.000000,4.000000,4.000000,4.000000,4.000000,4.000000,4.000000,4.000000,4.000000,4.000000,4.000000,100.000000,,,,,,,,,,,,,,,,,,,,,,,,,,,,,,,,,,,,,,,,,,,,,,,
1665722784.791503,1665722784.792041,90.000000,0.000000,4291.410156,4284.230957,4297.820313,4306.153809,4308.077148,4297.307617,4296.410156,4309.615234,4290.256348,4288.974121,4463.717773,4476.153809,4363.717773,4396.410156,2506.000000,4.000000,80.000000,,,,0.000000,4.000000,4.000000,4.000000,4.000000,4.000000,4.000000,4.000000,4.000000,4.000000,4.000000,4.000000,4.000000,4.000000,4.000000,100.000000,,,,,,,,,,,,,,,,,,,,,,,,,,,,,,,,,,,,,,,,,,,,,,,
1665722784.799312,1665722784.799850,91.000000,0.000000,4294.615234,4281.794922,4292.692383,4316.794922,4306.666504,4302.179688,4307.948730,4312.307617,4292.307617,4290.384766,4460.000000,4478.461426,4361.025879,4394.487305,1639.000000,4.000000,80.000000,,,,0.000000,4.000000,4.000000,4.000000,4.000000,4.000000,4.000000,4.000000,4.000000,4.000000,4.000000,4.000000,4.000000,4.000000,4.000000,100.000000,,,,,,,,,,,,,,,,,,,,,,,,,,,,,,,,,,,,,,,,,,,,,,,
1665722784.807120,1665722784.807658,92.000000,0.000000,4296.538574,4280.641113,4299.230957,4306.410156,4308.077148,4310.128418,4315.128418,4315.641113,4295.641113,4287.820313,4454.358887,4482.436035,4367.820313,4397.307617,2793.000000,4.000000,80.000000,,,,0.000000,4.000000,4.000000,4.000000,4.000000,4.000000,4.000000,4.000000,4.000000,4.000000,4.000000,4.000000,4.000000,4.000000,4.000000,100.000000,,,,,,,,,,,,,,,,,,,,,,,,,,,,,,,,,,,,,,,,,,,,,,,
1665722784.814928,1665722784.815367,93.000000,0.000000,4291.666504,4282.436035,4301.538574,4295.769043,4308.333496,4309.358887,4310.128418,4310.000000,4296.282227,4291.794922,4457.820313,4478.717773,4371.538574,4397.692383,2723.000000,4.000000,80.000000,,,,0.000000,4.000000,4.000000,4.000000,4.000000,4.000000,4.000000,4.000000,4.000000,4.000000,4.000000,4.000000,4.000000,4.000000,4.000000,100.000000,,,,,,,,,,,,,,,,,,,,,,,,,,,,,,,,,,,,,,,,,,,,,,,
1665722784.822737,1665722784.823175,94.000000,0.000000,4288.974121,4282.307617,4294.102539,4306.922852,4311.282227,4302.692383,4308.717773,4309.871582,4296.538574,4290.897461,4462.051270,4467.948730,4364.615234,4396.153809,2506.000000,4.000000,80.000000,,,,0.000000,4.000000,4.000000,4.000000,4.000000,4.000000,4.000000,4.000000,4.000000,4.000000,4.000000,4.000000,4.000000,4.000000,4.000000,100.000000,,,,,,,,,,,,,,,,,,,,,,,,,,,,,,,,,,,,,,,,,,,,,,,
1665722784.830545,1665722784.830884,95.000000,0.000000,4293.589844,4280.256348,4295.000000,4313.205078,4313.077148,4301.666504,4309.102539,4314.230957,4297.436035,4287.820313,4459.871582,4472.820313,4362.307617,4398.205078,1639.000000,4.000000,80.000000,,,,0.000000,4.000000,4.000000,4.000000,4.000000,4.000000,4.000000,4.000000,4.000000,4.000000,4.000000,4.000000,4.000000,4.000000,4.000000,100.000000,,,,,,,,,,,,,,,,,,,,,,,,,,,,,,,,,,,,,,,,,,,,,,,
1665722784.838354,1665722784.838692,96.000000,0.000000,4293.717773,4279.615234,4303.717773,4299.487305,4306.922852,4303.589844,4303.077148,4309.487305,4297.179688,4296.410156,4456.410156,4482.179688,4366.410156,4398.461426,2793.000000,4.000000,80.000000,,,,0.000000,4.000000,4.000000,4.000000,4.000000,4.000000,4.000000,4.000000,4.000000,4.000000,4.000000,4.000000,4.000000,4.000000,4.000000,100.000000,,,,,,,,,,,,,,,,,,,,,,,,,,,,,,,,,,,,,,,,,,,,,,,
1665722784.846162,1665722784.846401,97.000000,0.000000,4280.769043,4276.538574,4295.384766,4294.358887,4303.461426,4295.897461,4295.384766,4300.897461,4294.743652,4298.205078,4455.512695,4470.641113,4365.256348,4390.512695,2723.000000,4.000000,80.000000,,,,0.000000,4.000000,4.000000,4.000000,4.000000,4.000000,4.000000,4.000000,4.000000,4.000000,4.000000,4.000000,4.000000,4.000000,4.000000,100.000000,,,,,,,,,,,,,,,,,,,,,,,,,,,,,,,,,,,,,,,,,,,,,,,
1665722784.853970,1665722784.854309,98.000000,0.000000,4278.461426,4279.487305,4290.128418,4308.461426,4308.717773,4288.974121,4291.025879,4300.769043,4289.615234,4291.282227,4456.282227,4466.282227,4362.692383,4391.153809,2506.000000,4.000000,80.000000,,,,0.000000,4.000000,4.000000,4.000000,4.000000,4.000000,4.000000,4.000000,4.000000,4.000000,4.000000,4.000000,4.000000,4.000000,4.000000,100.000000,,,,,,,,,,,,,,,,,,,,,,,,,,,,,,,,,,,,,,,,,,,,,,,
1665722784.861779,1665722784.862117,99.000000,0.000000,4297.563965,4291.282227,4303.461426,4321.025879,4314.615234,4294.230957,4294.102539,4304.102539,4284.743652,4291.153809,4461.153809,4487.051270,4371.025879,4404.230957,1639.000000,4.000000,80.000000,,,,0.000000,4.000000,4.000000,4.000000,4.000000,4.000000,4.000000,4.000000,4.000000,4.000000,4.000000,4.000000,4.000000,4.000000,4.000000,100.000000,,,,,,,,,,,,,,,,,,,,,,,,,,,,,,,,,,,,,,,,,,,,,,,
1665722784.869587,1665722784.870026,100.000000,0.000000,4311.025879,4296.666504,4315.384766,4321.153809,4312.051270,4300.128418,4300.256348,4304.615234,4287.051270,4293.205078,4473.461426,4498.846191,4379.230957,4408.461426,2793.000000,4.000000,80.000000,,,,0.000000,4.000000,4.000000,4.000000,4.000000,4.000000,4.000000,4.000000,4.000000,4.000000,4.000000,4.000000,4.000000,4.000000,4.000000,100.000000,,,,,,,,,,,,,,,,,,,,,,,,,,,,,,,,,,,,,,,,,,,,,,,
1665722784.877396,1665722784.877834,101.000000,0.000000,4310.769043,4294.102539,4316.538574,4316.025879,4311.410156,4302.692383,4304.487305,4306.794922,4292.179688,4292.820313,4476.666504,4495.128418,4375.641113,4404.871582,2723.000000,4.000000,80.000000,,,,0.000000,4.000000,4.000000,4.000000,4.000000,4.000000,4.000000,4.000000,4.000000,4.000000,4.000000,4.000000,4.000000,4.000000,4.000000,100.000000,,,,,,,,,,,,,,,,,,,,,,,,,,,,,,,,,,,,,,,,,,,,,,,
1665722784.885204,1665722784.885742,102.000000,0.000000,4312.820313,4293.589844,4316.666504,4314.487305,4319.358887,4307.692383,4307.692383,4309.102539,4293.589844,4298.077148,4467.563965,4497.179688,4373.461426,4405.000000,2506.000000,4.000000,80.000000,,,,0.000000,4.000000,4.000000,4.000000,4.000000,4.000000,4.000000,4.000000,4.000000,4.000000,4.000000,4.000000,4.000000,4.000000,4.000000,100.000000,,,,,,,,,,,,,,,,,,,,,,,,,,,,,,,,,,,,,,,,,,,,,,,
1665722784.893012,1665722784.893551,103.000000,0.000000,4313.846191,4293.846191,4315.384766,4321.025879,4317.307617,4307.179688,4311.538574,4309.230957,4295.769043,4301.410156,4470.000000,4493.717773,4379.615234,4402.948730,1639.000000,4.000000,80.000000,,,,0.000000,4.000000,4.000000,4.000000,4.000000,4.000000,4.000000,4.000000,4.000000,4.000000,4.000000,4.000000,4.000000,4.000000,4.000000,100.000000,,,,,,,,,,,,,,,,,,,,,,,,,,,,,,,,,,,,,,,,,,,,,,,
1665722784.900821,1665722784.901459,104.000000,0.000000,4303.205078,4288.717773,4309.358887,4320.000000,4307.179688,4304.102539,4312.051270,4307.051270,4294.230957,4291.153809,4469.102539,4483.846191,4376.282227,4396.794922,2793.000000,4.000000,80.000000,,,,0.000000,4.000000,4.000000,4.000000,4.000000,4.000000,4.000000,4.000000,4.000000,4.000000,4.000000,4.000000,4.000000,4.000000,4.000000,100.000000,,,,,,,,,,,,,,,,,,,,,,,,,,,,,,,,,,,,,,,,,,,,,,,
1665722784.908629,1665722784.909268,105.000000,0.000000,4295.641113,4286.538574,4308.589844,4309.615234,4311.410156,4308.077148,4309.487305,4305.769043,4287.051270,4276.666504,4448.589844,4484.743652,4360.512695,4397.692383,2723.000000,4.000000,80.000000,,,,0.000000,4.000000,4.000000,4.000000,4.000000,4.000000,4.000000,4.000000,4.000000,4.000000,4.000000,4.000000,4.000000,4.000000,4.000000,100.000000,,,,,,,,,,,,,,,,,,,,,,,,,,,,,,,,,,,,,,,,,,,,,,,
1665722784.916438,1665722784.917076,106.000000,0.000000,4303.077148,4291.282227,4310.000000,4313.974121,4322.051270,4313.846191,4310.641113,4307.051270,4288.589844,4279.358887,4444.615234,4488.846191,4356.922852,4400.769043,2506.000000,4.000000,80.000000,,,,0.000000,4.000000,4.000000,4.000000,4.000000,4.000000,4.000000,4.000000,4.000000,4.000000,4.000000,4.000000,4.000000,4.000000,4.000000,100.000000,,,,,,,,,,,,,,,,,,,,,,,,,,,,,,,,,,,,,,,,,,,,,,,
1665722784.924246,1665722784.924885,107.000000,0.000000,4307.820313,4289.358887,4313.333496,4321.025879,4318.461426,4313.974121,4313.974121,4306.922852,4293.717773,4290.256348,4462.820313,4485.384766,4364.615234,4398.717773,1639.000000,4.000000,80.000000,,,,0.000000,4.000000,4.000000,4.000000,4.000000,4.000000,4.000000,4.000000,4.000000,4.000000,4.000000,4.000000,4.000000,4.000000,4.000000,100.000000,,,,,,,,,,,,,,,,,,,,,,,,,,,,,,,,,,,,,,,,,,,,,,,
1665722784.932054,1665722784.932593,108.000000,0.000000,4300.384766,4285.512695,4311.794922,4313.974121,4317.436035,4317.307617,4316.282227,4307.436035,4293.974121,4291.794922,4462.179688,4482.179688,4361.922852,4395.512695,2793.000000,4.000000,80.000000,,,,0.000000,4.000000,4.000000,4.000000,4.000000,4.000000,4.000000,4.000000,4.000000,4.000000,4.000000,4.000000,4.000000,4.000000,4.000000,100.000000,1.000000,100.000000,4.000000,4.000000,4.000000,4.000000,4.000000,4.000000,4.000000,4.000000,4.000000,4.000000,4.000000,4.000000,4.000000,4.000000,1.000000,0.709786,0.009478,-1.526391,0.592776,1.000000,0.266589,2.759056,1.201655,7.043610,0.269120,1.000000,0.358440,39.536964,-4.642231,110.536270,1.000000,0.201812,0.092794,0.056576,0.236386,1.000000,0.397889,2.876597,-1.344156,9.651011,1.000000,0.421790,0.421790,0.000000,1.000000
1665722784.939863,1665722784.940402,109.000000,0.000000,4293.846191,4287.307617,4301.794922,4307.307617,4322.692383,4318.461426,4314.230957,4309.615234,4293.974121,4284.615234,4445.641113,4480.769043,4351.666504,4393.717773,2723.000000,4.000000,80.000000,,,,0.000000,4.000000,4.000000,4.000000,4.000000,4.000000,4.000000,4.000000,4.000000,4.000000,4.000000,4.000000,4.000000,4.000000,4.000000,100.000000,,,,,,,,,,,,,,,,,,,,,,,,,,,,,,,,,,,,,,,,,,,,,,,
1665722784.947671,1665722784.948110,110.000000,0.000000,4294.743652,4285.000000,4294.102539,4311.794922,4314.871582,4311.794922,4308.717773,4307.820313,4289.102539,4279.871582,4440.000000,4469.358887,4348.846191,4390.128418,2506.000000,4.000000,80.000000,,,,0.000000,4.000000,4.000000,4.000000,4.000000,4.000000,4.000000,4.000000,4.000000,4.000000,4.000000,4.000000,4.000000,4.000000,4.000000,100.000000,,,,,,,,,,,,,,,,,,,,,,,,,,,,,,,,,,,,,,,,,,,,,,,
1665722784.955480,1665722784.955919,111.000000,0.000000,4295.641113,4279.871582,4295.769043,4315.897461,4306.153809,4310.000000,4307.179688,4304.230957,4282.692383,4280.128418,4444.358887,4461.153809,4352.051270,4387.948730,1639.000000,4.000000,80.000000,,,,0.000000,4.000000,4.000000,4.000000,4.000000,4.000000,4.000000,4.000000,4.000000,4.000000,4.000000,4.000000,4.000000,4.000000,4.000000,100.000000,,,,,,,,,,,,,,,,,,,,,,,,,,,,,,,,,,,,,,,,,,,,,,,
1665722784.963288,1665722784.963627,112.000000,0.000000,4286.025879,4278.974121,4294.871582,4306.153809,4313.589844,4313.205078,4310.384766,4303.974121,4287.307617,4277.307617,4443.333496,4464.102539,4348.846191,4389.102539,2793.000000,4.000000,80.000000,,,,0.000000,4.000000,4.000000,4.000000,4.000000,4.000000,4.000000,4.000000,4.000000,4.000000,4.000000,4.000000,4.000000,4.000000,4.000000,100.000000,,,,,,,,,,,,,,,,,,,,,,,,,,,,,,,,,,,,,,,,,,,,,,,
1665722784.971096,1665722784.971436,113.000000,0.000000,4280.256348,4278.717773,4292.692383,4300.512695,4320.000000,4312.692383,4312.307617,4308.717773,4296.282227,4277.563965,4441.922852,4471.282227,4346.410156,4394.871582,2723.000000,4.000000,80.000000,,,,0.000000,4.000000,4.000000,4.000000,4.000000,4.000000,4.000000,4.000000,4.000000,4.000000,4.000000,4.000000,4.000000,4.000000,4.000000,100.000000,,,,,,,,,,,,,,,,,,,,,,,,,,,,,,,,,,,,,,,,,,,,,,,
1665722784.978905,1665722784.979144,114.000000,0.000000,4292.820313,4278.461426,4296.794922,4308.461426,4315.000000,4312.179688,4311.922852,4313.205078,4297.179688,4285.384766,4446.666504,4475.512695,4351.153809,4396.025879,2506.000000,4.000000,80.000000,,,,0.000000,4.000000,4.000000,4.000000,4.000000,4.000000,4.000000,4.000000,4.000000,4.000000,4.000000,4.000000,4.000000,4.000000,4.000000,100.000000,,,,,,,,,,,,,,,,,,,,,,,,,,,,,,,,,,,,,,,,,,,,,,,
1665722784.986713,1665722784.986953,115.000000,0.000000,4298.717773,4281.025879,4297.692383,4312.563965,4309.871582,4317.436035,4314.615234,4313.461426,4295.897461,4286.282227,4443.974121,4470.256348,4349.743652,4391.410156,1639.000000,4.000000,80.000000,,,,0.000000,4.000000,4.000000,4.000000,4.000000,4.000000,4.000000,4.000000,4.000000,4.000000,4.000000,4.000000,4.000000,4.000000,4.000000,100.000000,,,,,,,,,,,,,,,,,,,,,,,,,,,,,,,,,,,,,,,,,,,,,,,
1665722784.994522,1665722784.994661,116.000000,0.000000,4292.051270,4276.794922,4300.384766,4307.051270,4310.000000,4318.333496,4320.897461,4313.077148,4297.948730,4280.128418,4441.025879,4470.512695,4344.871582,4393.077148,2793.000000,4.000000,80.000000,,,,0.000000,4.000000,4.000000,4.000000,4.000000,4.000000,4.000000,4.000000,4.000000,4.000000,4.000000,4.000000,4.000000,4.000000,4.000000,100.000000,,,,,,,,,,,,,,,,,,,,,,,,,,,,,,,,,,,,,,,,,,,,,,,
1665722785.002330,1665722785.002470,117.000000,0.000000,4299.871582,4280.384766,4311.025879,4311.025879,4314.230957,4312.307617,4321.922852,4318.974121,4300.000000,4282.307617,4452.692383,4485.641113,4356.794922,4401.922852,2723.000000,4.000000,80.000000,,,,0.000000,4.000000,4.000000,4.000000,4.000000,4.000000,4.000000,4.000000,4.000000,4.000000,4.000000,4.000000,4.000000,4.000000,4.000000,100.000000,,,,,,,,,,,,,,,,,,,,,,,,,,,,,,,,,,,,,,,,,,,,,,,
1665722785.010139,1665722785.010178,118.000000,0.000000,4306.922852,4293.589844,4309.871582,4316.666504,4316.538574,4310.641113,4314.615234,4317.948730,4296.794922,4288.846191,4460.641113,4489.230957,4368.717773,4404.487305,2506.000000,4.000000,80.000000,,,,0.000000,4.000000,4.000000,4.000000,4.000000,4.000000,4.000000,4.000000,4.000000,4.000000,4.000000,4.000000,4.000000,4.000000,4.000000,100.000000,,,,,,,,,,,,,,,,,,,,,,,,,,,,,,,,,,,,,,,,,,,,,,,
1665722785.017947,1665722785.017987,119.000000,0.000000,4300.641113,4296.025879,4302.051270,4312.948730,4312.692383,4309.230957,4309.615234,4307.692383,4293.077148,4286.794922,4459.230957,4480.897461,4366.538574,4402.307617,1639.000000,4.000000,80.000000,,,,0.000000,4.000000,4.000000,4.000000,4.000000,4.000000,4.000000,4.000000,4.000000,4.000000,4.000000,4.000000,4.000000,4.000000,4.000000,100.000000,,,,,,,,,,,,,,,,,,,,,,,,,,,,,,,,,,,,,,,,,,,,,,,
1665722785.025755,1665722785.025695,120.000000,0.000000,4301.666504,4293.205078,4302.179688,4314.102539,4305.897461,4301.794922,4310.000000,4306.025879,4293.974121,4284.743652,4460.000000,4484.230957,4367.179688,4400.512695,2793.000000,4.000000,80.000000,,,,0.000000,4.000000,4.000000,4.000000,4.000000,4.000000,4.000000,4.000000,4.000000,4.000000,4.000000,4.000000,4.000000,4.000000,4.000000,100.000000,,,,,,,,,,,,,,,,,,,,,,,,,,,,,,,,,,,,,,,,,,,,,,,
1665722785.033564,1665722785.033603,121.000000,0.000000,4303.205078,4293.589844,4301.153809,4312.051270,4305.128418,4296.282227,4309.615234,4309.871582,4296.282227,4289.743652,4461.153809,4490.128418,4368.846191,4398.717773,2723.000000,4.000000,80.000000,,,,0.000000,4.000000,4.000000,4.000000,4.000000,4.000000,4.000000,4.000000,4.000000,4.000000,4.000000,4.000000,4.000000,4.000000,4.000000,100.000000,,,,,,,,,,,,,,,,,,,,,,,,,,,,,,,,,,,,,,,,,,,,,,,
1665722785.041372,1665722785.041412,122.000000,0.000000,4295.769043,4289.615234,4299.230957,4308.333496,4307.563965,4298.333496,4308.974121,4310.384766,4298.589844,4296.025879,4465.897461,4485.128418,4365.897461,4398.077148,2506.000000,4.000000,80.000000,,,,0.000000,4.000000,4.000000,4.000000,4.000000,4.000000,4.000000,4.000000,4.000000,4.000000,4.000000,4.000000,4.000000,4.000000,4.000000,100.000000,,,,,,,,,,,,,,,,,,,,,,,,,,,,,,,,,,,,,,,,,,,,,,,
1665722785.049181,1665722785.049320,123.000000,0.000000,4297.820313,4281.282227,4305.897461,4312.179688,4308.846191,4302.051270,4310.000000,4314.102539,4299.487305,4297.692383,4477.948730,4486.025879,4367.436035,4398.846191,1639.000000,4.000000,80.000000,,,,0.000000,4.000000,4.000000,4.000000,4.000000,4.000000,4.000000,4.000000,4.000000,4.000000,4.000000,4.000000,4.000000,4.000000,4.000000,100.000000,,,,,,,,,,,,,,,,,,,,,,,,,,,,,,,,,,,,,,,,,,,,,,,
1665722785.056989,1665722785.057129,124.000000,0.000000,4306.410156,4282.563965,4314.102539,4307.307617,4312.820313,4303.461426,4311.666504,4315.769043,4298.333496,4298.589844,4477.692383,4496.153809,4376.794922,4404.358887,2793.000000,4.000000,80.000000,,,,0.000000,4.000000,4.000000,4.000000,4.000000,4.000000,4.000000,4.000000,4.000000,4.000000,4.000000,4.000000,4.000000,4.000000,4.000000,100.000000,,,,,,,,,,,,,,,,,,,,,,,,,,,,,,,,,,,,,,,,,,,,,,,
1665722785.064798,1665722785.065037,125.000000,0.000000,4304.358887,4286.410156,4310.256348,4303.333496,4310.384766,4303.717773,4310.512695,4309.615234,4296.025879,4298.717773,4465.256348,4493.589844,4375.897461,4405.256348,2723.000000,4.000000,80.000000,,,,0.000000,4.000000,4.000000,4.000000,4.000000,4.000000,4.000000,4.000000,4.000000,4.000000,4.000000,4.000000,4.000000,4.000000,4.000000,100.000000,,,,,,,,,,,,,,,,,,,,,,,,,,,,,,,,,,,,,,,,,,,,,,,
1665722785.072606,1665722785.072846,126.000000,0.000000,4293.333496,4279.230957,4298.333496,4310.897461,4301.794922,4298.333496,4299.487305,4306.922852,4292.820313,4284.358887,4455.128418,4476.538574,4360.128418,4395.256348,2506.000000,4.000000,80.000000,,,,0.000000,4.000000,4.000000,4.000000,4.000000,4.000000,4.000000,4.000000,4.000000,4.000000,4.000000,4.000000,4.000000,4.000000,4.000000,100.000000,,,,,,,,,,,,,,,,,,,,,,,,,,,,,,,,,,,,,,,,,,,,,,,
1665722785.080414,1665722785.080754,127.000000,0.000000,4273.846191,4266.025879,4286.025879,4300.256348,4299.743652,4286.025879,4284.102539,4300.512695,4281.282227,4265.512695,4441.666504,4461.025879,4343.974121,4382.948730,80.000000,4.000000,80.000000,,,,0.000000,4.000000,4.000000,4.000000,4.000000,4.000000,4.000000,4.000000,4.000000,4.000000,4.000000,4.000000,4.000000,4.000000,4.000000,100.000000,,,,,,,,,,,,,,,,,,,,,,,,,,,,,,,,,,,,,,,,,,,,,,,
1665722785.088223,1665722785.088562,0.000000,0.000000,4260.512695,4253.333496,4281.666504,4275.128418,4296.282227,4276.282227,4276.153809,4290.000000,4265.512695,4257.436035,4425.256348,4450.769043,4330.512695,4380.641113,1686.000000,4.000000,80.000000,,,,0.000000,4.000000,4.000000,4.000000,4.000000,4.000000,4.000000,4.000000,4.000000,4.000000,4.000000,4.000000,4.000000,4.000000,4.000000,100.000000,,,,,,,,,,,,,,,,,,,,,,,,,,,,,,,,,,,,,,,,,,,,,,,
1665722785.096031,1665722785.096471,1.000000,0.000000,4266.794922,4252.948730,4285.384766,4280.769043,4291.538574,4280.128418,4278.846191,4291.794922,4266.666504,4257.307617,4423.589844,4448.333496,4327.051270,4387.820313,1761.000000,4.000000,80.000000,,,,0.000000,4.000000,4.000000,4.000000,4.000000,4.000000,4.000000,4.000000,4.000000,4.000000,4.000000,4.000000,4.000000,4.000000,4.000000,100.000000,,,,,,,,,,,,,,,,,,,,,,,,,,,,,,,,,,,,,,,,,,,,,,,
1665722785.103840,1665722785.104279,2.000000,0.000000,4278.077148,4265.897461,4292.948730,4302.179688,4297.948730,4293.077148,4288.589844,4301.922852,4280.128418,4268.333496,4432.051270,4461.922852,4338.077148,4393.846191,2364.000000,4.000000,80.000000,,,,0.000000,4.000000,4.000000,4.000000,4.000000,4.000000,4.000000,4.000000,4.000000,4.000000,4.000000,4.000000,4.000000,4.000000,4.000000,100.000000,,,,,,,,,,,,,,,,,,,,,,,,,,,,,,,,,,,,,,,,,,,,,,,
1665722785.111648,1665722785.112187,3.000000,0.000000,4288.077148,4278.461426,4299.871582,4307.051270,4306.922852,4298.717773,4295.769043,4303.974121,4284.487305,4282.820313,4444.743652,4474.487305,4353.333496,4395.128418,2124.000000,4.000000,80.000000,,,,0.000000,4.000000,4.000000,4.000000,4.000000,4.000000,4.000000,4.000000,4.000000,4.000000,4.000000,4.000000,4.000000,4.000000,4.000000,100.000000,,,,,,,,,,,,,,,,,,,,,,,,,,,,,,,,,,,,,,,,,,,,,,,
1665722785.119456,1665722785.119996,4.000000,0.000000,4295.000000,4281.153809,4300.256348,4308.333496,4308.717773,4297.307617,4294.615234,4302.820313,4281.666504,4282.820313,4454.358887,4470.384766,4355.769043,4395.769043,1821.000000,4.000000,80.000000,,,,0.000000,4.000000,4.000000,4.000000,4.000000,4.000000,4.000000,4.000000,4.000000,4.000000,4.000000,4.000000,4.000000,4.000000,4.000000,100.000000,,,,,,,,,,,,,,,,,,,,,,,,,,,,,,,,,,,,,,,,,,,,,,,
1665722785.127265,1665722785.127704,5.000000,0.000000,4287.436035,4278.205078,4293.461426,4303.974121,4309.615234,4295.769043,4288.846191,4302.179688,4282.051270,4274.871582,4446.922852,4459.358887,4345.641113,4392.051270,2221.000000,4.000000,80.000000,,,,0.000000,4.000000,4.000000,4.000000,4.000000,4.000000,4.000000,4.000000,4.000000,4.000000,4.000000,4.000000,4.000000,4.000000,4.000000,100.000000,,,,,,,,,,,,,,,,,,,,,,,,,,,,,,,,,,,,,,,,,,,,,,,
1665722785.135073,1665722785.135513,6.000000,0.000000,4275.384766,4278.974121,4291.025879,4296.794922,4310.384766,4294.358887,4288.974121,4299.487305,4282.179688,4277.307617,4436.410156,4456.538574,4341.025879,4388.461426,2351.000000,4.000000,80.000000,,,,0.000000,4.000000,4.000000,4.000000,4.000000,4.000000,4.000000,4.000000,4.000000,4.000000,4.000000,4.000000,4.000000,4.000000,4.000000,100.000000,,,,,,,,,,,,,,,,,,,,,,,,,,,,,,,,,,,,,,,,,,,,,,,
1665722785.142882,1665722785.143221,7.000000,0.000000,4282.307617,4278.589844,4297.051270,4301.538574,4307.179688,4296.282227,4294.871582,4298.846191,4281.794922,4281.794922,4440.384766,4462.307617,4347.436035,4393.589844,1680.000000,4.000000,80.000000,,,,0.000000,4.000000,4.000000,4.000000,4.000000,4.000000,4.000000,4.000000,4.000000,4.000000,4.000000,4.000000,4.000000,4.000000,4.000000,100.000000,,,,,,,,,,,,,,,,,,,,,,,,,,,,,,,,,,,,,,,,,,,,,,,
1665722785.150690,1665722785.151030,8.000000,0.000000,4295.256348,4283.461426,4299.102539,4313.846191,4309.487305,4301.922852,4297.179688,4298.846191,4283.589844,4278.333496,4446.666504,4467.820313,4354.102539,4398.846191,2110.000000,4.000000,80.000000,,,,0.000000,4.000000,4.000000,4.000000,4.000000,4.000000,4.000000,4.000000,4.000000,4.000000,4.000000,4.000000,4.000000,4.000000,4.000000,100.000000,,,,,,,,,,,,,,,,,,,,,,,,,,,,,,,,,,,,,,,,,,,,,,,
1665722785.158498,1665722785.158738,9.000000,0.000000,4290.769043,4288.974121,4294.871582,4313.974121,4314.102539,4300.897461,4293.717773,4294.358887,4280.384766,4273.333496,4441.922852,4462.948730,4346.666504,4392.563965,2284.000000,4.000000,80.000000,,,,0.000000,4.000000,4.000000,4.000000,4.000000,4.000000,4.000000,4.000000,4.000000,4.000000,4.000000,4.000000,4.000000,4.000000,4.000000,100.000000,,,,,,,,,,,,,,,,,,,,,,,,,,,,,,,,,,,,,,,,,,,,,,,
1665722785.166307,1665722785.166547,10.000000,0.000000,4279.615234,4285.384766,4290.641113,4302.436035,4312.179688,4296.538574,4290.641113,4288.974121,4277.179688,4273.333496,4440.256348,4451.025879,4339.615234,4386.666504,2513.000000,4.000000,80.000000,,,,0.000000,4.000000,4.000000,4.000000,4.000000,4.000000,4.000000,4.000000,4.000000,4.000000,4.000000,4.000000,4.000000,4.000000,4.000000,100.000000,,,,,,,,,,,,,,,,,,,,,,,,,,,,,,,,,,,,,,,,,,,,,,,
1665722785.174115,1665722785.174255,11.000000,0.000000,4277.179688,4278.846191,4289.487305,4298.205078,4308.717773,4301.538574,4292.563965,4291.922852,4277.948730,4272.307617,4443.717773,4450.000000,4345.769043,4391.538574,1626.000000,4.000000,80.000000,,,,0.000000,4.000000,4.000000,4.000000,4.000000,4.000000,4.000000,4.000000,4.000000,4.000000,4.000000,4.000000,4.000000,4.000000,4.000000,100.000000,,,,,,,,,,,,,,,,,,,,,,,,,,,,,,,,,,,,,,,,,,,,,,,
1665722785.181924,1665722785.182064,12.000000,0.000000,4284.102539,4279.230957,4290.256348,4303.589844,4310.256348,4306.025879,4295.512695,4298.461426,4278.589844,4268.717773,4444.358887,4462.692383,4353.717773,4396.282227,2800.000000,4.000000,80.000000,,,,0.000000,4.000000,4.000000,4.000000,4.000000,4.000000,4.000000,4.000000,4.000000,4.000000,4.000000,4.000000,4.000000,4.000000,4.000000,100.000000,,,,,,,,,,,,,,,,,,,,,,,,,,,,,,,,,,,,,,,,,,,,,,,
1665722785.189732,1665722785.189772,13.000000,0.000000,4288.717773,4281.794922,4289.871582,4306.794922,4310.769043,4301.153809,4296.666504,4300.256348,4277.820313,4271.282227,4447.948730,4471.410156,4355.897461,4394.871582,2713.000000,4.000000,80.000000,,,,0.000000,4.000000,4.000000,4.000000,4.000000,4.000000,4.000000,4.000000,4.000000,4.000000,4.000000,4.000000,4.000000,4.000000,4.000000,100.000000,,,,,,,,,,,,,,,,,,,,,,,,,,,,,,,,,,,,,,,,,,,,,,,
1665722785.197540,1665722785.197681,14.000000,0.000000,4281.410156,4279.487305,4281.025879,4304.487305,4303.717773,4295.128418,4295.512695,4300.128418,4276.794922,4275.256348,4450.512695,4462.563965,4350.128418,4387.948730,2513.000000,4.000000,80.000000,,,,0.000000,4.000000,4.000000,4.000000,4.000000,4.000000,4.000000,4.000000,4.000000,4.000000,4.000000,4.000000,4.000000,4.000000,4.000000,100.000000,,,,,,,,,,,,,,,,,,,,,,,,,,,,,,,,,,,,,,,,,,,,,,,
1665722785.205349,1665722785.205489,15.000000,0.000000,4275.128418,4276.538574,4280.128418,4302.051270,4300.256348,4291.410156,4293.589844,4304.358887,4275.897461,4272.051270,4446.794922,4458.205078,4346.666504,4390.897461,1626.000000,4.000000,80.000000,,,,0.000000,4.000000,4.000000,4.000000,4.000000,4.000000,4.000000,4.000000,4.000000,4.000000,4.000000,4.000000,4.000000,4.000000,4.000000,100.000000,,,,,,,,,,,,,,,,,,,,,,,,,,,,,,,,,,,,,,,,,,,,,,,
1665722785.213157,1665722785.213298,16.000000,0.000000,4287.948730,4276.794922,4295.641113,4297.948730,4306.410156,4292.692383,4295.897461,4309.743652,4282.692383,4271.282227,4445.256348,4476.922852,4357.692383,4403.205078,0.000000,4.000000,80.000000,,,,0.000000,4.000000,4.000000,4.000000,4.000000,4.000000,4.000000,4.000000,4.000000,4.000000,4.000000,4.000000,4.000000,4.000000,4.000000,100.000000,,,,,,,,,,,,,,,,,,,,,,,,,,,,,,,,,,,,,,,,,,,,,,,
1665722785.220966,1665722785.221006,17.000000,0.000000,4296.922852,4279.487305,4304.230957,4298.589844,4306.025879,4297.692383,4299.102539,4311.666504,4292.179688,4279.743652,4460.897461,4491.410156,4365.512695,4405.256348,0.000000,4.000000,80.000000,,,,0.000000,4.000000,4.000000,4.000000,4.000000,4.000000,4.000000,4.000000,4.000000,4.000000,4.000000,4.000000,4.000000,4.000000,4.000000,100.000000,,,,,,,,,,,,,,,,,,,,,,,,,,,,,,,,,,,,,,,,,,,,,,,
1665722785.228774,1665722785.228915,18.000000,0.000000,4287.436035,4280.641113,4297.051270,4312.179688,4303.333496,4298.205078,4299.615234,4306.025879,4290.256348,4283.589844,4473.205078,4482.820313,4360.256348,4396.153809,0.000000,4.000000,80.000000,,,,0.000000,4.000000,4.000000,4.000000,4.000000,4.000000,4.000000,4.000000,4.000000,4.000000,4.000000,4.000000,4.000000,4.000000,4.000000,100.000000,,,,,,,,,,,,,,,,,,,,,,,,,,,,,,,,,,,,,,,,,,,,,,,
1665722785.236583,1665722785.236723,19.000000,0.000000,4285.897461,4278.717773,4294.102539,4317.307617,4306.538574,4297.563965,4297.307617,4299.230957,4281.922852,4279.871582,4462.692383,4476.794922,4359.871582,4393.846191,0.000000,4.000000,80.000000,,,,0.000000,4.000000,4.000000,4.000000,4.000000,4.000000,4.000000,4.000000,4.000000,4.000000,4.000000,4.000000,4.000000,4.000000,4.000000,100.000000,,,,,,,,,,,,,,,,,,,,,,,,,,,,,,,,,,,,,,,,,,,,,,,
1665722785.244391,1665722785.244631,20.000000,0.000000,4291.666504,4278.333496,4300.256348,4300.384766,4304.871582,4299.743652,4296.922852,4301.410156,4283.077148,4279.487305,4456.922852,4485.384766,4364.487305,4398.974121,0.000000,4.000000,80.000000,,,,0.000000,4.000000,4.000000,4.000000,4.000000,4.000000,4.000000,4.000000,4.000000,4.000000,4.000000,4.000000,4.000000,4.000000,4.000000,100.000000,,,,,,,,,,,,,,,,,,,,,,,,,,,,,,,,,,,,,,,,,,,,,,,
1665722785.252199,1665722785.252440,21.000000,0.000000,4284.487305,4278.333496,4300.000000,4290.897461,4297.563965,4295.769043,4294.102539,4302.692383,4284.102539,4280.769043,4460.000000,4487.820313,4357.820313,4397.692383,0.000000,4.000000,80.000000,,,,0.000000,4.000000,4.000000,4.000000,4.000000,4.000000,4.000000,4.000000,4.000000,4.000000,4.000000,4.000000,4.000000,4.000000,4.000000,100.000000,,,,,,,,,,,,,,,,,,,,,,,,,,,,,,,,,,,,,,,,,,,,,,,
1665722785.260008,1665722785.260348,22.000000,0.000000,4278.333496,4280.384766,4296.666504,4306.410156,4299.487305,4295.000000,4296.282227,4301.153809,4282.307617,4278.461426,4456.153809,4479.743652,4355.384766,4394.615234,0.000000,4.000000,80.000000,,,,0.000000,4.000000,4.000000,4.000000,4.000000,4.000000,4.000000,4.000000,4.000000,4.000000,4.000000,4.000000,4.000000,4.000000,4.000000,100.000000,,,,,,,,,,,,,,,,,,,,,,,,,,,,,,,,,,,,,,,,,,,,,,,
1665722785.267816,1665722785.268157,23.000000,0.000000,4285.128418,4280.769043,4296.666504,4314.102539,4307.692383,4301.025879,4302.051270,4303.717773,4285.897461,4278.205078,4453.077148,4477.820313,4361.410156,4396.794922,0.000000,4.000000,80.000000,,,,0.000000,4.000000,4.000000,4.000000,4.000000,4.000000,4.000000,4.000000,4.000000,4.000000,4.000000,4.000000,4.000000,4.000000,4.000000,100.000000,,,,,,,,,,,,,,,,,,,,,,,,,,,,,,,,,,,,,,,,,,,,,,,
1665722785.275625,1665722785.276065,24.000000,0.000000,4292.051270,4279.615234,4301.666504,4305.000000,4307.051270,4299.102539,4302.563965,4307.179688,4287.563965,4275.384766,4454.871582,4482.051270,4356.153809,4399.230957,0.000000,4.000000,80.000000,,,,0.000000,4.000000,4.000000,4.000000,4.000000,4.000000,4.000000,4.000000,4.000000,4.000000,4.000000,4.000000,4.000000,4.000000,4.000000,100.000000,,,,,,,,,,,,,,,,,,,,,,,,,,,,,,,,,,,,,,,,,,,,,,,
1665722785.283433,1665722785.283873,25.000000,0.000000,4296.666504,4283.205078,4308.461426,4307.179688,4305.128418,4296.666504,4305.256348,4310.384766,4288.077148,4273.846191,4454.615234,4485.384766,4354.871582,4399.102539,0.000000,4.000000,80.000000,,,,0.000000,4.000000,4.000000,4.000000,4.000000,4.000000,4.000000,4.000000,4.000000,4.000000,4.000000,4.000000,4.000000,4.000000,4.000000,100.000000,,,,,,,,,,,,,,,,,,,,,,,,,,,,,,,,,,,,,,,,,,,,,,,
1665722785.291242,1665722785.291782,26.000000,0.000000,4291.282227,4285.000000,4308.589844,4314.358887,4303.717773,4300.897461,4306.538574,4311.282227,4288.205078,4277.436035,4452.820313,4483.333496,4361.025879,4398.461426,0.000000,4.000000,80.000000,,,,0.000000,4.000000,4.000000,4.000000,4.000000,4.000000,4.000000,4.000000,4.000000,4.000000,4.000000,4.000000,4.000000,4.000000,4.000000,100.000000,,,,,,,,,,,,,,,,,,,,,,,,,,,,,,,,,,,,,,,,,,,,,,,
1665722785.299050,1665722785.299590,27.000000,0.000000,4281.922852,4279.102539,4304.230957,4306.538574,4298.205078,4301.282227,4303.974121,4308.205078,4290.128418,4282.307617,4450.769043,4478.461426,4358.461426,4396.410156,0.000000,4.000000,80.000000,,,,0.000000,4.000000,4.000000,4.000000,4.000000,4.000000,4.000000,4.000000,4.000000,4.000000,4.000000,4.000000,4.000000,4.000000,4.000000,100.000000,,,,,,,,,,,,,,,,,,,,,,,,,,,,,,,,,,,,,,,,,,,,,,,
1665722785.306858,1665722785.307299,28.000000,0.000000,4288.846191,4277.692383,4307.820313,4304.743652,4304.358887,4300.641113,4306.538574,4313.461426,4298.461426,4285.512695,4452.051270,4481.922852,4359.487305,4397.820313,0.000000,4.000000,80.000000,,,,0.000000,4.000000,4.000000,4.000000,4.000000,4.000000,4.000000,4.000000,4.000000,4.000000,4.000000,4.000000,4.000000,4.000000,4.000000,100.000000,,,,,,,,,,,,,,,,,,,,,,,,,,,,,,,,,,,,,,,,,,,,,,,
1665722785.314667,1665722785.315107,29.000000,0.000000,4301.025879,4285.897461,4311.794922,4314.487305,4318.589844,4307.179688,4312.948730,4322.563965,4302.179688,4282.948730,4462.948730,4488.974121,4371.922852,4402.820313,0.000000,4.000000,80.000000,,,,0.000000,4.000000,4.000000,4.000000,4.000000,4.000000,4.000000,4.000000,4.000000,4.000000,4.000000,4.000000,4.000000,4.000000,4.000000,100.000000,,,,,,,,,,,,,,,,,,,,,,,,,,,,,,,,,,,,,,,,,,,,,,,
1665722785.322475,1665722785.322816,30.000000,0.000000,4297.179688,4288.077148,4306.153809,4315.384766,4317.051270,4308.717773,4314.358887,4318.333496,4298.077148,4281.153809,4465.769043,4485.000000,4373.333496,4401.666504,0.000000,4.000000,80.000000,,,,0.000000,4.000000,4.000000,4.000000,4.000000,4.000000,4.000000,4.000000,4.000000,4.000000,4.000000,4.000000,4.000000,4.000000,4.000000,100.000000,,,,,,,,,,,,,,,,,,,,,,,,,,,,,,,,,,,,,,,,,,,,,,,
1665722785.330284,1665722785.330724,31.000000,0.000000,4285.897461,4280.769043,4298.333496,4307.179688,4305.769043,4298.589844,4306.666504,4306.922852,4292.179688,4279.358887,4449.871582,4469.871582,4359.615234,4392.179688,0.000000,4.000000,80.000000,,,,0.000000,4.000000,4.000000,4.000000,4.000000,4.000000,4.000000,4.000000,4.000000,4.000000,4.000000,4.000000,4.000000,4.000000,4.000000,100.000000,,,,,,,,,,,,,,,,,,,,,,,,,,,,,,,,,,,,,,,,,,,,,,,
1665722785.338092,1665722785.338532,32.000000,0.000000,4286.410156,4279.358887,4298.205078,4304.358887,4305.897461,4295.000000,4298.333496,4304.615234,4286.282227,4269.358887,4438.974121,4464.358887,4352.436035,4391.538574,0.000000,4.000000,80.000000,,,,0.000000,4.000000,4.000000,4.000000,4.000000,4.000000,4.000000,4.000000,4.000000,4.000000,4.000000,4.000000,4.000000,4.000000,4.000000,100.000000,,,,,,,,,,,,,,,,,,,,,,,,,,,,,,,,,,,,,,,,,,,,,,,
1665722785.345900,1665722785.346341,33.000000,0.000000,4293.589844,4285.000000,4299.615234,4310.769043,4311.410156,4301.538574,4298.077148,4308.333496,4284.102539,4269.615234,4445.641113,4471.025879,4357.948730,4397.436035,0.000000,4.000000,80.000000,,,,0.000000,4.000000,4.000000,4.000000,4.000000,4.000000,4.000000,4.000000,4.000000,4.000000,4.000000,4.000000,4.000000,4.000000,4.000000,100.000000,,,,,,,,,,,,,,,,,,,,,,,,,,,,,,,,,,,,,,,,,,,,,,,
1665722785.353709,1665722785.354049,34.000000,0.000000,4295.384766,4282.051270,4301.153809,4311.025879,4308.205078,4303.205078,4306.922852,4313.205078,4290.641113,4280.769043,4452.051270,4476.794922,4360.512695,4397.436035,0.000000,4.000000,80.000000,,,,0.000000,4.000000,4.000000,4.000000,4.000000,4.000000,4.000000,4.000000,4.000000,4.000000,4.000000,4.000000,4.000000,4.000000,4.000000,100.000000,,,,,,,,,,,,,,,,,,,,,,,,,,,,,,,,,,,,,,,,,,,,,,,
1665722785.361517,1665722785.361858,35.000000,0.000000,4293.461426,4277.692383,4298.461426,4306.666504,4307.820313,4298.974121,4307.692383,4310.384766,4292.179688,4279.102539,4446.282227,4476.153809,4358.461426,4393.589844,0.000000,4.000000,80.000000,,,,0.000000,4.000000,4.000000,4.000000,4.000000,4.000000,4.000000,4.000000,4.000000,4.000000,4.000000,4.000000,4.000000,4.000000,4.000000,100.000000,,,,,,,,,,,,,,,,,,,,,,,,,,,,,,,,,,,,,,,,,,,,,,,
1665722785.369326,1665722785.369566,36.000000,0.000000,4298.589844,4287.051270,4299.102539,4314.743652,4315.000000,4306.153809,4307.692383,4306.666504,4291.410156,4277.820313,4452.307617,4479.743652,4367.820313,4399.743652,0.000000,4.000000,80.000000,,,,0.000000,4.000000,4.000000,4.000000,4.000000,4.000000,4.000000,4.000000,4.000000,4.000000,4.000000,4.000000,4.000000,4.000000,4.000000,100.000000,,,,,,,,,,,,,,,,,,,,,,,,,,,,,,,,,,,,,,,,,,,,,,,
1665722785.377134,1665722785.377375,37.000000,0.000000,4306.282227,4297.820313,4308.974121,4321.538574,4316.410156,4314.743652,4316.282227,4313.589844,4295.384766,4288.461426,4471.538574,4493.333496,4380.000000,4409.102539,0.000000,4.000000,80.000000,,,,0.000000,4.000000,4.000000,4.000000,4.000000,4.000000,4.000000,4.000000,4.000000,4.000000,4.000000,4.000000,4.000000,4.000000,4.000000,100.000000,,,,,,,,,,,,,,,,,,,,,,,,,,,,,,,,,,,,,,,,,,,,,,,
1665722785.384942,1665722785.385083,38.000000,0.000000,4304.230957,4294.615234,4314.743652,4311.666504,4313.589844,4310.384766,4322.692383,4321.153809,4297.307617,4288.846191,4479.358887,4501.410156,4381.025879,4407.051270,0.000000,4.000000,80.000000,1,1,1,0.000000,4.000000,4.000000,4.000000,4.000000,4.000000,4.000000,4.000000,4.000000,4.000000,4.000000,4.000000,4.000000,4.000000,4.000000,100.000000,,,,,,,,,,,,,,,,,,,,,,,,,,,,,,,,,,,,,,,,,,,,,,,
1665722785.392751,1665722785.392992,39.000000,0.000000,4296.153809,4283.333496,4308.205078,4306.025879,4313.589844,4309.743652,4325.256348,4321.410156,4301.794922,4288.333496,4474.230957,4493.077148,4379.358887,4399.358887,0.000000,4.000000,80.000000,,,,0.000000,4.000000,4.000000,4.000000,4.000000,4.000000,4.000000,4.000000,4.000000,4.000000,4.000000,4.000000,4.000000,4.000000,4.000000,100.000000,,,,,,,,,,,,,,,,,,,,,,,,,,,,,,,,,,,,,,,,,,,,,,,
1665722785.400559,1665722785.400800,40.000000,0.000000,4292.948730,4281.410156,4303.461426,4311.794922,4311.922852,4311.666504,4321.153809,4320.384766,4307.820313,4296.410156,4464.615234,4487.692383,4376.538574,4399.487305,0.000000,4.000000,80.000000,,,,0.000000,4.000000,4.000000,4.000000,4.000000,4.000000,4.000000,4.000000,4.000000,4.000000,4.000000,4.000000,4.000000,4.000000,4.000000,100.000000,,,,,,,,,,,,,,,,,,,,,,,,,,,,,,,,,,,,,,,,,,,,,,,
1665722785.408368,1665722785.408609,41.000000,0.000000,4296.282227,4289.230957,4308.461426,4313.717773,4305.256348,4304.871582,4313.461426,4318.589844,4302.179688,4290.897461,4462.436035,4492.820313,4368.461426,4403.974121,0.000000,4.000000,80.000000,,,,0.000000,4.000000,4.000000,4.000000,4.000000,4.000000,4.000000,4.000000,4.000000,4.000000,4.000000,4.000000,4.000000,4.000000,4.000000,100.000000,,,,,,,,,,,,,,,,,,,,,,,,,,,,,,,,,,,,,,,,,,,,,,,
1665722785.416176,1665722785.416317,42.000000,0.000000,4297.820313,4287.948730,4309.615234,4308.461426,4304.230957,4301.282227,4307.948730,4311.538574,4293.589844,4280.384766,4463.461426,4488.974121,4365.897461,4397.948730,0.000000,4.000000,80.000000,,,,0.000000,4.000000,4.000000,4.000000,4.000000,4.000000,4.000000,4.000000,4.000000,4.000000,4.000000,4.000000,4.000000,4.000000,4.000000,100.000000,,,,,,,,,,,,,,,,,,,,,,,,,,,,,,,,,,,,,,,,,,,,,,,
1665722785.423984,1665722785.424226,43.000000,0.000000,4300.897461,4279.615234,4307.948730,4305.769043,4309.743652,4300.769043,4305.256348,4310.769043,4294.102539,4281.922852,4462.692383,4484.871582,4369.230957,4396.794922,0.000000,4.000000,80.000000,,,,0.000000,4.000000,4.000000,4.000000,4.000000,4.000000,4.000000,4.000000,4.000000,4.000000,4.000000,4.000000,4.000000,4.000000,4.000000,100.000000,,,,,,,,,,,,,,,,,,,,,,,,,,,,,,,,,,,,,,,,,,,,,,,
1665722785.431793,1665722785.432034,44.000000,0.000000,4308.461426,4280.512695,4308.717773,4309.871582,4311.025879,4297.051270,4305.897461,4315.769043,4295.897461,4285.769043,4465.256348,4495.256348,4369.615234,4405.000000,0.000000,4.000000,80.000000,,,,0.000000,4.000000,4.000000,4.000000,4.000000,4.000000,4.000000,4.000000,4.000000,4.000000,4.000000,4.000000,4.000000,4.000000,4.000000,100.000000,1.000000,100.000000,4.000000,4.000000,4.000000,4.000000,4.000000,4.000000,4.000000,4.000000,4.000000,4.000000,4.000000,4.000000,4.000000,4.000000,1.000000,0.713081,0.026146,-1.526066,0.592900,1.000000,0.256610,2.700760,1.201655,7.043610,0.267471,1.000000,0.355101,39.198563,-4.638912,110.522209,1.000000,0.192142,0.072682,0.056578,0.236359,1.000000,0.391204,3.035855,-1.344195,9.650008,1.000000,0.423840,0.423840,0.000000,1.000000
1665722785.439601,1665722785.439942,45.000000,0.000000,4308.974121,4287.179688,4308.077148,4316.666504,4307.692383,4298.846191,4306.922852,4316.282227,4294.487305,4284.102539,4466.538574,4499.487305,4367.307617,4403.974121,0.000000,4.000000,80.000000,,,,0.000000,4.000000,4.000000,4.000000,4.000000,4.000000,4.000000,4.000000,4.000000,4.000000,4.000000,4.000000,4.000000,4.000000,4.000000,100.000000,,,,,,,,,,,,,,,,,,,,,,,,,,,,,,,,,,,,,,,,,,,,,,,
1665722785.447410,1665722785.447751,46.000000,0.000000,4305.384766,4286.410156,4306.410156,4312.563965,4305.000000,4308.205078,4312.436035,4316.282227,4297.820313,4282.563965,4467.820313,4493.717773,4368.846191,4398.077148,0.000000,4.000000,80.000000,,,,0.000000,4.000000,4.000000,4.000000,4.000000,4.000000,4.000000,4.000000,4.000000,4.000000,4.000000,4.000000,4.000000,4.000000,4.000000,100.000000,,,,,,,,,,,,,,,,,,,,,,,,,,,,,,,,,,,,,,,,,,,,,,,
1665722785.455218,1665722785.455659,47.000000,0.000000,4309.487305,4285.512695,4309.871582,4309.487305,4308.846191,4313.333496,4317.948730,4319.615234,4301.538574,4286.025879,4474.358887,4498.974121,4378.717773,4405.512695,0.000000,4.000000,80.000000,,,,0.000000,4.000000,4.000000,4.000000,4.000000,4.000000,4.000000,4.000000,4.000000,4.000000,4.000000,4.000000,4.000000,4.000000,4.000000,100.000000,,,,,,,,,,,,,,,,,,,,,,,,,,,,,,,,,,,,,,,,,,,,,,,
1665722785.463027,1665722785.463468,48.000000,0.000000,4313.846191,4289.615234,4312.307617,4317.692383,4315.512695,4310.512695,4313.589844,4315.512695,4297.820313,4289.487305,4475.897461,4502.820313,4380.384766,4409.230957,0.000000,4.000000,80.000000,,,,0.000000,4.000000,4.000000,4.000000,4.000000,4.000000,4.000000,4.000000,4.000000,4.000000,4.000000,4.000000,4.000000,4.000000,4.000000,100.000000,,,,,,,,,,,,,,,,,,,,,,,,,,,,,,,,,,,,,,,,,,,,,,,
1665722785.470835,1665722785.471376,49.000000,0.000000,4309.230957,4284.871582,4309.743652,4318.589844,4313.333496,4302.820313,4306.025879,4309.743652,4294.230957,4287.051270,4469.615234,4495.128418,4367.179688,4399.743652,0.000000,4.000000,80.000000,,,,0.000000,4.000000,4.000000,4.000000,4.000000,4.000000,4.000000,4.000000,4.000000,4.000000,4.000000,4.000000,4.000000,4.000000,4.000000,100.000000,,,,,,,,,,,,,,,,,,,,,,,,,,,,,,,,,,,,,,,,,,,,,,,
1665722785.478643,1665722785.479184,50.000000,0.000000,4306.666504,4281.794922,4308.717773,4312.436035,4311.410156,4299.358887,4307.179688,4311.922852,4296.538574,4286.153809,4470.512695,4492.436035,4366.922852,4398.974121,0.000000,4.000000,80.000000,,,,0.000000,4.000000,4.000000,4.000000,4.000000,4.000000,4.000000,4.000000,4.000000,4.000000,4.000000,4.000000,4.000000,4.000000,4.000000,100.000000,,,,,,,,,,,,,,,,,,,,,,,,,,,,,,,,,,,,,,,,,,,,,,,
1665722785.486452,1665722785.487093,51.000000,0.000000,4310.641113,4288.717773,4310.256348,4307.948730,4314.871582,4305.000000,4310.256348,4317.820313,4301.025879,4292.051270,4475.769043,4500.256348,4378.974121,4406.410156,0.000000,4.000000,80.000000,,,,0.000000,4.000000,4.000000,4.000000,4.000000,4.000000,4.000000,4.000000,4.000000,4.000000,4.000000,4.000000,4.000000,4.000000,4.000000,100.000000,,,,,,,,,,,,,,,,,,,,,,,,,,,,,,,,,,,,,,,,,,,,,,,
1665722785.494260,1665722785.494901,52.000000,0.000000,4311.153809,4287.051270,4312.692383,4307.436035,4309.487305,4308.077148,4312.436035,4321.410156,4307.563965,4296.538574,4477.948730,4503.846191,4377.948730,4408.205078,0.000000,4.000000,80.000000,,,,0.000000,4.000000,4.000000,4.000000,4.000000,4.000000,4.000000,4.000000,4.000000,4.000000,4.000000,4.000000,4.000000,4.000000,4.000000,100.000000,,,,,,,,,,,,,,,,,,,,,,,,,,,,,,,,,,,,,,,,,,,,,,,
1665722785.502069,1665722785.502610,53.000000,0.000000,4309.102539,4282.820313,4314.871582,4313.974121,4302.436035,4306.410156,4316.666504,4321.794922,4313.205078,4298.717773,4478.205078,4502.051270,4373.974121,4405.769043,0.000000,4.000000,80.000000,,,,0.000000,4.000000,4.000000,4.000000,4.000000,4.000000,4.000000,4.000000,4.000000,4.000000,4.000000,4.000000,4.000000,4.000000,4.000000,100.000000,,,,,,,,,,,,,,,,,,,,,,,,,,,,,,,,,,,,,,,,,,,,,,,
1665722785.509877,1665722785.510418,54.000000,0.000000,4312.179688,4295.128418,4312.948730,4320.128418,4310.384766,4307.051270,4315.769043,4318.974121,4312.179688,4299.102539,4470.384766,4498.974121,4375.256348,4401.538574,0.000000,4.000000,80.000000,,,,0.000000,4.000000,4.000000,4.000000,4.000000,4.000000,4.000000,4.000000,4.000000,4.000000,4.000000,4.000000,4.000000,4.000000,4.000000,100.000000,,,,,,,,,,,,,,,,,,,,,,,,,,,,,,,,,,,,,,,,,,,,,,,
1665722785.517686,1665722785.518127,55.000000,0.000000,4310.897461,4302.179688,4307.179688,4316.410156,4320.000000,4309.102539,4312.179688,4315.897461,4308.589844,4295.384766,4471.282227,4492.948730,4366.666504,4398.205078,0.000000,4.000000,80.000000,,,,0.000000,4.000000,4.000000,4.000000,4.000000,4.000000,4.000000,4.000000,4.000000,4.000000,4.000000,4.000000,4.000000,4.000000,4.000000,100.000000,,,,,,,,,,,,,,,,,,,,,,,,,,,,,,,,,,,,,,,,,,,,,,,
1665722785.525494,1665722785.525935,56.000000,0.000000,4300.512695,4288.974121,4307.051270,4307.051270,4313.974121,4308.717773,4311.025879,4317.692383,4310.512695,4291.025879,4468.846191,4492.436035,4353.846191,4399.615234,0.000000,4.000000,80.000000,,,,0.000000,4.000000,4.000000,4.000000,4.000000,4.000000,4.000000,4.000000,4.000000,4.000000,4.000000,4.000000,4.000000,4.000000,4.000000,100.000000,,,,,,,,,,,,,,,,,,,,,,,,,,,,,,,,,,,,,,,,,,,,,,,
1665722785.533302,1665722785.533644,57.000000,0.000000,4302.948730,4286.410156,4311.410156,4311.025879,4308.461426,4307.436035,4311.410156,4319.230957,4312.948730,4295.641113,4462.436035,4494.487305,4358.589844,4403.205078,0.000000,4.000000,80.000000,,,,0.000000,4.000000,4.000000,4.000000,4.000000,4.000000,4.000000,4.000000,4.000000,4.000000,4.000000,4.000000,4.000000,4.000000,4.000000,100.000000,,,,,,,,,,,,,,,,,,,,,,,,,,,,,,,,,,,,,,,,,,,,,,,
1665722785.541111,1665722785.541452,58.000000,0.000000,4312.436035,4296.666504,4313.717773,4317.179688,4313.077148,4311.538574,4311.153809,4316.153809,4305.769043,4294.102539,4465.512695,4490.512695,4364.358887,4404.358887,0.000000,4.000000,80.000000,,,,0.000000,4.000000,4.000000,4.000000,4.000000,4.000000,4.000000,4.000000,4.000000,4.000000,4.000000,4.000000,4.000000,4.000000,4.000000,100.000000,,,,,,,,,,,,,,,,,,,,,,,,,,,,,,,,,,,,,,,,,,,,,,,
1665722785.548919,1665722785.549161,59.000000,0.000000,4303.077148,4295.897461,4311.025879,4313.333496,4313.589844,4309.871582,4304.230957,4309.743652,4295.769043,4282.563965,4458.846191,4482.436035,4352.563965,4398.205078,0.000000,4.000000,80.000000,,,,0.000000,4.000000,4.000000,4.000000,4.000000,4.000000,4.000000,4.000000,4.000000,4.000000,4.000000,4.000000,4.000000,4.000000,4.000000,100.000000,,,,,,,,,,,,,,,,,,,,,,,,,,,,,,,,,,,,,,,,,,,,,,,
1665722785.556728,1665722785.556969,60.000000,0.000000,4291.538574,4285.384766,4308.461426,4309.487305,4312.179688,4301.153809,4296.666504,4304.358887,4291.794922,4277.563965,4447.692383,4475.256348,4346.025879,4394.102539,0.000000,4.000000,80.000000,,,,0.000000,4.000000,4.000000,4.000000,4.000000,4.000000,4.000000,4.000000,4.000000,4.000000,4.000000,4.000000,4.000000,4.000000,4.000000,100.000000,,,,,,,,,,,,,,,,,,,,,,,,,,,,,,,,,,,,,,,,,,,,,,,
1665722785.564536,1665722785.564678,61.000000,0.000000,4294.871582,4284.230957,4306.282227,4308.846191,4309.358887,4301.410156,4300.512695,4306.538574,4293.077148,4282.179688,4455.769043,4472.436035,4353.333496,4397.820313,0.000000,4.000000,80.000000,,,,0.000000,4.000000,4.000000,4.000000,4.000000,4.000000,4.000000,4.000000,4.000000,4.000000,4.000000,4.000000,4.000000,4.000000,4.000000,100.000000,,,,,,,,,,,,,,,,,,,,,,,,,,,,,,,,,,,,,,,,,,,,,,,
1665722785.572344,1665722785.572486,62.000000,0.000000,4299.358887,4294.358887,4305.384766,4310.256348,4304.230957,4304.615234,4307.692383,4312.051270,4293.333496,4283.717773,4465.128418,4478.974121,4355.512695,4402.692383,0.000000,4.000000,80.000000,,,,0.000000,4.000000,4.000000,4.000000,4.000000,4.000000,4.000000,4.000000,4.000000,4.000000,4.000000,4.000000,4.000000,4.000000,4.000000,100.000000,,,,,,,,,,,,,,,,,,,,,,,,,,,,,,,,,,,,,,,,,,,,,,,
1665722785.580153,1665722785.580195,63.000000,0.000000,4303.846191,4297.692383,4307.179688,4313.589844,4307.948730,4303.205078,4309.102539,4311.153809,4293.846191,4281.922852,4455.897461,4485.512695,4350.256348,4402.051270,0.000000,4.000000,80.000000,,,,0.000000,4.000000,4.000000,4.000000,4.000000,4.000000,4.000000,4.000000,4.000000,4.000000,4.000000,4.000000,4.000000,4.000000,4.000000,100.000000,,,,,,,,,,,,,,,,,,,,,,,,,,,,,,,,,,,,,,,,,,,,,,,
1665722785.587961,1665722785.588003,64.000000,0.000000,4309.615234,4296.153809,4309.743652,4319.487305,4317.179688,4305.897461,4307.948730,4307.436035,4293.077148,4282.436035,4455.000000,4483.846191,4353.717773,4401.282227,1664.000000,4.000000,80.000000,,,,0.000000,4.000000,4.000000,4.000000,4.000000,4.000000,4.000000,4.000000,4.000000,4.000000,4.000000,4.000000,4.000000,4.000000,4.000000,100.000000,,,,,,,,,,,,,,,,,,,,,,,,,,,,,,,,,,,,,,,,,,,,,,,
1665722785.595770,1665722785.595712,65.000000,0.000000,4310.641113,4298.717773,4314.358887,4320.641113,4315.769043,4313.461426,4309.871582,4309.358887,4296.025879,4280.769043,4463.205078,4488.717773,4362.948730,4402.436035,1775.000000,4.000000,80.000000,,,,0.000000,4.000000,4.000000,4.000000,4.000000,4.000000,4.000000,4.000000,4.000000,4.000000,4.000000,4.000000,4.000000,4.000000,4.000000,100.000000,,,,,,,,,,,,,,,,,,,,,,,,,,,,,,,,,,,,,,,,,,,,,,,
1665722785.603578,1665722785.603620,66.000000,0.000000,4310.128418,4297.563965,4318.205078,4314.871582,4308.974121,4309.871582,4308.461426,4311.410156,4303.333496,4277.948730,4460.897461,4492.948730,4362.179688,4404.102539,2358.000000,4.000000,80.000000,,,,0.000000,4.000000,4.000000,4.000000,4.000000,4.000000,4.000000,4.000000,4.000000,4.000000,4.000000,4.000000,4.000000,4.000000,4.000000,100.000000,,,,,,,,,,,,,,,,,,,,,,,,,,,,,,,,,,,,,,,,,,,,,,,
1665722785.611386,1665722785.611429,67.000000,0.000000,4302.948730,4294.230957,4310.384766,4313.205078,4311.153809,4300.512695,4300.384766,4305.384766,4300.256348,4280.384766,4454.102539,4481.666504,4355.641113,4401.153809,2125.000000,4.000000,80.000000,,,,0.000000,4.000000,4.000000,4.000000,4.000000,4.000000,4.000000,4.000000,4.000000,4.000000,4.000000,4.000000,4.000000,4.000000,4.000000,100.000000,,,,,,,,,,,,,,,,,,,,,,,,,,,,,,,,,,,,,,,,,,,,,,,
1665722785.619195,1665722785.619337,68.000000,0.000000,4295.256348,4299.102539,4302.051270,4313.846191,4313.589844,4302.820313,4298.717773,4302.948730,4294.871582,4285.256348,4458.461426,4480.128418,4357.307617,4398.589844,1818.000000,4.000000,80.000000,,,,0.000000,4.000000,4.000000,4.000000,4.000000,4.000000,4.000000,4.000000,4.000000,4.000000,4.000000,4.000000,4.000000,4.000000,4.000000,100.000000,,,,,,,,,,,,,,,,,,,,,,,,,,,,,,,,,,,,,,,,,,,,,,,
1665722785.627003,1665722785.627145,69.000000,0.000000,4299.743652,4299.230957,4306.025879,4311.153809,4309.615234,4306.410156,4304.487305,4306.282227,4296.282227,4283.589844,4474.487305,4491.538574,4365.769043,4400.897461,2221.000000,4.000000,80.000000,,,,0.000000,4.000000,4.000000,4.000000,4.000000,4.000000,4.000000,4.000000,4.000000,4.000000,4.000000,4.000000,4.000000,4.000000,4.000000,100.000000,,,,,,,,,,,,,,,,,,,,,,,,,,,,,,,,,,,,,,,,,,,,,,,
1665722785.634812,1665722785.635054,70.000000,0.000000,4300.384766,4293.717773,4308.461426,4307.179688,4306.282227,4301.282227,4302.563965,4305.897461,4296.538574,4277.820313,4470.897461,4490.384766,4360.000000,4400.897461,2353.000000,4.000000,80.000000,,,,0.000000,4.000000,4.000000,4.000000,4.000000,4.000000,4.000000,4.000000,4.000000,4.000000,4.000000,4.000000,4.000000,4.000000,4.000000,100.000000,,,,,,,,,,,,,,,,,,,,,,,,,,,,,,,,,,,,,,,,,,,,,,,
1665722785.642620,1665722785.642862,71.000000,0.000000,4292.563965,4293.077148,4301.410156,4310.000000,4308.461426,4296.794922,4296.025879,4305.769043,4293.846191,4278.846191,4449.615234,4481.410156,4347.436035,4397.307617,1671.000000,4.000000,80.000000,,,,0.000000,4.000000,4.000000,4.000000,4.000000,4.000000,4.000000,4.000000,4.000000,4.000000,4.000000,4.000000,4.000000,4.000000,4.000000,100.000000,,,,,,,,,,,,,,,,,,,,,,,,,,,,,,,,,,,,,,,,,,,,,,,
1665722785.650428,1665722785.650770,72.000000,0.000000,4293.846191,4292.436035,4299.487305,4313.846191,4311.794922,4297.436035,4295.769043,4306.538574,4292.948730,4278.333496,4444.743652,4480.769043,4348.589844,4397.307617,2112.000000,4.000000,80.000000,,,,0.000000,4.000000,4.000000,4.000000,4.000000,4.000000,4.000000,4.000000,4.000000,4.000000,4.000000,4.000000,4.000000,4.000000,4.000000,100.000000,,,,,,,,,,,,,,,,,,,,,,,,,,,,,,,,,,,,,,,,,,,,,,,
1665722785.658237,1665722785.658579,73.000000,0.000000,4296.538574,4296.153809,4306.282227,4308.974121,4312.051270,4297.436035,4297.436035,4305.641113,4289.230957,4274.487305,4458.461426,4481.025879,4354.743652,4401.794922,2289.000000,4.000000,80.000000,,,,0.000000,4.000000,4.000000,4.000000,4.000000,4.000000,4.000000,4.000000,4.000000,4.000000,4.000000,4.000000,4.000000,4.000000,4.000000,100.000000,,,,,,,,,,,,,,,,,,,,,,,,,,,,,,,,,,,,,,,,,,,,,,,
1665722785.666045,1665722785.666487,74.000000,0.000000,4295.256348,4305.384766,4310.384766,4311.666504,4317.948730,4304.487305,4298.717773,4305.256348,4287.179688,4275.000000,4463.974121,4483.846191,4355.512695,4404.102539,2510.000000,4.000000,80.000000,,,,0.000000,4.000000,4.000000,4.000000,4.000000,4.000000,4.000000,4.000000,4.000000,4.000000,4.000000,4.000000,4.000000,4.000000,4.000000,100.000000,,,,,,,,,,,,,,,,,,,,,,,,,,,,,,,,,,,,,,,,,,,,,,,
1665722785.673854,1665722785.674296,75.000000,0.000000,4305.384766,4306.282227,4310.641113,4324.230957,4322.051270,4311.922852,4304.102539,4311.282227,4296.153809,4280.384766,4456.794922,4493.589844,4354.743652,4405.512695,1629.000000,4.000000,80.000000,,,,0.000000,4.000000,4.000000,4.000000,4.000000,4.000000,4.000000,4.000000,4.000000,4.000000,4.000000,4.000000,4.000000,4.000000,4.000000,100.000000,,,,,,,,,,,,,,,,,,,,,,,,,,,,,,,,,,,,,,,,,,,,,,,
1665722785.681662,1665722785.682204,76.000000,0.000000,4314.487305,4300.769043,4309.615234,4324.230957,4316.025879,4311.666504,4310.897461,4317.051270,4305.384766,4287.820313,4459.743652,4498.333496,4358.974121,4405.641113,2802.000000,4.000000,80.000000,,,,0.000000,4.000000,4.000000,4.000000,4.000000,4.000000,4.000000,4.000000,4.000000,4.000000,4.000000,4.000000,4.000000,4.000000,4.000000,100.000000,,,,,,,,,,,,,,,,,,,,,,,,,,,,,,,,,,,,,,,,,,,,,,,
1665722785.689470,1665722785.690013,77.000000,0.000000,4304.871582,4298.461426,4309.487305,4311.666504,4313.974121,4312.948730,4314.102539,4318.717773,4306.153809,4289.871582,4467.948730,4498.077148,4359.358887,4403.077148,2712.000000,4.000000,80.000000,,,,0.000000,4.000000,4.000000,4.000000,4.000000,4.000000,4.000000,4.000000,4.000000,4.000000,4.000000,4.000000,4.000000,4.000000,4.000000,100.000000,,,,,,,,,,,,,,,,,,,,,,,,,,,,,,,,,,,,,,,,,,,,,,,
1665722785.697279,1665722785.697721,78.000000,0.000000,4292.436035,4295.641113,4305.641113,4308.077148,4313.205078,4307.820313,4312.051270,4317.307617,4300.128418,4282.820313,4462.948730,4497.436035,4355.641113,4399.358887,2510.000000,4.000000,80.000000,,,,0.000000,4.000000,4.000000,4.000000,4.000000,4.000000,4.000000,4.000000,4.000000,4.000000,4.000000,4.000000,4.000000,4.000000,4.000000,100.000000,,,,,,,,,,,,,,,,,,,,,,,,,,,,,,,,,,,,,,,,,,,,,,,
1665722785.705087,1665722785.705530,79.000000,0.000000,4294.102539,4290.641113,4305.384766,4313.077148,4307.307617,4294.615234,4307.051270,4316.538574,4294.743652,4275.000000,4458.333496,4496.666504,4355.000000,4401.282227,1629.000000,4.000000,80.000000,,,,0.000000,4.000000,4.000000,4.000000,4.000000,4.000000,4.000000,4.000000,4.000000,4.000000,4.000000,4.000000,4.000000,4.000000,4.000000,100.000000,,,,,,,,,,,,,,,,,,,,,,,,,,,,,,,,,,,,,,,,,,,,,,,
1665722785.712896,1665722785.713238,80.000000,0.000000,4302.948730,4291.922852,4308.846191,4312.948730,4301.794922,4291.410156,4300.512695,4315.128418,4297.820313,4279.487305,4462.179688,4496.794922,4356.666504,4403.333496,2802.000000,4.000000,80.000000,,,,0.000000,4.000000,4.000000,4.000000,4.000000,4.000000,4.000000,4.000000,4.000000,4.000000,4.000000,4.000000,4.000000,4.000000,4.000000,100.000000,,,,,,,,,,,,,,,,,,,,,,,,,,,,,,,,,,,,,,,,,,,,,,,
1665722785.720704,1665722785.721046,81.000000,0.000000,4303.846191,4297.051270,4312.820313,4310.256348,4301.538574,4297.948730,4296.538574,4314.358887,4301.025879,4286.922852,4461.153809,4498.077148,4358.461426,4400.897461,2712.000000,4.000000,80.000000,,,,0.000000,4.000000,4.000000,4.000000,4.000000,4.000000,4.000000,4.000000,4.000000,4.000000,4.000000,4.000000,4.000000,4.000000,4.000000,100.000000,,,,,,,,,,,,,,,,,,,,,,,,,,,,,,,,,,,,,,,,,,,,,,,
1665722785.728513,1665722785.728755,82.000000,0.000000,4299.102539,4294.871582,4312.436035,4311.025879,4306.410156,4298.077148,4298.717773,4312.820313,4299.102539,4282.948730,4459.487305,4495.641113,4360.897461,4401.410156,2510.000000,4.000000,80.000000,,,,0.000000,4.000000,4.000000,4.000000,4.000000,4.000000,4.000000,4.000000,4.000000,4.000000,4.000000,4.000000,4.000000,4.000000,4.000000,100.000000,,,,,,,,,,,,,,,,,,,,,,,,,,,,,,,,,,,,,,,,,,,,,,,
1665722785.736321,1665722785.736663,83.000000,0.000000,4296.922852,4288.974121,4308.589844,4313.846191,4306.538574,4294.743652,4298.717773,4310.384766,4296.410156,4277.307617,4459.871582,4490.128418,4359.230957,4402.948730,1629.000000,4.000000,80.000000,,,,0.000000,4.000000,4.000000,4.000000,4.000000,4.000000,4.000000,4.000000,4.000000,4.000000,4.000000,4.000000,4.000000,4.000000,4.000000,100.000000,,,,,,,,,,,,,,,,,,,,,,,,,,,,,,,,,,,,,,,,,,,,,,,
1665722785.744129,1665722785.744472,84.000000,0.000000,4295.769043,4289.487305,4304.871582,4311.025879,4305.897461,4296.282227,4295.641113,4307.948730,4290.641113,4278.461426,4454.358887,4483.974121,4349.743652,4398.333496,2802.000000,4.000000,80.000000,,,,0.000000,4.000000,4.000000,4.000000,4.000000,4.000000,4.000000,4.000000,4.000000,4.000000,4.000000,4.000000,4.000000,4.000000,4.000000,100.000000,,,,,,,,,,,,,,,,,,,,,,,,,,,,,,,,,,,,,,,,,,,,,,,
1665722785.751938,1665722785.752380,85.000000,0.000000,4294.743652,4293.461426,4303.846191,4305.384766,4304.102539,4301.025879,4299.102539,4308.077148,4288.974121,4276.282227,4452.948730,4479.615234,4346.153809,4396.666504,2712.000000,4.000000,80.000000,,,,0.000000,4.000000,4.000000,4.000000,4.000000,4.000000,4.000000,4.000000,4.000000,4.000000,4.000000,4.000000,4.000000,4.000000,4.000000,100.000000,,,,,,,,,,,,,,,,,,,,,,,,,,,,,,,,,,,,,,,,,,,,,,,
1665722785.759746,1665722785.760189,86.000000,0.000000,4300.000000,4294.743652,4307.436035,4313.205078,4304.358887,4301.025879,4301.538574,4308.461426,4294.102539,4275.641113,4460.769043,4483.717773,4355.769043,4402.436035,2510.000000,4.000000,80.000000,,,,0.000000,4.000000,4.000000,4.000000,4.000000,4.000000,4.000000,4.000000,4.000000,4.000000,4.000000,4.000000,4.000000,4.000000,4.000000,100.000000,,,,,,,,,,,,,,,,,,,,,,,,,,,,,,,,,,,,,,,,,,,,,,,
1665722785.767555,1665722785.768097,87.000000,0.000000,4307.820313,4298.589844,4311.025879,4323.589844,4311.282227,4296.153809,4296.794922,4305.641113,4293.589844,4282.563965,4461.922852,4492.051270,4362.948730,4405.769043,1629.000000,4.000000,80.000000,,,,0.000000,4.000000,4.000000,4.000000,4.000000,4.000000,4.000000,4.000000,4.000000,4.000000,4.000000,4.000000,4.000000,4.000000,4.000000,100.000000,,,,,,,,,,,,,,,,,,,,,,,,,,,,,,,,,,,,,,,,,,,,,,,
1665722785.775363,1665722785.775905,88.000000,0.000000,4306.153809,4301.153809,4313.333496,4314.230957,4311.282227,4294.743652,4295.512695,4304.102539,4291.282227,4287.436035,4462.051270,4491.922852,4361.538574,4402.692383,2802.000000,4.000000,80.000000,,,,0.000000,4.000000,4.000000,4.000000,4.000000,4.000000,4.000000,4.000000,4.000000,4.000000,4.000000,4.000000,4.000000,4.000000,4.000000,100.000000,,,,,,,,,,,,,,,,,,,,,,,,,,,,,,,,,,,,,,,,,,,,,,,
1665722785.783172,1665722785.783714,89.000000,0.000000,4303.077148,4293.846191,4311.025879,4305.000000,4304.102539,4292.820313,4299.230957,4307.948730,4298.461426,4286.666504,4466.282227,4490.641113,4360.769043,4401.538574,2712.000000,4.000000,80.000000,,,,0.000000,4.000000,4.000000,4.000000,4.000000,4.000000,4.000000,4.000000,4.000000,4.000000,4.000000,4.000000,4.000000,4.000000,4.000000,100.000000,,,,,,,,,,,,,,,,,,,,,,,,,,,,,,,,,,,,,,,,,,,,,,,
1665722785.790980,1665722785.791422,90.000000,0.000000,4308.589844,4296.282227,4310.384766,4317.436035,4304.871582,4293.717773,4302.436035,4314.102539,4303.077148,4288.333496,4464.487305,4497.179688,4365.769043,4405.128418,2510.000000,4.000000,80.000000,,,,0.000000,4.000000,4.000000,4.000000,4.000000,4.000000,4.000000,4.000000,4.000000,4.000000,4.000000,4.000000,4.000000,4.000000,4.000000,100.000000,,,,,,,,,,,,,,,,,,,,,,,,,,,,,,,,,,,,,,,,,,,,,,,
1665722785.798788,1665722785.799331,91.000000,0.000000,4314.615234,4308.846191,4313.846191,4324.743652,4313.461426,4301.794922,4305.512695,4317.051270,4300.000000,4289.102539,4466.922852,4501.794922,4366.794922,4405.256348,1629.000000,4.000000,80.000000,,,,0.000000,4.000000,4.000000,4.000000,4.000000,4.000000,4.000000,4.000000,4.000000,4.000000,4.000000,4.000000,4.000000,4.000000,4.000000,100.000000,,,,,,,,,,,,,,,,,,,,,,,,,,,,,,,,,,,,,,,,,,,,,,,
1665722785.806597,1665722785.807139,92.000000,0.000000,4313.461426,4305.897461,4312.692383,4314.102539,4316.794922,4308.333496,4308.333496,4315.256348,4299.230957,4286.025879,4472.820313,4495.897461,4361.794922,4403.589844,2802.000000,4.000000,80.000000,,,,0.000000,4.000000,4.000000,4.000000,4.000000,4.000000,4.000000,4.000000,4.000000,4.000000,4.000000,4.000000,4.000000,4.000000,4.000000,100.000000,,,,,,,,,,,,,,,,,,,,,,,,,,,,,,,,,,,,,,,,,,,,,,,
1665722785.814405,1665722785.815048,93.000000,0.000000,4310.128418,4297.948730,4308.974121,4311.922852,4317.948730,4308.461426,4307.179688,4312.307617,4296.922852,4283.205078,4464.743652,4490.128418,4360.384766,4402.692383,2712.000000,4.000000,80.000000,,,,0.000000,4.000000,4.000000,4.000000,4.000000,4.000000,4.000000,4.000000,4.000000,4.000000,4.000000,4.000000,4.000000,4.000000,4.000000,100.000000,,,,,,,,,,,,,,,,,,,,,,,,,,,,,,,,,,,,,,,,,,,,,,,
1665722785.822214,1665722785.822856,94.000000,0.000000,4309.102539,4301.666504,4309.743652,4321.153809,4313.846191,4302.948730,4301.922852,4313.077148,4293.974121,4275.512695,4458.974121,4490.897461,4357.436035,4401.410156,2510.000000,4.000000,80.000000,,,,0.000000,4.000000,4.000000,4.000000,4.000000,4.000000,4.000000,4.000000,4.000000,4.000000,4.000000,4.000000,4.000000,4.000000,4.000000,100.000000,,,,,,,,,,,,,,,,,,,,,,,,,,,,,,,,,,,,,,,,,,,,,,,
1665722785.830022,1665722785.830764,95.000000,0.000000,4305.512695,4296.666504,4306.282227,4317.436035,4306.922852,4299.230957,4300.256348,4311.922852,4294.487305,4271.025879,4460.384766,4488.333496,4348.333496,4398.461426,1629.000000,4.000000,80.000000,,,,0.000000,4.000000,4.000000,4.000000,4.000000,4.000000,4.000000,4.000000,4.000000,4.000000,4.000000,4.000000,4.000000,4.000000,4.000000,100.000000,,,,,,,,,,,,,,,,,,,,,,,,,,,,,,,,,,,,,,,,,,,,,,,
1665722785.837830,1665722785.838573,96.000000,0.000000,4291.794922,4280.000000,4296.282227,4300.384766,4304.615234,4299.743652,4303.717773,4307.692383,4293.077148,4270.641113,4442.179688,4479.230957,4335.512695,4395.128418,2802.000000,4.000000,80.000000,,,,0.000000,4.000000,4.000000,4.000000,4.000000,4.000000,4.000000,4.000000,4.000000,4.000000,4.000000,4.000000,4.000000,4.000000,4.000000,100.000000,,,,,,,,,,,,,,,,,,,,,,,,,,,,,,,,,,,,,,,,,,,,,,,
1665722785.845639,1665722785.846481,97.000000,0.000000,4277.692383,4274.615234,4290.384766,4289.358887,4300.769043,4297.820313,4299.487305,4303.461426,4283.461426,4263.333496,4424.358887,4465.769043,4326.666504,4392.179688,2712.000000,4.000000,80.000000,,,,0.000000,4.000000,4.000000,4.000000,4.000000,4.000000,4.000000,4.000000,4.000000,4.000000,4.000000,4.000000,4.000000,4.000000,4.000000,100.000000,,,,,,,,,,,,,,,,,,,,,,,,,,,,,,,,,,,,,,,,,,,,,,,
1665722785.853447,1665722785.854290,98.000000,0.000000,4283.333496,4281.794922,4293.077148,4298.846191,4305.256348,4297.692383,4295.128418,4302.820313,4276.153809,4262.051270,4441.282227,4466.410156,4331.410156,4396.666504,2510.000000,4.000000,80.000000,,,,0.000000,4.000000,4.000000,4.000000,4.000000,4.000000,4.000000,4.000000,4.000000,4.000000,4.000000,4.000000,4.000000,4.000000,4.000000,100.000000,,,,,,,,,,,,,,,,,,,,,,,,,,,,,,,,,,,,,,,,,,,,,,,
1665722785.861256,1665722785.862198,99.000000,0.000000,4300.641113,4293.077148,4300.128418,4318.333496,4313.974121,4305.512695,4304.102539,4308.589844,4285.000000,4272.179688,4460.256348,4481.666504,4345.384766,4405.000000,1629.000000,4.000000,80.000000,,,,0.000000,4.000000,4.000000,4.000000,4.000000,4.000000,4.000000,4.000000,4.000000,4.000000,4.000000,4.000000,4.000000,4.000000,4.000000,100.000000,,,,,,,,,,,,,,,,,,,,,,,,,,,,,,,,,,,,,,,,,,,,,,,
1665722785.869064,1665722785.870006,100.000000,0.000000,4305.384766,4301.538574,4305.256348,4320.897461,4308.077148,4306.666504,4311.666504,4314.871582,4297.307617,4282.051270,4461.538574,4489.743652,4358.846191,4405.256348,2802.000000,4.000000,80.000000,,,,0.000000,4.000000,4.000000,4.000000,4.000000,4.000000,4.000000,4.000000,4.000000,4.000000,4.000000,4.000000,4.000000,4.000000,4.000000,100.000000,,,,,,,,,,,,,,,,,,,,,,,,,,,,,,,,,,,,,,,,,,,,,,,
1665722785.876872,1665722785.877715,101.000000,0.000000,4297.820313,4295.512695,4302.692383,4302.820313,4300.641113,4299.230957,4310.256348,4315.641113,4296.666504,4283.205078,4461.794922,4485.769043,4362.307617,4399.487305,2712.000000,4.000000,80.000000,,,,0.000000,4.000000,4.000000,4.000000,4.000000,4.000000,4.000000,4.000000,4.000000,4.000000,4.000000,4.000000,4.000000,4.000000,4.000000,100.000000,,,,,,,,,,,,,,,,,,,,,,,,,,,,,,,,,,,,,,,,,,,,,,,
1665722785.884681,1665722785.885523,102.000000,0.000000,4296.666504,4291.025879,4300.897461,4299.230957,4305.128418,4303.589844,4311.666504,4317.820313,4294.487305,4282.692383,4461.922852,4485.897461,4357.820313,4400.512695,2510.000000,4.000000,80.000000,,,,0.000000,4.000000,4.000000,4.000000,4.000000,4.000000,4.000000,4.000000,4.000000,4.000000,4.000000,4.000000,4.000000,4.000000,4.000000,100.000000,,,,,,,,,,,,,,,,,,,,,,,,,,,,,,,,,,,,,,,,,,,,,,,
1665722785.892489,1665722785.893232,103.000000,0.000000,4299.358887,4295.897461,4303.333496,4310.128418,4311.538574,4312.563965,4314.358887,4320.384766,4297.692383,4280.000000,4459.358887,4490.256348,4354.615234,4404.358887,1629.000000,4.000000,80.000000,,,,0.000000,4.000000,4.000000,4.000000,4.000000,4.000000,4.000000,4.000000,4.000000,4.000000,4.000000,4.000000,4.000000,4.000000,4.000000,100.000000,,,,,,,,,,,,,,,,,,,,,,,,,,,,,,,,,,,,,,,,,,,,,,,
1665722785.900298,1665722785.901140,104.000000,0.000000,4296.153809,4292.563965,4301.282227,4308.974121,4307.051270,4311.794922,4309.487305,4312.692383,4296.282227,4279.871582,4457.436035,4485.512695,4359.358887,4400.000000,2802.000000,4.000000,80.000000,,,,0.000000,4.000000,4.000000,4.000000,4.000000,4.000000,4.000000,4.000000,4.000000,4.000000,4.000000,4.000000,4.000000,4.000000,4.000000,100.000000,,,,,,,,,,,,,,,,,,,,,,,,,,,,,,,,,,,,,,,,,,,,,,,
1665722785.908106,1665722785.908949,105.000000,0.000000,4295.897461,4289.615234,4300.897461,4305.641113,4300.256348,4306.025879,4302.179688,4308.461426,4295.641113,4280.256348,4462.436035,4481.153809,4363.333496,4398.333496,2712.000000,4.000000,80.000000,,,,0.000000,4.000000,4.000000,4.000000,4.000000,4.000000,4.000000,4.000000,4.000000,4.000000,4.000000,4.000000,4.000000,4.000000,4.000000,100.000000,,,,,,,,,,,,,,,,,,,,,,,,,,,,,,,,,,,,,,,,,,,,,,,
1665722785.915914,1665722785.916757,106.000000,0.000000,4297.436035,4294.102539,4300.128418,4309.743652,4302.307617,4299.358887,4296.410156,4312.948730,4297.051270,4275.000000,4461.666504,4481.538574,4357.820313,4401.410156,2510.000000,4.000000,80.000000,,,,0.000000,4.000000,4.000000,4.000000,4.000000,4.000000,4.000000,4.000000,4.000000,4.000000,4.000000,4.000000,4.000000,4.000000,4.000000,100.000000,,,,,,,,,,,,,,,,,,,,,,,,,,,,,,,,,,,,,,,,,,,,,,,
1665722785.923723,1665722785.924466,107.000000,0.000000,4292.436035,4291.410156,4293.333496,4309.487305,4306.025879,4292.692383,4293.589844,4310.000000,4291.538574,4276.538574,4445.897461,4480.256348,4353.333496,4397.948730,1629.000000,4.000000,80.000000,,,,0.000000,4.000000,4.000000,4.000000,4.000000,4.000000,4.000000,4.000000,4.000000,4.000000,4.000000,4.000000,4.000000,4.000000,4.000000,100.000000,,,,,,,,,,,,,,,,,,,,,,,,,,,,,,,,,,,,,,,,,,,,,,,
1665722785.931531,1665722785.932274,108.000000,0.000000,4290.128418,4288.717773,4293.461426,4308.461426,4309.487305,4292.692383,4295.256348,4305.128418,4290.384766,4284.871582,4450.641113,4478.333496,4359.102539,4393.846191,2802.000000,4.000000,80.000000,,,,0.000000,4.000000,4.000000,4.000000,4.000000,4.000000,4.000000,4.000000,4.000000,4.000000,4.000000,4.000000,4.000000,4.000000,4.000000,100.000000,1.000000,100.000000,4.000000,4.000000,4.000000,4.000000,4.000000,4.000000,4.000000,4.000000,4.000000,4.000000,4.000000,4.000000,4.000000,4.000000,1.000000,0.716015,-0.096985,-1.525752,0.593042,1.000000,0.225261,2.517618,1.201655,7.043610,0.265401,1.000000,0.343709,38.040504,-4.636496,110.508156,1.000000,0.184123,0.079115,0.056579,0.236332,1.000000,0.386860,3.044984,-1.344283,9.649017,1.000000,0.421009,0.421009,0.000000,1.000000
1665722785.939340,1665722785.939983,109.000000,0.000000,4297.051270,4293.333496,4304.615234,4310.256348,4305.897461,4295.256348,4295.512695,4310.128418,4295.128418,4283.077148,4472.948730,4483.846191,4364.358887,4399.743652,2712.000000,4.000000,80.000000,,,,0.000000,4.000000,4.000000,4.000000,4.000000,4.000000,4.000000,4.000000,4.000000,4.000000,4.000000,4.000000,4.000000,4.000000,4.000000,100.000000,,,,,,,,,,,,,,,,,,,,,,,,,,,,,,,,,,,,,,,,,,,,,,,
1665722785.947148,1665722785.947791,110.000000,0.000000,4308.333496,4295.769043,4311.025879,4310.000000,4296.025879,4295.384766,4297.692383,4314.102539,4294.358887,4277.948730,4473.717773,4495.641113,4362.563965,4404.743652,2510.000000,4.000000,80.000000,,,,0.000000,4.000000,4.000000,4.000000,4.000000,4.000000,4.000000,4.000000,4.000000,4.000000,4.000000,4.000000,4.000000,4.000000,4.000000,100.000000,,,,,,,,,,,,,,,,,,,,,,,,,,,,,,,,,,,,,,,,,,,,,,,
1665722785.954957,1665722785.955500,111.000000,0.000000,4317.563965,4295.512695,4314.102539,4312.820313,4296.410156,4297.692383,4305.512695,4313.461426,4290.000000,4278.846191,4456.922852,4499.102539,4360.000000,4404.102539,1629.000000,4.000000,80.000000,,,,0.000000,4.000000,4.000000,4.000000,4.000000,4.000000,4.000000,4.000000,4.000000,4.000000,4.000000,4.000000,4.000000,4.000000,4.000000,100.000000,,,,,,,,,,,,,,,,,,,,,,,,,,,,,,,,,,,,,,,,,,,,,,,
1665722785.962765,1665722785.963308,112.000000,0.000000,4313.846191,4296.794922,4313.717773,4318.077148,4312.307617,4304.871582,4311.922852,4315.769043,4290.256348,4275.897461,4456.410156,4493.333496,4360.256348,4403.077148,2802.000000,4.000000,80.000000,,,,0.000000,4.000000,4.000000,4.000000,4.000000,4.000000,4.000000,4.000000,4.000000,4.000000,4.000000,4.000000,4.000000,4.000000,4.000000,100.000000,,,,,,,,,,,,,,,,,,,,,,,,,,,,,,,,,,,,,,,,,,,,,,,
1665722785.970573,1665722785.971017,113.000000,0.000000,4301.794922,4297.307617,4308.077148,4315.256348,4317.820313,4311.666504,4316.538574,4319.102539,4294.615234,4274.358887,4469.358887,4492.051270,4360.256348,4405.769043,2712.000000,4.000000,80.000000,,,,0.000000,4.000000,4.000000,4.000000,4.000000,4.000000,4.000000,4.000000,4.000000,4.000000,4.000000,4.000000,4.000000,4.000000,4.000000,100.000000,,,,,,,,,,,,,,,,,,,,,,,,,,,,,,,,,,,,,,,,,,,,,,,
1665722785.978382,1665722785.978925,114.000000,0.000000,4301.282227,4295.512695,4306.794922,4308.974121,4301.282227,4308.974121,4314.615234,4315.641113,4295.769043,4280.769043,4470.897461,4498.205078,4361.025879,4406.794922,2510.000000,4.000000,80.000000,,,,0.000000,4.000000,4.000000,4.000000,4.000000,4.000000,4.000000,4.000000,4.000000,4.000000,4.000000,4.000000,4.000000,4.000000,4.000000,100.000000,,,,,,,,,,,,,,,,,,,,,,,,,,,,,,,,,,,,,,,,,,,,,,,
1665722785.986190,1665722785.986733,115.000000,0.000000,4307.948730,4291.666504,4311.666504,4306.922852,4291.794922,4298.333496,4302.948730,4309.358887,4291.410156,4276.282227,4460.256348,4498.333496,4355.256348,4403.333496,1629.000000,4.000000,80.000000,,,,0.000000,4.000000,4.000000,4.000000,4.000000,4.000000,4.000000,4.000000,4.000000,4.000000,4.000000,4.000000,4.000000,4.000000,4.000000,100.000000,,,,,,,,,,,,,,,,,,,,,,,,,,,,,,,,,,,,,,,,,,,,,,,
1665722785.993999,1665722785.994642,116.000000,0.000000,4309.230957,4290.769043,4311.153809,4308.461426,4296.922852,4292.948730,4297.692383,4308.077148,4288.717773,4268.077148,4452.436035,4490.512695,4347.436035,4400.897461,2802.000000,4.000000,80.000000,,,,0.000000,4.000000,4.000000,4.000000,4.000000,4.000000,4.000000,4.000000,4.000000,4.000000,4.000000,4.000000,4.000000,4.000000,4.000000,100.000000,,,,,,,,,,,,,,,,,,,,,,,,,,,,,,,,,,,,,,,,,,,,,,,
1665722786.001807,1665722786.002450,117.000000,0.000000,4311.410156,4295.256348,4311.025879,4311.282227,4300.641113,4294.615234,4303.205078,4313.077148,4292.820313,4274.487305,4459.358887,4490.256348,4355.769043,4403.846191,2712.000000,4.000000,80.000000,,,,0.000000,4.000000,4.000000,4.000000,4.000000,4.000000,4.000000,4.000000,4.000000,4.000000,4.000000,4.000000,4.000000,4.000000,4.000000,100.000000,,,,,,,,,,,,,,,,,,,,,,,,,,,,,,,,,,,,,,,,,,,,,,,
1665722786.009616,1665722786.010359,118.000000,0.000000,4308.461426,4295.128418,4310.769043,4309.743652,4296.282227,4295.897461,4299.743652,4312.948730,4295.769043,4279.743652,4462.179688,4491.666504,4363.333496,4403.589844,2510.000000,4.000000,80.000000,,,,0.000000,4.000000,4.000000,4.000000,4.000000,4.000000,4.000000,4.000000,4.000000,4.000000,4.000000,4.000000,4.000000,4.000000,4.000000,100.000000,,,,,,,,,,,,,,,,,,,,,,,,,,,,,,,,,,,,,,,,,,,,,,,
1665722786.017424,1665722786.018167,119.000000,0.000000,4298.333496,4292.051270,4307.307617,4307.436035,4294.358887,4298.461426,4296.410156,4312.948730,4295.256348,4275.128418,4456.282227,4489.743652,4356.025879,4400.897461,1629.000000,4.000000,80.000000,,,,0.000000,4.000000,4.000000,4.000000,4.000000,4.000000,4.000000,4.000000,4.000000,4.000000,4.000000,4.000000,4.000000,4.000000,4.000000,100.000000,,,,,,,,,,,,,,,,,,,,,,,,,,,,,,,,,,,,,,,,,,,,,,,
1665722786.025232,1665722786.026075,120.000000,0.000000,4295.769043,4293.846191,4310.128418,4309.871582,4295.512695,4300.641113,4306.794922,4316.410156,4295.641113,4278.717773,4458.333496,4491.410156,4356.153809,4401.794922,2802.000000,4.000000,80.000000,,,,0.000000,4.000000,4.000000,4.000000,4.000000,4.000000,4.000000,4.000000,4.000000,4.000000,4.000000,4.000000,4.000000,4.000000,4.000000,100.000000,,,,,,,,,,,,,,,,,,,,,,,,,,,,,,,,,,,,,,,,,,,,,,,
1665722786.033041,1665722786.033884,121.000000,0.000000,4297.692383,4295.384766,4309.487305,4311.922852,4294.230957,4298.205078,4307.820313,4312.692383,4291.666504,4282.179688,4461.153809,4492.692383,4364.230957,4400.641113,2712.000000,4.000000,80.000000,,,,0.000000,4.000000,4.000000,4.000000,4.000000,4.000000,4.000000,4.000000,4.000000,4.000000,4.000000,4.000000,4.000000,4.000000,4.000000,100.000000,,,,,,,,,,,,,,,,,,,,,,,,,,,,,,,,,,,,,,,,,,,,,,,
1665722786.040849,1665722786.041792,122.000000,0.000000,4293.974121,4293.717773,4302.051270,4311.025879,4297.307617,4294.615234,4297.436035,4304.871582,4285.769043,4272.563965,4453.077148,4485.641113,4359.743652,4397.051270,2510.000000,4.000000,80.000000,,,,0.000000,4.000000,4.000000,4.000000,4.000000,4.000000,4.000000,4.000000,4.000000,4.000000,4.000000,4.000000,4.000000,4.000000,4.000000,100.000000,,,,,,,,,,,,,,,,,,,,,,,,,,,,,,,,,,,,,,,,,,,,,,,
1665722786.048658,1665722786.049601,123.000000,0.000000,4290.641113,4289.102539,4299.230957,4305.641113,4295.897461,4293.461426,4296.794922,4305.512695,4285.641113,4268.974121,4440.769043,4479.743652,4350.641113,4396.153809,1629.000000,4.000000,80.000000,,,,0.000000,4.000000,4.000000,4.000000,4.000000,4.000000,4.000000,4.000000,4.000000,4.000000,4.000000,4.000000,4.000000,4.000000,4.000000,100.000000,,,,,,,,,,,,,,,,,,,,,,,,,,,,,,,,,,,,,,,,,,,,,,,
1665722786.056466,1665722786.057409,124.000000,0.000000,4293.589844,4282.820313,4303.461426,4296.282227,4288.974121,4295.384766,4298.717773,4310.512695,4285.641113,4271.794922,4441.666504,4482.948730,4350.897461,4400.128418,2802.000000,4.000000,80.000000,,,,0.000000,4.000000,4.000000,4.000000,4.000000,4.000000,4.000000,4.000000,4.000000,4.000000,4.000000,4.000000,4.000000,4.000000,4.000000,100.000000,,,,,,,,,,,,,,,,,,,,,,,,,,,,,,,,,,,,,,,,,,,,,,,
1665722786.064274,1665722786.065218,125.000000,0.000000,4293.461426,4277.307617,4302.436035,4292.948730,4290.256348,4296.410156,4295.897461,4308.077148,4284.358887,4264.743652,4448.205078,4482.948730,4350.897461,4401.538574,2712.000000,4.000000,80.000000,,,,0.000000,4.000000,4.000000,4.000000,4.000000,4.000000,4.000000,4.000000,4.000000,4.000000,4.000000,4.000000,4.000000,4.000000,4.000000,100.000000,,,,,,,,,,,,,,,,,,,,,,,,,,,,,,,,,,,,,,,,,,,,,,,
1665722786.072083,1665722786.072926,126.000000,0.000000,4289.487305,4280.384766,4295.641113,4302.307617,4295.256348,4295.128418,4295.512695,4307.436035,4285.000000,4261.282227,4445.512695,4475.384766,4348.077148,4395.769043,2510.000000,4.000000,80.000000,,,,0.000000,4.000000,4.000000,4.000000,4.000000,4.000000,4.000000,4.000000,4.000000,4.000000,4.000000,4.000000,4.000000,4.000000,4.000000,100.000000,,,,,,,,,,,,,,,,,,,,,,,,,,,,,,,,,,,,,,,,,,,,,,,
1665722786.079891,1665722786.080735,127.000000,0.000000,4290.128418,4290.256348,4294.230957,4312.051270,4298.205078,4297.051270,4297.820313,4308.077148,4287.563965,4268.846191,4442.563965,4470.128418,4347.179688,4392.948730,80.000000,4.000000,80.000000,,,,0.000000,4.000000,4.000000,4.000000,4.000000,4.000000,4.000000,4.000000,4.000000,4.000000,4.000000,4.000000,4.000000,4.000000,4.000000,100.000000,,,,,,,,,,,,,,,,,,,,,,,,,,,,,,,,,,,,,,,,,,,,,,,
1665722786.087700,1665722786.088443,0.000000,0.000000,4293.461426,4289.358887,4302.436035,4308.461426,4299.230957,4299.487305,4295.769043,4306.153809,4285.384766,4268.717773,4441.410156,4474.230957,4344.615234,4399.230957,1653.000000,4.000000,80.000000,,,,0.000000,4.000000,4.000000,4.000000,4.000000,4.000000,4.000000,4.000000,4.000000,4.000000,4.000000,4.000000,4.000000,4.000000,4.000000,100.000000,,,,,,,,,,,,,,,,,,,,,,,,,,,,,,,,,,,,,,,,,,,,,,,
1665722786.095508,1665722786.096252,1.000000,0.000000,4296.538574,4284.358887,4305.384766,4301.666504,4302.820313,4297.948730,4292.051270,4302.692383,4280.641113,4263.205078,4440.512695,4476.153809,4345.256348,4401.794922,1716.000000,4.000000,80.000000,,,,0.000000,4.000000,4.000000,4.000000,4.000000,4.000000,4.000000,4.000000,4.000000,4.000000,4.000000,4.000000,4.000000,4.000000,4.000000,100.000000,,,,,,,,,,,,,,,,,,,,,,,,,,,,,,,,,,,,,,,,,,,,,,,
1665722786.103316,1665722786.103960,2.000000,0.000000,4304.230957,4294.102539,4306.922852,4307.051270,4307.692383,4297.179688,4295.128418,4303.846191,4283.846191,4270.769043,4450.512695,4480.000000,4359.358887,4403.077148,2316.000000,4.000000,80.000000,,,,0.000000,4.000000,4.000000,4.000000,4.000000,4.000000,4.000000,4.000000,4.000000,4.000000,4.000000,4.000000,4.000000,4.000000,4.000000,100.000000,,,,,,,,,,,,,,,,,,,,,,,,,,,,,,,,,,,,,,,,,,,,,,,
1665722786.111125,1665722786.111769,3.000000,0.000000,4312.948730,4302.563965,4314.230957,4315.897461,4311.025879,4300.769043,4307.563965,4312.436035,4292.307617,4279.871582,4463.717773,4494.871582,4371.410156,4408.589844,2100.000000,4.000000,80.000000,,,,0.000000,4.000000,4.000000,4.000000,4.000000,4.000000,4.000000,4.000000,4.000000,4.000000,4.000000,4.000000,4.000000,4.000000,4.000000,100.000000,,,,,,,,,,,,,,,,,,,,,,,,,,,,,,,,,,,,,,,,,,,,,,,
1665722786.118933,1665722786.119477,4.000000,0.000000,4312.948730,4293.846191,4313.846191,4314.230957,4310.641113,4300.512695,4311.153809,4316.153809,4295.384766,4278.974121,4460.512695,4499.230957,4365.128418,4408.461426,1810.000000,4.000000,80.000000,,,,0.000000,4.000000,4.000000,4.000000,4.000000,4.000000,4.000000,4.000000,4.000000,4.000000,4.000000,4.000000,4.000000,4.000000,4.000000,100.000000,,,,,,,,,,,,,,,,,,,,,,,,,,,,,,,,,,,,,,,,,,,,,,,
1665722786.126742,1665722786.127286,5.000000,0.000000,4308.205078,4289.102539,4309.487305,4307.563965,4299.487305,4298.077148,4302.307617,4310.384766,4290.769043,4276.666504,4451.282227,4487.563965,4360.256348,4404.230957,2209.000000,4.000000,80.000000,,,,0.000000,4.000000,4.000000,4.000000,4.000000,4.000000,4.000000,4.000000,4.000000,4.000000,4.000000,4.000000,4.000000,4.000000,4.000000,100.000000,,,,,,,,,,,,,,,,,,,,,,,,,,,,,,,,,,,,,,,,,,,,,,,
1665722786.134550,1665722786.134994,6.000000,0.000000,4309.230957,4295.641113,4314.358887,4308.974121,4295.512695,4301.410156,4301.025879,4308.974121,4292.820313,4278.974121,4461.666504,4488.717773,4370.641113,4405.641113,2344.000000,4.000000,80.000000,,,,0.000000,4.000000,4.000000,4.000000,4.000000,4.000000,4.000000,4.000000,4.000000,4.000000,4.000000,4.000000,4.000000,4.000000,4.000000,100.000000,,,,,,,,,,,,,,,,,,,,,,,,,,,,,,,,,,,,,,,,,,,,,,,
1665722786.142358,1665722786.142902,7.000000,0.000000,4311.410156,4297.563965,4316.282227,4314.230957,4307.307617,4302.436035,4303.333496,4314.102539,4296.538574,4280.384766,4473.589844,4496.794922,4375.512695,4407.563965,1663.000000,4.000000,80.000000,,,,0.000000,4.000000,4.000000,4.000000,4.000000,4.000000,4.000000,4.000000,4.000000,4.000000,4.000000,4.000000,4.000000,4.000000,4.000000,100.000000,,,,,,,,,,,,,,,,,,,,,,,,,,,,,,,,,,,,,,,,,,,,,,,
1665722786.150167,1665722786.150711,8.000000,0.000000,4305.128418,4293.846191,4310.128418,4313.461426,4310.256348,4297.820313,4302.179688,4314.615234,4294.358887,4282.179688,4465.769043,4494.871582,4368.717773,4404.487305,2102.000000,4.000000,80.000000,,,,0.000000,4.000000,4.000000,4.000000,4.000000,4.000000,4.000000,4.000000,4.000000,4.000000,4.000000,4.000000,4.000000,4.000000,4.000000,100.000000,,,,,,,,,,,,,,,,,,,,,,,,,,,,,,,,,,,,,,,,,,,,,,,
1665722786.157975,1665722786.158519,9.000000,0.000000,4296.794922,4287.179688,4310.128418,4307.948730,4300.769043,4295.769043,4307.051270,4314.743652,4295.128418,4284.487305,4457.436035,4492.179688,4365.000000,4403.717773,2277.000000,4.000000,80.000000,,,,0.000000,4.000000,4.000000,4.000000,4.000000,4.000000,4.000000,4.000000,4.000000,4.000000,4.000000,4.000000,4.000000,4.000000,4.000000,100.000000,,,,,,,,,,,,,,,,,,,,,,,,,,,,,,,,,,,,,,,,,,,,,,,
1665722786.165784,1665722786.166228,10.000000,0.000000,4295.769043,4280.128418,4306.282227,4302.563965,4291.794922,4295.384766,4306.922852,4311.538574,4292.820313,4282.563965,4460.897461,4486.282227,4363.461426,4401.282227,2493.000000,4.000000,80.000000,,,,0.000000,4.000000,4.000000,4.000000,4.000000,4.000000,4.000000,4.000000,4.000000,4.000000,4.000000,4.000000,4.000000,4.000000,4.000000,100.000000,,,,,,,,,,,,,,,,,,,,,,,,,,,,,,,,,,,,,,,,,,,,,,,
1665722786.173592,1665722786.174136,11.000000,0.000000,4294.102539,4278.974121,4301.794922,4304.102539,4288.589844,4293.205078,4295.128418,4302.820313,4284.743652,4277.692383,4461.922852,4478.333496,4358.589844,4398.846191,1606.000000,4.000000,80.000000,,,,0.000000,4.000000,4.000000,4.000000,4.000000,4.000000,4.000000,4.000000,4.000000,4.000000,4.000000,4.000000,4.000000,4.000000,4.000000,100.000000,,,,,,,,,,,,,,,,,,,,,,,,,,,,,,,,,,,,,,,,,,,,,,,
1665722786.181400,1665722786.181945,12.000000,0.000000,4290.000000,4286.282227,4305.000000,4309.102539,4293.205078,4294.230957,4291.410156,4301.794922,4286.025879,4274.615234,4454.230957,4479.487305,4356.025879,4401.410156,2815.000000,4.000000,80.000000,,,,0.000000,4.000000,4.000000,4.000000,4.000000,4.000000,4.000000,4.000000,4.000000,4.000000,4.000000,4.000000,4.000000,4.000000,4.000000,100.000000,,,,,,,,,,,,,,,,,,,,,,,,,,,,,,,,,,,,,,,,,,,,,,,
1665722786.189209,1665722786.189853,13.000000,0.000000,4302.436035,4296.794922,4310.769043,4310.512695,4301.153809,4294.230957,4296.538574,4310.897461,4296.282227,4279.743652,4452.948730,4484.871582,4362.051270,4406.025879,2698.000000,4.000000,80.000000,,,,0.000000,4.000000,4.000000,4.000000,4.000000,4.000000,4.000000,4.000000,4.000000,4.000000,4.000000,4.000000,4.000000,4.000000,4.000000,100.000000,,,,,,,,,,,,,,,,,,,,,,,,,,,,,,,,,,,,,,,,,,,,,,,
1665722786.197017,1665722786.197661,14.000000,0.000000,4313.589844,4298.589844,4310.256348,4310.000000,4299.743652,4290.256348,4294.615234,4311.410156,4298.077148,4286.410156,4459.615234,4484.743652,4370.256348,4405.000000,2493.000000,4.000000,80.000000,,,,0.000000,4.000000,4.000000,4.000000,4.000000,4.000000,4.000000,4.000000,4.000000,4.000000,4.000000,4.000000,4.000000,4.000000,4.000000,100.000000,,,,,,,,,,,,,,,,,,,,,,,,,,,,,,,,,,,,,,,,,,,,,,,
1665722786.204826,1665722786.205570,15.000000,0.000000,4299.487305,4289.615234,4303.077148,4308.461426,4294.871582,4292.820313,4292.948730,4305.897461,4291.922852,4284.871582,4459.102539,4482.563965,4368.077148,4400.641113,1606.000000,4.000000,80.000000,,,,0.000000,4.000000,4.000000,4.000000,4.000000,4.000000,4.000000,4.000000,4.000000,4.000000,4.000000,4.000000,4.000000,4.000000,4.000000,100.000000,,,,,,,,,,,,,,,,,,,,,,,,,,,,,,,,,,,,,,,,,,,,,,,
1665722786.212634,1665722786.213378,16.000000,0.000000,4293.461426,4288.974121,4302.948730,4308.461426,4304.615234,4299.871582,4299.230957,4308.333496,4294.487305,4282.948730,4460.256348,4484.487305,4363.974121,4402.179688,0.000000,4.000000,80.000000,,,,0.000000,4.000000,4.000000,4.000000,4.000000,4.000000,4.000000,4.000000,4.000000,4.000000,4.000000,4.000000,4.000000,4.000000,4.000000,100.000000,,,,,,,,,,,,,,,,,,,,,,,,,,,,,,,,,,,,,,,,,,,,,,,
1665722786.220443,1665722786.221287,17.000000,0.000000,4310.384766,4299.487305,4315.000000,4313.846191,4311.666504,4303.333496,4305.641113,4314.358887,4298.589844,4285.769043,4466.025879,4492.563965,4371.282227,4411.538574,0.000000,4.000000,80.000000,,,,0.000000,4.000000,4.000000,4.000000,4.000000,4.000000,4.000000,4.000000,4.000000,4.000000,4.000000,4.000000,4.000000,4.000000,4.000000,100.000000,,,,,,,,,,,,,,,,,,,,,,,,,,,,,,,,,,,,,,,,,,,,,,,
1665722786.228251,1665722786.229095,18.000000,0.000000,4318.589844,4305.128418,4323.717773,4320.512695,4310.128418,4307.307617,4310.641113,4317.692383,4300.128418,4290.897461,4468.077148,4501.282227,4378.077148,4412.948730,0.000000,4.000000,80.000000,,,,0.000000,4.000000,4.000000,4.000000,4.000000,4.000000,4.000000,4.000000,4.000000,4.000000,4.000000,4.000000,4.000000,4.000000,4.000000,100.000000,,,,,,,,,,,,,,,,,,,,,,,,,,,,,,,,,,,,,,,,,,,,,,,
1665722786.236059,1665722786.237003,19.000000,0.000000,4310.384766,4301.153809,4317.563965,4321.282227,4307.820313,4308.205078,4311.282227,4319.102539,4304.615234,4287.820313,4465.128418,4499.102539,4371.794922,4403.974121,0.000000,4.000000,80.000000,,,,0.000000,4.000000,4.000000,4.000000,4.000000,4.000000,4.000000,4.000000,4.000000,4.000000,4.000000,4.000000,4.000000,4.000000,4.000000,100.000000,,,,,,,,,,,,,,,,,,,,,,,,,,,,,,,,,,,,,,,,,,,,,,,
1665722786.243868,1665722786.244812,20.000000,0.000000,4307.692383,4296.282227,4308.974121,4318.461426,4302.820313,4303.461426,4305.384766,4317.692383,4305.384766,4283.333496,4466.666504,4494.743652,4370.897461,4402.436035,0.000000,4.000000,80.000000,,,,0.000000,4.000000,4.000000,4.000000,4.000000,4.000000,4.000000,4.000000,4.000000,4.000000,4.000000,4.000000,4.000000,4.000000,4.000000,100.000000,,,,,,,,,,,,,,,,,,,,,,,,,,,,,,,,,,,,,,,,,,,,,,,
1665722786.251676,1665722786.252520,21.000000,0.000000,4313.717773,4298.077148,4310.641113,4314.871582,4305.897461,4301.153809,4301.282227,4314.743652,4298.974121,4286.282227,4470.897461,4498.333496,4378.205078,4410.512695,0.000000,4.000000,80.000000,,,,0.000000,4.000000,4.000000,4.000000,4.000000,4.000000,4.000000,4.000000,4.000000,4.000000,4.000000,4.000000,4.000000,4.000000,4.000000,100.000000,,,,,,,,,,,,,,,,,,,,,,,,,,,,,,,,,,,,,,,,,,,,,,,
1665722786.259485,1665722786.260329,22.000000,0.000000,4321.922852,4308.461426,4320.000000,4312.948730,4312.051270,4303.205078,4305.769043,4316.922852,4296.025879,4290.641113,4474.358887,4503.846191,4379.358887,4414.615234,0.000000,4.000000,80.000000,,,,0.000000,4.000000,4.000000,4.000000,4.000000,4.000000,4.000000,4.000000,4.000000,4.000000,4.000000,4.000000,4.000000,4.000000,4.000000,100.000000,,,,,,,,,,,,,,,,,,,,,,,,,,,,,,,,,,,,,,,,,,,,,,,
1665722786.267293,1665722786.268037,23.000000,0.000000,4329.102539,4313.589844,4326.922852,4314.871582,4311.794922,4305.128418,4311.538574,4320.897461,4301.153809,4291.282227,4474.871582,4506.922852,4378.717773,4411.025879,0.000000,4.000000,80.000000,,,,0.000000,4.000000,4.000000,4.000000,4.000000,4.000000,4.000000,4.000000,4.000000,4.000000,4.000000,4.000000,4.000000,4.000000,4.000000,100.000000,,,,,,,,,,,,,,,,,,,,,,,,,,,,,,,,,,,,,,,,,,,,,,,
1665722786.275102,1665722786.275846,24.000000,0.000000,4327.692383,4303.205078,4326.025879,4316.794922,4308.846191,4308.846191,4312.436035,4321.794922,4302.179688,4288.589844,4469.102539,4505.384766,4379.615234,4407.820313,0.000000,4.000000,80.000000,,,,0.000000,4.000000,4.000000,4.000000,4.000000,4.000000,4.000000,4.000000,4.000000,4.000000,4.000000,4.000000,4.000000,4.000000,4.000000,100.000000,,,,,,,,,,,,,,,,,,,,,,,,,,,,,,,,,,,,,,,,,,,,,,,
1665722786.282910,1665722786.283554,25.000000,0.000000,4320.512695,4298.717773,4321.794922,4320.512695,4308.461426,4311.410156,4313.589844,4321.538574,4299.743652,4287.436035,4470.000000,4502.436035,4376.025879,4409.743652,0.000000,4.000000,80.000000,,,,0.000000,4.000000,4.000000,4.000000,4.000000,4.000000,4.000000,4.000000,4.000000,4.000000,4.000000,4.000000,4.000000,4.000000,4.000000,100.000000,,,,,,,,,,,,,,,,,,,,,,,,,,,,,,,,,,,,,,,,,,,,,,,
1665722786.290718,1665722786.291363,26.000000,0.000000,4312.948730,4301.794922,4315.000000,4320.000000,4303.205078,4303.589844,4311.538574,4315.641113,4297.563965,4282.563965,4467.051270,4495.512695,4369.230957,4406.666504,0.000000,4.000000,80.000000,,,,0.000000,4.000000,4.000000,4.000000,4.000000,4.000000,4.000000,4.000000,4.000000,4.000000,4.000000,4.000000,4.000000,4.000000,4.000000,100.000000,,,,,,,,,,,,,,,,,,,,,,,,,,,,,,,,,,,,,,,,,,,,,,,
1665722786.298527,1665722786.299071,27.000000,0.000000,4309.743652,4295.897461,4310.128418,4305.769043,4297.820313,4296.538574,4305.384766,4311.153809,4294.230957,4277.692383,4457.692383,4489.358887,4366.794922,4402.436035,0.000000,4.000000,80.000000,,,,0.000000,4.000000,4.000000,4.000000,4.000000,4.000000,4.000000,4.000000,4.000000,4.000000,4.000000,4.000000,4.000000,4.000000,4.000000,100.000000,,,,,,,,,,,,,,,,,,,,,,,,,,,,,,,,,,,,,,,,,,,,,,,
1665722786.306335,1665722786.306880,28.000000,0.000000,4313.846191,4292.307617,4317.820313,4300.128418,4305.256348,4302.820313,4306.282227,4314.358887,4295.384766,4278.589844,4465.384766,4495.000000,4370.128418,4409.615234,0.000000,4.000000,80.000000,,,,0.000000,4.000000,4.000000,4.000000,4.000000,4.000000,4.000000,4.000000,4.000000,4.000000,4.000000,4.000000,4.000000,4.000000,4.000000,100.000000,,,,,,,,,,,,,,,,,,,,,,,,,,,,,,,,,,,,,,,,,,,,,,,
1665722786.314144,1665722786.314588,29.000000,0.000000,4318.589844,4298.333496,4321.025879,4317.436035,4310.769043,4308.846191,4310.128418,4312.436035,4295.769043,4277.948730,4470.128418,4499.487305,4373.077148,4411.666504,0.000000,4.000000,80.000000,,,,0.000000,4.000000,4.000000,4.000000,4.000000,4.000000,4.000000,4.000000,4.000000,4.000000,4.000000,4.000000,4.000000,4.000000,4.000000,100.000000,,,,,,,,,,,,,,,,,,,,,,,,,,,,,,,,,,,,,,,,,,,,,,,
1665722786.321952,1665722786.322497,30.000000,0.000000,4320.384766,4301.153809,4314.102539,4328.333496,4309.871582,4307.563965,4308.846191,4309.102539,4294.615234,4277.820313,4460.384766,4493.205078,4370.641113,4404.487305,0.000000,4.000000,80.000000,,,,0.000000,4.000000,4.000000,4.000000,4.000000,4.000000,4.000000,4.000000,4.000000,4.000000,4.000000,4.000000,4.000000,4.000000,4.000000,100.000000,,,,,,,,,,,,,,,,,,,,,,,,,,,,,,,,,,,,,,,,,,,,,,,
1665722786.329760,1665722786.330305,31.000000,0.000000,4317.948730,4296.922852,4315.000000,4314.615234,4306.922852,4308.205078,4306.922852,4310.769043,4294.230957,4277.307617,4456.794922,4488.205078,4364.487305,4402.436035,0.000000,4.000000,80.000000,,,,0.000000,4.000000,4.000000,4.000000,4.000000,4.000000,4.000000,4.000000,4.000000,4.000000,4.000000,4.000000,4.000000,4.000000,4.000000,100.000000,,,,,,,,,,,,,,,,,,,,,,,,,,,,,,,,,,,,,,,,,,,,,,,
1665722786.337569,1665722786.338213,32.000000,0.000000,4310.769043,4291.538574,4321.922852,4300.769043,4308.077148,4310.128418,4309.102539,4308.974121,4289.743652,4271.410156,4454.615234,4486.666504,4354.743652,4403.461426,0.000000,4.000000,80.000000,,,,0.000000,4.000000,4.000000,4.000000,4.000000,4.000000,4.000000,4.000000,4.000000,4.000000,4.000000,4.000000,4.000000,4.000000,4.000000,100.000000,,,,,,,,,,,,,,,,,,,,,,,,,,,,,,,,,,,,,,,,,,,,,,,
1665722786.345377,1665722786.346022,33.000000,0.000000,4306.922852,4289.615234,4316.282227,4306.538574,4310.384766,4310.769043,4310.384766,4305.384766,4286.666504,4268.846191,4446.282227,4482.307617,4349.743652,4401.282227,0.000000,4.000000,80.000000,,,,0.000000,4.000000,4.000000,4.000000,4.000000,4.000000,4.000000,4.000000,4.000000,4.000000,4.000000,4.000000,4.000000,4.000000,4.000000,100.000000,,,,,,,,,,,,,,,,,,,,,,,,,,,,,,,,,,,,,,,,,,,,,,,
1665722786.353186,1665722786.353830,34.000000,0.000000,4310.769043,4295.000000,4308.077148,4317.436035,4303.717773,4312.051270,4308.846191,4311.025879,4292.948730,4277.948730,4452.948730,4485.512695,4360.256348,4403.846191,0.000000,4.000000,80.000000,,,,0.000000,4.000000,4.000000,4.000000,4.000000,4.000000,4.000000,4.000000,4.000000,4.000000,4.000000,4.000000,4.000000,4.000000,4.000000,100.000000,,,,,,,,,,,,,,,,,,,,,,,,,,,,,,,,,,,,,,,,,,,,,,,
1665722786.360994,1665722786.361539,35.000000,0.000000,4315.897461,4298.589844,4314.230957,4317.307617,4303.077148,4310.128418,4308.846191,4316.282227,4298.077148,4282.307617,4465.512695,4495.512695,4369.871582,4407.563965,0.000000,4.000000,80.000000,,,,0.000000,4.000000,4.000000,4.000000,4.000000,4.000000,4.000000,4.000000,4.000000,4.000000,4.000000,4.000000,4.000000,4.000000,4.000000,100.000000,,,,,,,,,,,,,,,,,,,,,,,,,,,,,,,,,,,,,,,,,,,,,,,
1665722786.368802,1665722786.369447,36.000000,0.000000,4313.589844,4295.384766,4322.179688,4309.230957,4310.000000,4308.205078,4311.282227,4316.922852,4295.641113,4278.077148,4463.077148,4498.717773,4365.897461,4408.461426,0.000000,4.000000,80.000000,,,,0.000000,4.000000,4.000000,4.000000,4.000000,4.000000,4.000000,4.000000,4.000000,4.000000,4.000000,4.000000,4.000000,4.000000,4.000000,100.000000,,,,,,,,,,,,,,,,,,,,,,,,,,,,,,,,,,,,,,,,,,,,,,,
1665722786.376611,1665722786.377256,37.000000,0.000000,4309.871582,4296.282227,4318.461426,4308.333496,4311.794922,4308.077148,4311.410156,4315.128418,4294.615234,4279.871582,4455.256348,4497.692383,4362.307617,4407.179688,0.000000,4.000000,80.000000,,,,0.000000,4.000000,4.000000,4.000000,4.000000,4.000000,4.000000,4.000000,4.000000,4.000000,4.000000,4.000000,4.000000,4.000000,4.000000,100.000000,,,,,,,,,,,,,,,,,,,,,,,,,,,,,,,,,,,,,,,,,,,,,,,
1665722786.384419,1665722786.385164,38.000000,0.000000,4314.743652,4300.384766,4314.358887,4317.179688,4309.358887,4307.563965,4307.948730,4312.436035,4296.538574,4279.743652,4459.358887,4499.615234,4365.128418,4405.128418,0.000000,4.000000,80.000000,,,,0.000000,4.000000,4.000000,4.000000,4.000000,4.000000,4.000000,4.000000,4.000000,4.000000,4.000000,4.000000,4.000000,4.000000,4.000000,100.000000,,,,,,,,,,,,,,,,,,,,,,,,,,,,,,,,,,,,,,,,,,,,,,,
1665722786.392228,1665722786.392973,39.000000,0.000000,4321.153809,4299.615234,4320.256348,4319.743652,4305.512695,4309.615234,4309.358887,4314.487305,4297.436035,4278.461426,4474.358887,4503.461426,4368.846191,4409.871582,0.000000,4.000000,80.000000,,,,0.000000,4.000000,4.000000,4.000000,4.000000,4.000000,4.000000,4.000000,4.000000,4.000000,4.000000,4.000000,4.000000,4.000000,4.000000,100.000000,,,,,,,,,,,,,,,,,,,,,,,,,,,,,,,,,,,,,,,,,,,,,,,
1665722786.400036,1665722786.400881,40.000000,0.000000,4316.282227,4296.666504,4319.358887,4310.384766,4302.307617,4312.563965,4311.025879,4314.743652,4296.410156,4286.282227,4472.820313,4502.051270,4371.666504,4410.769043,0.000000,4.000000,80.000000,,,,0.000000,4.000000,4.000000,4.000000,4.000000,4.000000,4.000000,4.000000,4.000000,4.000000,4.000000,4.000000,4.000000,4.000000,4.000000,100.000000,,,,,,,,,,,,,,,,,,,,,,,,,,,,,,,,,,,,,,,,,,,,,,,
1665722786.407844,1665722786.408689,41.000000,0.000000,4306.282227,4292.563965,4310.897461,4306.538574,4306.666504,4308.205078,4305.897461,4314.230957,4296.538574,4289.230957,4457.179688,4495.641113,4368.846191,4403.461426,0.000000,4.000000,80.000000,,,,0.000000,4.000000,4.000000,4.000000,4.000000,4.000000,4.000000,4.000000,4.000000,4.000000,4.000000,4.000000,4.000000,4.000000,4.000000,100.000000,,,,,,,,,,,,,,,,,,,,,,,,,,,,,,,,,,,,,,,,,,,,,,,
1665722786.415653,1665722786.416598,42.000000,0.000000,4311.410156,4292.692383,4317.563965,4312.436035,4309.871582,4303.717773,4304.102539,4318.846191,4302.948730,4288.717773,4466.538574,4502.307617,4369.358887,4406.666504,0.000000,4.000000,80.000000,,,,0.000000,4.000000,4.000000,4.000000,4.000000,4.000000,4.000000,4.000000,4.000000,4.000000,4.000000,4.000000,4.000000,4.000000,4.000000,100.000000,,,,,,,,,,,,,,,,,,,,,,,,,,,,,,,,,,,,,,,,,,,,,,,
1665722786.423461,1665722786.424406,43.000000,0.000000,4324.102539,4294.358887,4328.461426,4314.102539,4301.538574,4308.077148,4310.897461,4322.692383,4306.025879,4296.025879,4484.230957,4514.358887,4375.769043,4415.769043,0.000000,4.000000,80.000000,,,,0.000000,4.000000,4.000000,4.000000,4.000000,4.000000,4.000000,4.000000,4.000000,4.000000,4.000000,4.000000,4.000000,4.000000,4.000000,100.000000,,,,,,,,,,,,,,,,,,,,,,,,,,,,,,,,,,,,,,,,,,,,,,,
1665722786.431270,1665722786.432115,44.000000,0.000000,4324.102539,4294.871582,4323.974121,4308.205078,4300.256348,4311.153809,4317.820313,4322.307617,4303.205078,4297.692383,4472.436035,4511.794922,4378.461426,4411.794922,0.000000,4.000000,80.000000,,,,0.000000,4.000000,4.000000,4.000000,4.000000,4.000000,4.000000,4.000000,4.000000,4.000000,4.000000,4.000000,4.000000,4.000000,4.000000,100.000000,1.000000,75.000000,4.000000,4.000000,4.000000,4.000000,4.000000,4.000000,4.000000,4.000000,4.000000,4.000000,4.000000,4.000000,4.000000,1.000000,1.000000,0.718627,-0.359941,-1.525448,0.593199,1.000000,0.212076,2.440591,1.201655,7.043610,0.263215,1.000000,0.332621,36.895477,-4.635004,110.494141,1.000000,0.179716,0.085361,0.056579,0.236304,1.000000,0.384332,3.060039,-1.344401,9.648036,1.000000,0.417231,0.417231,0.000000,1.000000
1665722786.439078,1665722786.439923,45.000000,0.000000,4311.282227,4295.512695,4311.794922,4307.307617,4304.230957,4308.077148,4316.538574,4320.000000,4300.769043,4288.846191,4463.717773,4498.846191,4375.897461,4404.743652,0.000000,4.000000,80.000000,,,,0.000000,4.000000,4.000000,4.000000,4.000000,4.000000,4.000000,4.000000,4.000000,4.000000,4.000000,4.000000,4.000000,4.000000,4.000000,100.000000,,,,,,,,,,,,,,,,,,,,,,,,,,,,,,,,,,,,,,,,,,,,,,,
1665722786.446887,1665722786.447632,46.000000,0.000000,4307.692383,4297.051270,4307.563965,4312.692383,4307.179688,4308.333496,4312.948730,4314.487305,4299.487305,4290.000000,4477.307617,4489.615234,4375.128418,4404.743652,0.000000,4.000000,80.000000,,,,0.000000,4.000000,4.000000,4.000000,4.000000,4.000000,4.000000,4.000000,4.000000,4.000000,4.000000,4.000000,4.000000,4.000000,4.000000,100.000000,,,,,,,,,,,,,,,,,,,,,,,,,,,,,,,,,,,,,,,,,,,,,,,
1665722786.454695,1665722786.455440,47.000000,0.000000,4317.051270,4297.436035,4314.871582,4315.384766,4317.820313,4310.897461,4311.794922,4313.077148,4300.128418,4298.333496,4477.563965,4490.384766,4375.000000,4406.153809,0.000000,4.000000,80.000000,,,,0.000000,4.000000,4.000000,4.000000,4.000000,4.000000,4.000000,4.000000,4.000000,4.000000,4.000000,4.000000,4.000000,4.000000,4.000000,100.000000,,,,,,,,,,,,,,,,,,,,,,,,,,,,,,,,,,,,,,,,,,,,,,,
1665722786.462503,1665722786.463149,48.000000,0.000000,4314.230957,4293.974121,4312.436035,4310.256348,4315.769043,4306.794922,4305.769043,4313.846191,4297.692383,4293.589844,4461.282227,4486.666504,4369.358887,4401.922852,0.000000,4.000000,80.000000,,,,0.000000,4.000000,4.000000,4.000000,4.000000,4.000000,4.000000,4.000000,4.000000,4.000000,4.000000,4.000000,4.000000,4.000000,4.000000,100.000000,,,,,,,,,,,,,,,,,,,,,,,,,,,,,,,,,,,,,,,,,,,,,,,
1665722786.470312,1665722786.471057,49.000000,0.000000,4305.128418,4291.538574,4305.769043,4306.410156,4298.333496,4300.000000,4296.410156,4310.384766,4293.589844,4283.205078,4457.436035,4483.461426,4364.871582,4403.589844,0.000000,4.000000,80.000000,,,,0.000000,4.000000,4.000000,4.000000,4.000000,4.000000,4.000000,4.000000,4.000000,4.000000,4.000000,4.000000,4.000000,4.000000,4.000000,100.000000,,,,,,,,,,,,,,,,,,,,,,,,,,,,,,,,,,,,,,,,,,,,,,,
1665722786.478120,1665722786.478865,50.000000,0.000000,4301.794922,4288.974121,4303.461426,4309.230957,4296.666504,4295.128418,4294.487305,4306.794922,4295.128418,4279.230957,4461.410156,4485.512695,4360.897461,4404.871582,0.000000,4.000000,80.000000,,,,0.000000,4.000000,4.000000,4.000000,4.000000,4.000000,4.000000,4.000000,4.000000,4.000000,4.000000,4.000000,4.000000,4.000000,4.000000,100.000000,,,,,,,,,,,,,,,,,,,,,,,,,,,,,,,,,,,,,,,,,,,,,,,
1665722786.485929,1665722786.486674,51.000000,0.000000,4297.948730,4285.769043,4299.743652,4308.461426,4306.025879,4295.512695,4300.769043,4312.563965,4295.641113,4277.820313,4453.717773,4483.461426,4355.000000,4398.461426,0.000000,4.000000,80.000000,,,,0.000000,4.000000,4.000000,4.000000,4.000000,4.000000,4.000000,4.000000,4.000000,4.000000,4.000000,4.000000,4.000000,4.000000,4.000000,100.000000,,,,,,,,,,,,,,,,,,,,,,,,,,,,,,,,,,,,,,,,,,,,,,,
1665722786.493737,1665722786.494382,52.000000,0.000000,4305.384766,4291.410156,4302.948730,4308.461426,4307.820313,4305.897461,4307.563965,4323.205078,4298.205078,4280.256348,4455.384766,4486.538574,4358.589844,4400.256348,0.000000,4.000000,80.000000,,,,0.000000,4.000000,4.000000,4.000000,4.000000,4.000000,4.000000,4.000000,4.000000,4.000000,4.000000,4.000000,4.000000,4.000000,4.000000,100.000000,,,,,,,,,,,,,,,,,,,,,,,,,,,,,,,,,,,,,,,,,,,,,,,
1665722786.501546,1665722786.502191,53.000000,0.000000,4317.563965,4298.461426,4313.077148,4311.538574,4311.410156,4313.205078,4313.205078,4325.384766,4306.666504,4285.641113,4470.641113,4499.615234,4370.512695,4409.615234,0.000000,4.000000,80.000000,,,,0.000000,4.000000,4.000000,4.000000,4.000000,4.000000,4.000000,4.000000,4.000000,4.000000,4.000000,4.000000,4.000000,4.000000,4.000000,100.000000,,,,,,,,,,,,,,,,,,,,,,,,,,,,,,,,,,,,,,,,,,,,,,,
1665722786.509354,1665722786.509899,54.000000,0.000000,4315.769043,4299.358887,4310.384766,4312.179688,4312.179688,4305.897461,4309.358887,4314.743652,4303.589844,4286.410156,4470.000000,4496.153809,4371.282227,4408.461426,0.000000,4.000000,80.000000,,,,0.000000,4.000000,4.000000,4.000000,4.000000,4.000000,4.000000,4.000000,4.000000,4.000000,4.000000,4.000000,4.000000,4.000000,4.000000,100.000000,,,,,,,,,,,,,,,,,,,,,,,,,,,,,,,,,,,,,,,,,,,,,,,
1665722786.517162,1665722786.517708,55.000000,0.000000,4312.051270,4298.846191,4304.615234,4316.666504,4308.461426,4297.307617,4298.333496,4308.333496,4292.436035,4284.743652,4456.410156,4483.333496,4364.743652,4403.205078,0.000000,4.000000,80.000000,,,,0.000000,4.000000,4.000000,4.000000,4.000000,4.000000,4.000000,4.000000,4.000000,4.000000,4.000000,4.000000,4.000000,4.000000,4.000000,100.000000,,,,,,,,,,,,,,,,,,,,,,,,,,,,,,,,,,,,,,,,,,,,,,,
1665722786.524971,1665722786.525416,56.000000,0.000000,4316.153809,4300.512695,4313.974121,4319.871582,4310.512695,4297.307617,4296.153809,4312.563965,4293.589844,4284.102539,4459.487305,4491.153809,4368.717773,4406.794922,0.000000,4.000000,80.000000,,,,0.000000,4.000000,4.000000,4.000000,4.000000,4.000000,4.000000,4.000000,4.000000,4.000000,4.000000,4.000000,4.000000,4.000000,4.000000,100.000000,,,,,,,,,,,,,,,,,,,,,,,,,,,,,,,,,,,,,,,,,,,,,,,
1665722786.532779,1665722786.533225,57.000000,0.000000,4315.897461,4299.230957,4315.641113,4314.230957,4313.205078,4300.256348,4303.077148,4316.025879,4301.538574,4287.820313,4472.820313,4502.692383,4373.077148,4409.487305,0.000000,4.000000,80.000000,,,,0.000000,4.000000,4.000000,4.000000,4.000000,4.000000,4.000000,4.000000,4.000000,4.000000,4.000000,4.000000,4.000000,4.000000,4.000000,100.000000,,,,,,,,,,,,,,,,,,,,,,,,,,,,,,,,,,,,,,,,,,,,,,,
1665722786.540588,1665722786.540933,58.000000,0.000000,4321.666504,4301.410156,4317.307617,4314.102539,4309.487305,4307.820313,4313.589844,4321.025879,4309.743652,4294.871582,4470.000000,4509.230957,4370.641113,4410.384766,0.000000,4.000000,80.000000,,,,0.000000,4.000000,4.000000,4.000000,4.000000,4.000000,4.000000,4.000000,4.000000,4.000000,4.000000,4.000000,4.000000,4.000000,4.000000,100.000000,,,,,,,,,,,,,,,,,,,,,,,,,,,,,,,,,,,,,,,,,,,,,,,
1665722786.548396,1665722786.548842,59.000000,0.000000,4331.410156,4305.897461,4327.307617,4319.230957,4311.666504,4315.769043,4319.615234,4325.128418,4315.128418,4295.128418,4467.051270,4513.077148,4372.179688,4409.102539,0.000000,4.000000,80.000000,,,,0.000000,4.000000,4.000000,4.000000,4.000000,4.000000,4.000000,4.000000,4.000000,4.000000,4.000000,4.000000,4.000000,4.000000,4.000000,100.000000,,,,,,,,,,,,,,,,,,,,,,,,,,,,,,,,,,,,,,,,,,,,,,,
1665722786.556204,1665722786.556650,60.000000,0.000000,4324.743652,4304.743652,4322.179688,4316.282227,4314.743652,4314.743652,4316.410156,4322.563965,4307.563965,4289.102539,4476.025879,4507.179688,4376.282227,4404.871582,0.000000,4.000000,80.000000,,,,0.000000,4.000000,4.000000,4.000000,4.000000,4.000000,4.000000,4.000000,4.000000,4.000000,4.000000,4.000000,4.000000,4.000000,4.000000,100.000000,,,,,,,,,,,,,,,,,,,,,,,,,,,,,,,,,,,,,,,,,,,,,,,
1665722786.564013,1665722786.564559,61.000000,0.000000,4316.025879,4305.000000,4308.974121,4321.410156,4311.410156,4310.897461,4310.897461,4319.358887,4301.794922,4288.205078,4476.794922,4497.179688,4375.256348,4402.948730,0.000000,4.000000,80.000000,,,,0.000000,4.000000,4.000000,4.000000,4.000000,4.000000,4.000000,4.000000,4.000000,4.000000,4.000000,4.000000,4.000000,4.000000,4.000000,100.000000,,,,,,,,,,,,,,,,,,,,,,,,,,,,,,,,,,,,,,,,,,,,,,,
1665722786.571821,1665722786.572367,62.000000,0.000000,4319.358887,4302.692383,4315.000000,4327.436035,4312.692383,4313.205078,4312.563965,4316.410156,4301.282227,4286.922852,4461.410156,4493.333496,4368.717773,4403.974121,0.000000,4.000000,80.000000,,,,0.000000,4.000000,4.000000,4.000000,4.000000,4.000000,4.000000,4.000000,4.000000,4.000000,4.000000,4.000000,4.000000,4.000000,4.000000,100.000000,,,,,,,,,,,,,,,,,,,,,,,,,,,,,,,,,,,,,,,,,,,,,,,
1665722786.579630,1665722786.580275,63.000000,0.000000,4316.794922,4295.641113,4321.282227,4313.846191,4314.615234,4314.358887,4311.153809,4307.436035,4289.487305,4273.589844,4446.153809,4487.563965,4358.205078,4402.820313,0.000000,4.000000,80.000000,,,,0.000000,4.000000,4.000000,4.000000,4.000000,4.000000,4.000000,4.000000,4.000000,4.000000,4.000000,4.000000,4.000000,4.000000,4.000000,100.000000,,,,,,,,,,,,,,,,,,,,,,,,,,,,,,,,,,,,,,,,,,,,,,,
1665722786.587438,1665722786.588084,64.000000,0.000000,4300.512695,4292.948730,4303.846191,4303.974121,4306.538574,4303.717773,4297.436035,4298.717773,4275.000000,4253.333496,4441.025879,4476.025879,4343.846191,4398.333496,1673.000000,4.000000,80.000000,,,,0.000000,4.000000,4.000000,4.000000,4.000000,4.000000,4.000000,4.000000,4.000000,4.000000,4.000000,4.000000,4.000000,4.000000,4.000000,100.000000,,,,,,,,,,,,,,,,,,,,,,,,,,,,,,,,,,,,,,,,,,,,,,,
1665722786.595246,1665722786.595992,65.000000,0.000000,4294.358887,4294.358887,4290.769043,4309.230957,4300.384766,4293.333496,4290.512695,4299.102539,4274.871582,4246.538574,4441.282227,4469.871582,4338.077148,4397.563965,1760.000000,4.000000,80.000000,,,,0.000000,4.000000,4.000000,4.000000,4.000000,4.000000,4.000000,4.000000,4.000000,4.000000,4.000000,4.000000,4.000000,4.000000,4.000000,100.000000,,,,,,,,,,,,,,,,,,,,,,,,,,,,,,,,,,,,,,,,,,,,,,,
1665722786.603055,1665722786.603801,66.000000,0.000000,4311.025879,4301.922852,4307.948730,4315.641113,4309.743652,4299.743652,4302.820313,4310.128418,4290.384766,4266.666504,4449.743652,4481.282227,4352.948730,4406.410156,2356.000000,4.000000,80.000000,,,,0.000000,4.000000,4.000000,4.000000,4.000000,4.000000,4.000000,4.000000,4.000000,4.000000,4.000000,4.000000,4.000000,4.000000,4.000000,100.000000,,,,,,,,,,,,,,,,,,,,,,,,,,,,,,,,,,,,,,,,,,,,,,,
1665722786.610863,1665722786.611709,67.000000,0.000000,4323.717773,4306.794922,4318.974121,4314.102539,4313.846191,4308.077148,4311.666504,4319.102539,4306.922852,4290.000000,4457.436035,4492.179688,4370.000000,4407.820313,2124.000000,4.000000,80.000000,,,,0.000000,4.000000,4.000000,4.000000,4.000000,4.000000,4.000000,4.000000,4.000000,4.000000,4.000000,4.000000,4.000000,4.000000,4.000000,100.000000,,,,,,,,,,,,,,,,,,,,,,,,,,,,,,,,,,,,,,,,,,,,,,,
1665722786.618672,1665722786.619517,68.000000,0.000000,4322.820313,4304.615234,4312.692383,4314.487305,4304.487305,4302.948730,4306.025879,4316.922852,4310.897461,4290.641113,4464.615234,4490.641113,4370.512695,4404.487305,1781.000000,4.000000,80.000000,,,,0.000000,4.000000,4.000000,4.000000,4.000000,4.000000,4.000000,4.000000,4.000000,4.000000,4.000000,4.000000,4.000000,4.000000,4.000000,100.000000,,,,,,,,,,,,,,,,,,,,,,,,,,,,,,,,,,,,,,,,,,,,,,,
1665722786.626480,1665722786.627326,69.000000,0.000000,4325.512695,4304.358887,4314.358887,4321.025879,4310.512695,4297.436035,4301.282227,4315.641113,4306.025879,4286.538574,4476.794922,4493.846191,4371.153809,4409.871582,2206.000000,4.000000,80.000000,,,,0.000000,4.000000,4.000000,4.000000,4.000000,4.000000,4.000000,4.000000,4.000000,4.000000,4.000000,4.000000,4.000000,4.000000,4.000000,100.000000,,,,,,,,,,,,,,,,,,,,,,,,,,,,,,,,,,,,,,,,,,,,,,,
