title:Psychopy_cris_classical_eo_2022-10-12T135440.301024, start timestamp:1665608080.231180, stop timestamp:1665608141.246191, headset type:EPOCX, headset serial:E2020A42, headset firmware:720, channels:86, sampling rate:eeg_128;pm_2, samples:7815      , version:2.1, 
Timestamp,OriginalTimestamp,EEG.Counter,EEG.Interpolated,EEG.AF3,EEG.F7,EEG.F3,EEG.FC5,EEG.T7,EEG.P7,EEG.O1,EEG.O2,EEG.P8,EEG.T8,EEG.FC6,EEG.F4,EEG.F8,EEG.AF4,EEG.RawCq,EEG.Battery,EEG.BatteryPercent,MarkerIndex,MarkerType,MarkerValueInt,EEG.MarkerHardware,CQ.AF3,CQ.F7,CQ.F3,CQ.FC5,CQ.T7,CQ.P7,CQ.O1,CQ.O2,CQ.P8,CQ.T8,CQ.FC6,CQ.F4,CQ.F8,CQ.AF4,CQ.Overall,EQ.SampleRateQuality,EQ.OVERALL,EQ.AF3,EQ.F7,EQ.F3,EQ.FC5,EQ.T7,EQ.P7,EQ.O1,EQ.O2,EQ.P8,EQ.T8,EQ.FC6,EQ.F4,EQ.F8,EQ.AF4,PM.Engagement.IsActive,PM.Engagement.Scaled,PM.Engagement.Raw,PM.Engagement.Min,PM.Engagement.Max,PM.Excitement.IsActive,PM.Excitement.Scaled,PM.Excitement.Raw,PM.Excitement.Min,PM.Excitement.Max,PM.LongTermExcitement,PM.Stress.IsActive,PM.Stress.Scaled,PM.Stress.Raw,PM.Stress.Min,PM.Stress.Max,PM.Relaxation.IsActive,PM.Relaxation.Scaled,PM.Relaxation.Raw,PM.Relaxation.Min,PM.Relaxation.Max,PM.Interest.IsActive,PM.Interest.Scaled,PM.Interest.Raw,PM.Interest.Min,PM.Interest.Max,PM.Focus.IsActive,PM.Focus.Scaled,PM.Focus.Raw,PM.Focus.Min,PM.Focus.Max
1665608080.231180,1665608080.231742,48.000000,0.000000,4266.538574,4270.128418,4278.461426,4278.974121,4276.794922,4296.153809,4283.077148,4298.205078,4280.128418,4252.692383,4429.871582,4353.333496,4348.461426,4398.205078,0.000000,4.000000,92.000000,,,,0.000000,4.000000,4.000000,4.000000,4.000000,4.000000,4.000000,4.000000,4.000000,4.000000,4.000000,4.000000,4.000000,4.000000,4.000000,100.000000,,,,,,,,,,,,,,,,,,,,,,,,,,,,,,,,,,,,,,,,,,,,,,,
1665608080.238989,1665608080.239451,49.000000,0.000000,4265.769043,4263.333496,4270.384766,4275.128418,4266.153809,4296.666504,4282.563965,4304.871582,4281.153809,4258.717773,4428.205078,4348.589844,4347.179688,4394.102539,0.000000,4.000000,92.000000,,,,0.000000,4.000000,4.000000,4.000000,4.000000,4.000000,4.000000,4.000000,4.000000,4.000000,4.000000,4.000000,4.000000,4.000000,4.000000,100.000000,,,,,,,,,,,,,,,,,,,,,,,,,,,,,,,,,,,,,,,,,,,,,,,
1665608080.246797,1665608080.247359,50.000000,0.000000,4250.641113,4249.102539,4260.897461,4277.179688,4263.077148,4296.538574,4284.487305,4305.000000,4288.205078,4261.410156,4429.102539,4347.307617,4345.897461,4379.487305,0.000000,4.000000,92.000000,,,,0.000000,4.000000,4.000000,4.000000,4.000000,4.000000,4.000000,4.000000,4.000000,4.000000,4.000000,4.000000,4.000000,4.000000,4.000000,100.000000,,,,,,,,,,,,,,,,,,,,,,,,,,,,,,,,,,,,,,,,,,,,,,,
1665608080.254605,1665608080.255167,51.000000,0.000000,4246.922852,4246.538574,4256.282227,4277.307617,4264.358887,4293.717773,4282.307617,4305.512695,4293.717773,4261.794922,4427.692383,4346.025879,4344.743652,4377.692383,0.000000,4.000000,92.000000,,,,0.000000,4.000000,4.000000,4.000000,4.000000,4.000000,4.000000,4.000000,4.000000,4.000000,4.000000,4.000000,4.000000,4.000000,4.000000,100.000000,,,,,,,,,,,,,,,,,,,,,,,,,,,,,,,,,,,,,,,,,,,,,,,
1665608080.262414,1665608080.262976,52.000000,0.000000,4250.384766,4249.871582,4258.077148,4275.641113,4266.538574,4291.538574,4280.769043,4306.922852,4290.000000,4264.230957,4424.871582,4346.922852,4340.641113,4381.666504,0.000000,4.000000,92.000000,,,,0.000000,4.000000,4.000000,4.000000,4.000000,4.000000,4.000000,4.000000,4.000000,4.000000,4.000000,4.000000,4.000000,4.000000,4.000000,100.000000,,,,,,,,,,,,,,,,,,,,,,,,,,,,,,,,,,,,,,,,,,,,,,,
1665608080.270222,1665608080.270684,53.000000,0.000000,4248.589844,4249.358887,4259.743652,4274.871582,4274.358887,4293.333496,4280.128418,4292.179688,4279.230957,4262.051270,4428.589844,4349.358887,4337.948730,4376.153809,0.000000,4.000000,92.000000,,,,0.000000,4.000000,4.000000,4.000000,4.000000,4.000000,4.000000,4.000000,4.000000,4.000000,4.000000,4.000000,4.000000,4.000000,4.000000,100.000000,,,,,,,,,,,,,,,,,,,,,,,,,,,,,,,,,,,,,,,,,,,,,,,
1665608080.278031,1665608080.278493,54.000000,0.000000,4257.820313,4265.512695,4267.436035,4280.128418,4283.846191,4296.025879,4283.333496,4285.512695,4280.641113,4262.948730,4438.589844,4356.410156,4350.256348,4383.205078,0.000000,4.000000,92.000000,,,,0.000000,4.000000,4.000000,4.000000,4.000000,4.000000,4.000000,4.000000,4.000000,4.000000,4.000000,4.000000,4.000000,4.000000,4.000000,100.000000,,,,,,,,,,,,,,,,,,,,,,,,,,,,,,,,,,,,,,,,,,,,,,,
1665608080.285839,1665608080.286201,55.000000,0.000000,4275.641113,4283.077148,4281.153809,4293.717773,4285.512695,4298.717773,4293.717773,4304.615234,4297.051270,4275.128418,4447.820313,4368.333496,4366.922852,4401.025879,0.000000,4.000000,92.000000,,,,0.000000,4.000000,4.000000,4.000000,4.000000,4.000000,4.000000,4.000000,4.000000,4.000000,4.000000,4.000000,4.000000,4.000000,4.000000,100.000000,,,,,,,,,,,,,,,,,,,,,,,,,,,,,,,,,,,,,,,,,,,,,,,
1665608080.293648,1665608080.294010,56.000000,0.000000,4276.794922,4273.333496,4283.717773,4302.692383,4282.820313,4303.205078,4299.487305,4310.256348,4299.102539,4274.743652,4446.794922,4368.333496,4363.205078,4401.410156,0.000000,4.000000,92.000000,,,,0.000000,4.000000,4.000000,4.000000,4.000000,4.000000,4.000000,4.000000,4.000000,4.000000,4.000000,4.000000,4.000000,4.000000,4.000000,100.000000,,,,,,,,,,,,,,,,,,,,,,,,,,,,,,,,,,,,,,,,,,,,,,,
1665608080.301456,1665608080.301718,57.000000,0.000000,4266.794922,4269.230957,4277.436035,4301.666504,4279.615234,4304.230957,4296.538574,4295.512695,4283.461426,4257.436035,4438.205078,4358.333496,4354.871582,4394.230957,0.000000,4.000000,92.000000,,,,0.000000,4.000000,4.000000,4.000000,4.000000,4.000000,4.000000,4.000000,4.000000,4.000000,4.000000,4.000000,4.000000,4.000000,4.000000,100.000000,,,,,,,,,,,,,,,,,,,,,,,,,,,,,,,,,,,,,,,,,,,,,,,
1665608080.309264,1665608080.309627,58.000000,0.000000,4267.179688,4280.897461,4277.563965,4290.641113,4280.256348,4297.820313,4292.051270,4295.128418,4279.230957,4251.922852,4432.563965,4360.512695,4358.717773,4399.102539,0.000000,4.000000,92.000000,,,,0.000000,4.000000,4.000000,4.000000,4.000000,4.000000,4.000000,4.000000,4.000000,4.000000,4.000000,4.000000,4.000000,4.000000,4.000000,100.000000,,,,,,,,,,,,,,,,,,,,,,,,,,,,,,,,,,,,,,,,,,,,,,,
1665608080.317073,1665608080.317435,59.000000,0.000000,4265.000000,4275.512695,4275.641113,4280.769043,4277.820313,4290.641113,4284.102539,4299.615234,4280.641113,4255.000000,4428.077148,4361.922852,4354.743652,4396.153809,0.000000,4.000000,92.000000,,,,0.000000,4.000000,4.000000,4.000000,4.000000,4.000000,4.000000,4.000000,4.000000,4.000000,4.000000,4.000000,4.000000,4.000000,4.000000,100.000000,,,,,,,,,,,,,,,,,,,,,,,,,,,,,,,,,,,,,,,,,,,,,,,
1665608080.324881,1665608080.325343,60.000000,0.000000,4256.410156,4262.179688,4263.205078,4282.179688,4267.692383,4290.769043,4277.307617,4290.512695,4274.871582,4248.974121,4425.256348,4353.205078,4342.051270,4384.487305,0.000000,4.000000,92.000000,,,,0.000000,4.000000,4.000000,4.000000,4.000000,4.000000,4.000000,4.000000,4.000000,4.000000,4.000000,4.000000,4.000000,4.000000,4.000000,100.000000,,,,,,,,,,,,,,,,,,,,,,,,,,,,,,,,,,,,,,,,,,,,,,,
1665608080.332690,1665608080.333152,61.000000,0.000000,4259.230957,4263.717773,4258.846191,4286.538574,4268.205078,4292.179688,4282.948730,4288.077148,4271.666504,4243.974121,4427.820313,4356.538574,4337.563965,4387.692383,0.000000,4.000000,92.000000,,,,0.000000,4.000000,4.000000,4.000000,4.000000,4.000000,4.000000,4.000000,4.000000,4.000000,4.000000,4.000000,4.000000,4.000000,4.000000,100.000000,,,,,,,,,,,,,,,,,,,,,,,,,,,,,,,,,,,,,,,,,,,,,,,
1665608080.340498,1665608080.341060,62.000000,0.000000,4268.461426,4267.051270,4270.641113,4291.538574,4280.641113,4292.948730,4292.948730,4301.794922,4280.512695,4257.436035,4431.666504,4369.102539,4345.256348,4398.333496,0.000000,4.000000,92.000000,,,,0.000000,4.000000,4.000000,4.000000,4.000000,4.000000,4.000000,4.000000,4.000000,4.000000,4.000000,4.000000,4.000000,4.000000,4.000000,100.000000,,,,,,,,,,,,,,,,,,,,,,,,,,,,,,,,,,,,,,,,,,,,,,,
1665608080.348307,1665608080.348869,63.000000,0.000000,4265.897461,4263.717773,4279.358887,4299.615234,4283.846191,4293.974121,4299.358887,4311.282227,4289.743652,4265.384766,4432.436035,4373.205078,4350.000000,4397.820313,0.000000,4.000000,92.000000,,,,0.000000,4.000000,4.000000,4.000000,4.000000,4.000000,4.000000,4.000000,4.000000,4.000000,4.000000,4.000000,4.000000,4.000000,4.000000,100.000000,,,,,,,,,,,,,,,,,,,,,,,,,,,,,,,,,,,,,,,,,,,,,,,
1665608080.356115,1665608080.356777,64.000000,0.000000,4259.358887,4264.230957,4272.948730,4296.025879,4277.051270,4288.717773,4296.025879,4304.358887,4286.025879,4255.512695,4429.871582,4370.897461,4343.974121,4392.563965,2322.000000,4.000000,92.000000,,,,0.000000,4.000000,4.000000,4.000000,4.000000,4.000000,4.000000,4.000000,4.000000,4.000000,4.000000,4.000000,4.000000,4.000000,4.000000,100.000000,,,,,,,,,,,,,,,,,,,,,,,,,,,,,,,,,,,,,,,,,,,,,,,
1665608080.363923,1665608080.364585,65.000000,0.000000,4263.205078,4264.487305,4264.615234,4282.179688,4277.820313,4279.230957,4284.871582,4299.230957,4278.717773,4252.948730,4429.102539,4368.077148,4340.128418,4395.256348,2294.000000,4.000000,92.000000,,,,0.000000,4.000000,4.000000,4.000000,4.000000,4.000000,4.000000,4.000000,4.000000,4.000000,4.000000,4.000000,4.000000,4.000000,4.000000,100.000000,,,,,,,,,,,,,,,,,,,,,,,,,,,,,,,,,,,,,,,,,,,,,,,
1665608080.371732,1665608080.372494,66.000000,0.000000,4261.282227,4262.820313,4268.205078,4285.769043,4277.692383,4275.128418,4281.666504,4306.025879,4283.461426,4263.205078,4430.256348,4368.846191,4346.538574,4397.820313,2286.000000,4.000000,92.000000,,,,0.000000,4.000000,4.000000,4.000000,4.000000,4.000000,4.000000,4.000000,4.000000,4.000000,4.000000,4.000000,4.000000,4.000000,4.000000,100.000000,,,,,,,,,,,,,,,,,,,,,,,,,,,,,,,,,,,,,,,,,,,,,,,
1665608080.379540,1665608080.380402,67.000000,0.000000,4256.794922,4264.615234,4274.743652,4295.897461,4271.025879,4278.077148,4289.871582,4309.871582,4293.717773,4268.205078,4431.410156,4376.922852,4354.358887,4396.538574,2419.000000,4.000000,92.000000,,,,0.000000,4.000000,4.000000,4.000000,4.000000,4.000000,4.000000,4.000000,4.000000,4.000000,4.000000,4.000000,4.000000,4.000000,4.000000,100.000000,,,,,,,,,,,,,,,,,,,,,,,,,,,,,,,,,,,,,,,,,,,,,,,
1665608080.387349,1665608080.388211,68.000000,0.000000,4261.410156,4267.179688,4274.102539,4289.102539,4270.641113,4281.282227,4291.666504,4304.102539,4288.589844,4261.666504,4430.256348,4380.000000,4352.179688,4397.436035,2426.000000,4.000000,92.000000,,,,0.000000,4.000000,4.000000,4.000000,4.000000,4.000000,4.000000,4.000000,4.000000,4.000000,4.000000,4.000000,4.000000,4.000000,4.000000,100.000000,,,,,,,,,,,,,,,,,,,,,,,,,,,,,,,,,,,,,,,,,,,,,,,
1665608080.395157,1665608080.396019,69.000000,0.000000,4264.487305,4264.487305,4272.820313,4284.487305,4269.743652,4280.641113,4282.948730,4297.307617,4278.461426,4259.487305,4428.333496,4371.666504,4345.641113,4398.589844,1633.000000,4.000000,92.000000,,,,0.000000,4.000000,4.000000,4.000000,4.000000,4.000000,4.000000,4.000000,4.000000,4.000000,4.000000,4.000000,4.000000,4.000000,4.000000,100.000000,1.000000,58.333332,4.000000,3.000000,4.000000,4.000000,4.000000,4.000000,4.000000,4.000000,4.000000,4.000000,4.000000,1.000000,3.000000,4.000000,1.000000,0.608148,-0.522585,-1.136128,0.364907,1.000000,0.023995,2.773791,2.485436,14.502795,0.068539,1.000000,0.396642,61.801456,-437.279541,762.132080,1.000000,0.445899,0.132985,0.110290,0.339011,1.000000,0.477500,4.278317,-7.784078,19.325060,1.000000,0.195982,0.195982,0.000000,1.000000
1665608080.402965,1665608080.403728,70.000000,0.000000,4262.051270,4261.410156,4271.666504,4288.333496,4265.641113,4278.846191,4283.846191,4294.230957,4276.794922,4258.846191,4427.307617,4366.025879,4342.563965,4395.256348,2274.000000,4.000000,92.000000,,,,0.000000,4.000000,4.000000,4.000000,4.000000,4.000000,4.000000,4.000000,4.000000,4.000000,4.000000,4.000000,4.000000,4.000000,4.000000,100.000000,,,,,,,,,,,,,,,,,,,,,,,,,,,,,,,,,,,,,,,,,,,,,,,
1665608080.410774,1665608080.411636,71.000000,0.000000,4258.589844,4261.538574,4265.512695,4286.410156,4269.743652,4284.230957,4287.820313,4294.358887,4277.436035,4254.230957,4429.358887,4368.205078,4343.205078,4388.333496,2336.000000,4.000000,92.000000,,,,0.000000,4.000000,4.000000,4.000000,4.000000,4.000000,4.000000,4.000000,4.000000,4.000000,4.000000,4.000000,4.000000,4.000000,4.000000,100.000000,,,,,,,,,,,,,,,,,,,,,,,,,,,,,,,,,,,,,,,,,,,,,,,
1665608080.418582,1665608080.419545,72.000000,0.000000,4254.230957,4253.974121,4260.769043,4281.922852,4274.871582,4293.461426,4284.230957,4298.333496,4280.769043,4250.897461,4429.615234,4372.307617,4339.487305,4382.820313,2409.000000,4.000000,92.000000,,,,0.000000,4.000000,4.000000,4.000000,4.000000,4.000000,4.000000,4.000000,4.000000,4.000000,4.000000,4.000000,4.000000,4.000000,4.000000,100.000000,,,,,,,,,,,,,,,,,,,,,,,,,,,,,,,,,,,,,,,,,,,,,,,
1665608080.426391,1665608080.427353,73.000000,0.000000,4247.436035,4244.743652,4260.641113,4281.153809,4267.948730,4287.436035,4280.128418,4290.512695,4274.871582,4246.922852,4419.230957,4366.282227,4332.051270,4379.102539,2383.000000,4.000000,92.000000,,,,0.000000,4.000000,4.000000,4.000000,4.000000,4.000000,4.000000,4.000000,4.000000,4.000000,4.000000,4.000000,4.000000,4.000000,4.000000,100.000000,,,,,,,,,,,,,,,,,,,,,,,,,,,,,,,,,,,,,,,,,,,,,,,
1665608080.434199,1665608080.435162,74.000000,0.000000,4244.871582,4250.769043,4258.974121,4275.128418,4262.179688,4276.538574,4275.384766,4276.153809,4263.717773,4247.692383,4414.871582,4357.051270,4337.948730,4378.077148,2695.000000,4.000000,92.000000,,,,0.000000,4.000000,4.000000,4.000000,4.000000,4.000000,4.000000,4.000000,4.000000,4.000000,4.000000,4.000000,4.000000,4.000000,4.000000,100.000000,,,,,,,,,,,,,,,,,,,,,,,,,,,,,,,,,,,,,,,,,,,,,,,
1665608080.442008,1665608080.442971,75.000000,0.000000,4253.077148,4262.307617,4257.692383,4274.230957,4266.922852,4277.051270,4275.256348,4281.922852,4270.000000,4256.922852,4425.897461,4366.153809,4349.743652,4383.717773,2743.000000,4.000000,92.000000,,,,0.000000,4.000000,4.000000,4.000000,4.000000,4.000000,4.000000,4.000000,4.000000,4.000000,4.000000,4.000000,4.000000,4.000000,4.000000,100.000000,,,,,,,,,,,,,,,,,,,,,,,,,,,,,,,,,,,,,,,,,,,,,,,
1665608080.449816,1665608080.450779,76.000000,0.000000,4264.230957,4264.615234,4263.205078,4289.487305,4272.307617,4281.153809,4280.641113,4297.820313,4281.666504,4262.179688,4431.282227,4379.230957,4347.563965,4391.153809,2573.000000,4.000000,92.000000,,,,0.000000,4.000000,4.000000,4.000000,4.000000,4.000000,4.000000,4.000000,4.000000,4.000000,4.000000,4.000000,4.000000,4.000000,4.000000,100.000000,,,,,,,,,,,,,,,,,,,,,,,,,,,,,,,,,,,,,,,,,,,,,,,
1665608080.457624,1665608080.458588,77.000000,0.000000,4265.769043,4262.948730,4271.025879,4298.846191,4275.897461,4288.333496,4286.025879,4301.666504,4283.205078,4258.717773,4428.333496,4378.333496,4344.487305,4395.512695,2302.000000,4.000000,92.000000,,,,0.000000,4.000000,4.000000,4.000000,4.000000,4.000000,4.000000,4.000000,4.000000,4.000000,4.000000,4.000000,4.000000,4.000000,4.000000,100.000000,,,,,,,,,,,,,,,,,,,,,,,,,,,,,,,,,,,,,,,,,,,,,,,
1665608080.465433,1665608080.466296,78.000000,0.000000,4260.512695,4262.692383,4273.717773,4291.025879,4272.948730,4293.974121,4291.666504,4305.641113,4287.307617,4262.948730,4433.974121,4378.846191,4350.512695,4396.794922,2695.000000,4.000000,92.000000,,,,0.000000,4.000000,4.000000,4.000000,4.000000,4.000000,4.000000,4.000000,4.000000,4.000000,4.000000,4.000000,4.000000,4.000000,4.000000,100.000000,,,,,,,,,,,,,,,,,,,,,,,,,,,,,,,,,,,,,,,,,,,,,,,
1665608080.473241,1665608080.474105,79.000000,0.000000,4263.461426,4265.769043,4272.179688,4282.436035,4267.179688,4289.615234,4296.794922,4311.666504,4289.230957,4267.179688,4438.461426,4386.153809,4352.692383,4396.025879,2743.000000,4.000000,92.000000,,,,0.000000,4.000000,4.000000,4.000000,4.000000,4.000000,4.000000,4.000000,4.000000,4.000000,4.000000,4.000000,4.000000,4.000000,4.000000,100.000000,,,,,,,,,,,,,,,,,,,,,,,,,,,,,,,,,,,,,,,,,,,,,,,
1665608080.481050,1665608080.481813,80.000000,0.000000,4259.615234,4263.974121,4264.487305,4278.846191,4264.871582,4285.128418,4290.000000,4303.461426,4278.077148,4253.333496,4428.974121,4379.102539,4341.666504,4386.538574,2573.000000,4.000000,92.000000,,,,0.000000,4.000000,4.000000,4.000000,4.000000,4.000000,4.000000,4.000000,4.000000,4.000000,4.000000,4.000000,4.000000,4.000000,4.000000,100.000000,,,,,,,,,,,,,,,,,,,,,,,,,,,,,,,,,,,,,,,,,,,,,,,
1665608080.488858,1665608080.489622,81.000000,0.000000,4246.666504,4252.948730,4252.307617,4280.256348,4263.846191,4287.820313,4277.820313,4291.282227,4271.794922,4241.410156,4420.897461,4365.256348,4331.410156,4370.769043,2302.000000,4.000000,92.000000,,,,0.000000,4.000000,4.000000,4.000000,4.000000,4.000000,4.000000,4.000000,4.000000,4.000000,4.000000,4.000000,4.000000,4.000000,4.000000,100.000000,,,,,,,,,,,,,,,,,,,,,,,,,,,,,,,,,,,,,,,,,,,,,,,
1665608080.496667,1665608080.497330,82.000000,0.000000,4251.153809,4253.589844,4253.846191,4288.333496,4270.256348,4292.563965,4282.307617,4297.948730,4278.333496,4249.487305,4421.410156,4369.230957,4336.794922,4371.153809,2695.000000,4.000000,92.000000,,,,0.000000,4.000000,4.000000,4.000000,4.000000,4.000000,4.000000,4.000000,4.000000,4.000000,4.000000,4.000000,4.000000,4.000000,4.000000,100.000000,,,,,,,,,,,,,,,,,,,,,,,,,,,,,,,,,,,,,,,,,,,,,,,
1665608080.504475,1665608080.505239,83.000000,0.000000,4259.230957,4265.897461,4266.153809,4290.641113,4276.025879,4295.000000,4293.205078,4304.743652,4282.436035,4261.794922,4422.307617,4377.307617,4347.692383,4384.743652,2743.000000,4.000000,92.000000,,,,0.000000,4.000000,4.000000,4.000000,4.000000,4.000000,4.000000,4.000000,4.000000,4.000000,4.000000,4.000000,4.000000,4.000000,4.000000,100.000000,,,,,,,,,,,,,,,,,,,,,,,,,,,,,,,,,,,,,,,,,,,,,,,
1665608080.512283,1665608080.513047,84.000000,0.000000,4247.820313,4262.948730,4261.794922,4280.128418,4269.487305,4288.077148,4283.205078,4290.000000,4277.692383,4261.922852,4417.820313,4367.692383,4343.717773,4383.717773,2573.000000,4.000000,92.000000,,,,0.000000,4.000000,4.000000,4.000000,4.000000,4.000000,4.000000,4.000000,4.000000,4.000000,4.000000,4.000000,4.000000,4.000000,4.000000,100.000000,,,,,,,,,,,,,,,,,,,,,,,,,,,,,,,,,,,,,,,,,,,,,,,
1665608080.520092,1665608080.520956,85.000000,0.000000,4244.871582,4254.487305,4248.205078,4277.820313,4263.077148,4277.692383,4265.641113,4276.666504,4273.205078,4260.512695,4421.794922,4358.333496,4335.769043,4373.589844,2302.000000,4.000000,92.000000,,,,0.000000,4.000000,4.000000,4.000000,4.000000,4.000000,4.000000,4.000000,4.000000,4.000000,4.000000,4.000000,4.000000,4.000000,4.000000,100.000000,,,,,,,,,,,,,,,,,,,,,,,,,,,,,,,,,,,,,,,,,,,,,,,
1665608080.527900,1665608080.528764,86.000000,0.000000,4260.256348,4260.256348,4254.615234,4286.410156,4266.025879,4283.205078,4274.871582,4290.769043,4278.077148,4264.358887,4438.717773,4372.307617,4345.897461,4382.820313,2695.000000,4.000000,92.000000,,,,0.000000,4.000000,4.000000,4.000000,4.000000,4.000000,4.000000,4.000000,4.000000,4.000000,4.000000,4.000000,4.000000,4.000000,4.000000,100.000000,,,,,,,,,,,,,,,,,,,,,,,,,,,,,,,,,,,,,,,,,,,,,,,
1665608080.535709,1665608080.536672,87.000000,0.000000,4260.769043,4264.743652,4265.769043,4289.358887,4269.615234,4294.615234,4290.000000,4305.384766,4281.410156,4263.333496,4440.897461,4387.051270,4355.000000,4398.461426,2743.000000,4.000000,92.000000,,,,0.000000,4.000000,4.000000,4.000000,4.000000,4.000000,4.000000,4.000000,4.000000,4.000000,4.000000,4.000000,4.000000,4.000000,4.000000,100.000000,,,,,,,,,,,,,,,,,,,,,,,,,,,,,,,,,,,,,,,,,,,,,,,
1665608080.543517,1665608080.544581,88.000000,0.000000,4255.384766,4263.077148,4263.589844,4291.153809,4273.717773,4297.307617,4282.820313,4298.461426,4279.487305,4255.769043,4427.692383,4381.794922,4346.794922,4400.000000,2573.000000,4.000000,92.000000,,,,0.000000,4.000000,4.000000,4.000000,4.000000,4.000000,4.000000,4.000000,4.000000,4.000000,4.000000,4.000000,4.000000,4.000000,4.000000,100.000000,,,,,,,,,,,,,,,,,,,,,,,,,,,,,,,,,,,,,,,,,,,,,,,
1665608080.551325,1665608080.552389,89.000000,0.000000,4262.051270,4263.717773,4260.641113,4284.615234,4274.743652,4296.666504,4279.871582,4291.666504,4277.436035,4249.871582,4421.666504,4374.615234,4337.179688,4391.666504,2302.000000,4.000000,92.000000,,,,0.000000,4.000000,4.000000,4.000000,4.000000,4.000000,4.000000,4.000000,4.000000,4.000000,4.000000,4.000000,4.000000,4.000000,4.000000,100.000000,,,,,,,,,,,,,,,,,,,,,,,,,,,,,,,,,,,,,,,,,,,,,,,
1665608080.559134,1665608080.560298,90.000000,0.000000,4264.102539,4264.358887,4263.333496,4277.307617,4267.436035,4289.102539,4291.538574,4297.307617,4275.641113,4253.846191,4429.358887,4378.846191,4340.769043,4387.948730,2695.000000,4.000000,92.000000,,,,0.000000,4.000000,4.000000,4.000000,4.000000,4.000000,4.000000,4.000000,4.000000,4.000000,4.000000,4.000000,4.000000,4.000000,4.000000,100.000000,,,,,,,,,,,,,,,,,,,,,,,,,,,,,,,,,,,,,,,,,,,,,,,
1665608080.566942,1665608080.568106,91.000000,0.000000,4264.230957,4265.769043,4268.333496,4290.897461,4264.102539,4281.922852,4295.897461,4307.051270,4286.538574,4263.846191,4438.589844,4388.846191,4354.102539,4400.256348,2743.000000,4.000000,92.000000,,,,0.000000,4.000000,4.000000,4.000000,4.000000,4.000000,4.000000,4.000000,4.000000,4.000000,4.000000,4.000000,4.000000,4.000000,4.000000,100.000000,,,,,,,,,,,,,,,,,,,,,,,,,,,,,,,,,,,,,,,,,,,,,,,
1665608080.574751,1665608080.575914,92.000000,0.000000,4268.077148,4266.025879,4267.051270,4296.666504,4264.871582,4281.025879,4291.794922,4310.641113,4293.717773,4267.563965,4436.666504,4389.871582,4356.025879,4408.974121,2573.000000,4.000000,92.000000,,,,0.000000,4.000000,4.000000,4.000000,4.000000,4.000000,4.000000,4.000000,4.000000,4.000000,4.000000,4.000000,4.000000,4.000000,4.000000,100.000000,,,,,,,,,,,,,,,,,,,,,,,,,,,,,,,,,,,,,,,,,,,,,,,
1665608080.582559,1665608080.583623,93.000000,0.000000,4262.436035,4263.461426,4261.794922,4279.743652,4262.307617,4279.487305,4290.769043,4308.205078,4286.666504,4264.358887,4427.436035,4381.922852,4352.051270,4397.692383,2302.000000,4.000000,92.000000,,,,0.000000,4.000000,4.000000,4.000000,4.000000,4.000000,4.000000,4.000000,4.000000,4.000000,4.000000,4.000000,4.000000,4.000000,4.000000,100.000000,,,,,,,,,,,,,,,,,,,,,,,,,,,,,,,,,,,,,,,,,,,,,,,
1665608080.590368,1665608080.591431,94.000000,0.000000,4254.358887,4260.512695,4261.153809,4281.410156,4263.974121,4286.922852,4290.769043,4308.333496,4286.922852,4265.641113,4427.436035,4382.692383,4357.820313,4388.974121,2695.000000,4.000000,92.000000,,,,0.000000,4.000000,4.000000,4.000000,4.000000,4.000000,4.000000,4.000000,4.000000,4.000000,4.000000,4.000000,4.000000,4.000000,4.000000,100.000000,,,,,,,,,,,,,,,,,,,,,,,,,,,,,,,,,,,,,,,,,,,,,,,
1665608080.598176,1665608080.599140,95.000000,0.000000,4258.589844,4258.717773,4261.025879,4298.589844,4268.205078,4296.410156,4286.410156,4303.846191,4290.256348,4264.358887,4434.615234,4384.230957,4359.102539,4391.410156,2743.000000,4.000000,92.000000,,,,0.000000,4.000000,4.000000,4.000000,4.000000,4.000000,4.000000,4.000000,4.000000,4.000000,4.000000,4.000000,4.000000,4.000000,4.000000,100.000000,,,,,,,,,,,,,,,,,,,,,,,,,,,,,,,,,,,,,,,,,,,,,,,
1665608080.605984,1665608080.606948,96.000000,0.000000,4265.000000,4259.102539,4260.641113,4289.230957,4264.743652,4286.410156,4279.102539,4293.974121,4280.128418,4258.461426,4431.153809,4378.974121,4350.000000,4390.256348,2573.000000,4.000000,92.000000,,,,0.000000,4.000000,4.000000,4.000000,4.000000,4.000000,4.000000,4.000000,4.000000,4.000000,4.000000,4.000000,4.000000,4.000000,4.000000,100.000000,,,,,,,,,,,,,,,,,,,,,,,,,,,,,,,,,,,,,,,,,,,,,,,
1665608080.613793,1665608080.614657,97.000000,0.000000,4260.384766,4262.563965,4260.128418,4273.205078,4262.948730,4275.641113,4276.153809,4291.410156,4273.717773,4260.512695,4426.666504,4375.769043,4349.102539,4385.897461,2302.000000,4.000000,92.000000,,,,0.000000,4.000000,4.000000,4.000000,4.000000,4.000000,4.000000,4.000000,4.000000,4.000000,4.000000,4.000000,4.000000,4.000000,4.000000,100.000000,,,,,,,,,,,,,,,,,,,,,,,,,,,,,,,,,,,,,,,,,,,,,,,
1665608080.621601,1665608080.622565,98.000000,0.000000,4250.512695,4262.820313,4251.025879,4277.051270,4269.487305,4284.487305,4278.077148,4295.000000,4279.102539,4263.205078,4430.641113,4375.769043,4352.563965,4381.282227,2695.000000,4.000000,92.000000,,,,0.000000,4.000000,4.000000,4.000000,4.000000,4.000000,4.000000,4.000000,4.000000,4.000000,4.000000,4.000000,4.000000,4.000000,4.000000,100.000000,,,,,,,,,,,,,,,,,,,,,,,,,,,,,,,,,,,,,,,,,,,,,,,
1665608080.629410,1665608080.630474,99.000000,0.000000,4254.102539,4262.051270,4247.179688,4286.666504,4275.897461,4290.256348,4279.102539,4294.743652,4278.717773,4261.025879,4431.153809,4374.358887,4350.769043,4381.410156,2743.000000,4.000000,92.000000,,,,0.000000,4.000000,4.000000,4.000000,4.000000,4.000000,4.000000,4.000000,4.000000,4.000000,4.000000,4.000000,4.000000,4.000000,4.000000,100.000000,,,,,,,,,,,,,,,,,,,,,,,,,,,,,,,,,,,,,,,,,,,,,,,
1665608080.637218,1665608080.638283,100.000000,0.000000,4266.153809,4266.538574,4261.282227,4293.846191,4280.128418,4286.538574,4281.410156,4294.358887,4279.615234,4263.717773,4431.025879,4378.974121,4349.743652,4392.563965,2573.000000,4.000000,92.000000,,,,0.000000,4.000000,4.000000,4.000000,4.000000,4.000000,4.000000,4.000000,4.000000,4.000000,4.000000,4.000000,4.000000,4.000000,4.000000,100.000000,,,,,,,,,,,,,,,,,,,,,,,,,,,,,,,,,,,,,,,,,,,,,,,
1665608080.645027,1665608080.646091,101.000000,0.000000,4265.384766,4267.051270,4266.922852,4296.025879,4281.282227,4285.897461,4281.666504,4298.205078,4283.717773,4265.897461,4431.153809,4384.487305,4348.846191,4396.794922,2302.000000,4.000000,92.000000,,,,0.000000,4.000000,4.000000,4.000000,4.000000,4.000000,4.000000,4.000000,4.000000,4.000000,4.000000,4.000000,4.000000,4.000000,4.000000,100.000000,,,,,,,,,,,,,,,,,,,,,,,,,,,,,,,,,,,,,,,,,,,,,,,
1665608080.652835,1665608080.653900,102.000000,0.000000,4264.230957,4268.333496,4260.384766,4287.563965,4279.871582,4287.820313,4279.358887,4301.922852,4280.128418,4259.871582,4428.846191,4382.051270,4352.692383,4390.512695,2695.000000,4.000000,92.000000,,,,0.000000,4.000000,4.000000,4.000000,4.000000,4.000000,4.000000,4.000000,4.000000,4.000000,4.000000,4.000000,4.000000,4.000000,4.000000,100.000000,,,,,,,,,,,,,,,,,,,,,,,,,,,,,,,,,,,,,,,,,,,,,,,
1665608080.660643,1665608080.661709,103.000000,0.000000,4278.077148,4280.000000,4268.077148,4277.948730,4281.666504,4292.307617,4288.077148,4307.948730,4280.641113,4264.102539,4433.205078,4388.717773,4362.436035,4394.102539,2743.000000,4.000000,92.000000,,,,0.000000,4.000000,4.000000,4.000000,4.000000,4.000000,4.000000,4.000000,4.000000,4.000000,4.000000,4.000000,4.000000,4.000000,4.000000,100.000000,,,,,,,,,,,,,,,,,,,,,,,,,,,,,,,,,,,,,,,,,,,,,,,
1665608080.668452,1665608080.669517,104.000000,0.000000,4284.230957,4281.538574,4276.666504,4282.307617,4283.846191,4297.051270,4296.922852,4312.307617,4290.512695,4278.205078,4443.589844,4396.538574,4364.230957,4400.000000,2573.000000,4.000000,92.000000,,,,0.000000,4.000000,4.000000,4.000000,4.000000,4.000000,4.000000,4.000000,4.000000,4.000000,4.000000,4.000000,4.000000,4.000000,4.000000,100.000000,,,,,,,,,,,,,,,,,,,,,,,,,,,,,,,,,,,,,,,,,,,,,,,
1665608080.676260,1665608080.677326,105.000000,0.000000,4276.666504,4266.538574,4270.000000,4286.666504,4279.743652,4294.743652,4286.922852,4304.487305,4295.897461,4279.743652,4443.717773,4389.102539,4356.153809,4396.153809,2302.000000,4.000000,92.000000,,,,0.000000,4.000000,4.000000,4.000000,4.000000,4.000000,4.000000,4.000000,4.000000,4.000000,4.000000,4.000000,4.000000,4.000000,4.000000,100.000000,,,,,,,,,,,,,,,,,,,,,,,,,,,,,,,,,,,,,,,,,,,,,,,
1665608080.684069,1665608080.685135,106.000000,0.000000,4277.820313,4266.794922,4266.794922,4277.820313,4280.512695,4291.666504,4279.230957,4299.743652,4293.717773,4275.000000,4439.615234,4384.743652,4356.025879,4397.307617,2695.000000,4.000000,92.000000,,,,0.000000,4.000000,4.000000,4.000000,4.000000,4.000000,4.000000,4.000000,4.000000,4.000000,4.000000,4.000000,4.000000,4.000000,4.000000,100.000000,,,,,,,,,,,,,,,,,,,,,,,,,,,,,,,,,,,,,,,,,,,,,,,
1665608080.691877,1665608080.692843,107.000000,0.000000,4282.307617,4278.846191,4278.974121,4277.051270,4288.333496,4296.794922,4289.871582,4310.128418,4296.025879,4279.615234,4446.282227,4395.512695,4365.897461,4404.102539,2743.000000,4.000000,92.000000,,,,0.000000,4.000000,4.000000,4.000000,4.000000,4.000000,4.000000,4.000000,4.000000,4.000000,4.000000,4.000000,4.000000,4.000000,4.000000,100.000000,,,,,,,,,,,,,,,,,,,,,,,,,,,,,,,,,,,,,,,,,,,,,,,
1665608080.699685,1665608080.700752,108.000000,0.000000,4274.615234,4271.153809,4280.769043,4284.487305,4286.794922,4296.410156,4289.743652,4309.102539,4291.794922,4275.384766,4442.051270,4392.948730,4362.307617,4399.358887,2573.000000,4.000000,92.000000,,,,0.000000,4.000000,4.000000,4.000000,4.000000,4.000000,4.000000,4.000000,4.000000,4.000000,4.000000,4.000000,4.000000,4.000000,4.000000,100.000000,,,,,,,,,,,,,,,,,,,,,,,,,,,,,,,,,,,,,,,,,,,,,,,
1665608080.707494,1665608080.708560,109.000000,0.000000,4267.051270,4257.820313,4266.794922,4272.436035,4276.538574,4284.230957,4275.000000,4292.051270,4277.563965,4258.333496,4423.205078,4374.615234,4343.333496,4387.563965,2302.000000,4.000000,92.000000,,,,0.000000,4.000000,4.000000,4.000000,4.000000,4.000000,4.000000,4.000000,4.000000,4.000000,4.000000,4.000000,4.000000,4.000000,4.000000,100.000000,,,,,,,,,,,,,,,,,,,,,,,,,,,,,,,,,,,,,,,,,,,,,,,
1665608080.715302,1665608080.716468,110.000000,0.000000,4275.384766,4263.974121,4264.230957,4264.615234,4279.743652,4283.589844,4278.333496,4291.410156,4276.025879,4257.436035,4423.589844,4374.102539,4335.512695,4388.846191,2695.000000,4.000000,92.000000,,,,0.000000,4.000000,4.000000,4.000000,4.000000,4.000000,4.000000,4.000000,4.000000,4.000000,4.000000,4.000000,4.000000,4.000000,4.000000,100.000000,,,,,,,,,,,,,,,,,,,,,,,,,,,,,,,,,,,,,,,,,,,,,,,
1665608080.723111,1665608080.724277,111.000000,0.000000,4279.743652,4271.538574,4268.333496,4277.436035,4288.461426,4294.358887,4285.512695,4296.922852,4279.615234,4260.769043,4431.666504,4381.153809,4342.179688,4390.512695,2743.000000,4.000000,92.000000,,,,0.000000,4.000000,4.000000,4.000000,4.000000,4.000000,4.000000,4.000000,4.000000,4.000000,4.000000,4.000000,4.000000,4.000000,4.000000,100.000000,,,,,,,,,,,,,,,,,,,,,,,,,,,,,,,,,,,,,,,,,,,,,,,
1665608080.730919,1665608080.732185,112.000000,0.000000,4265.512695,4267.307617,4262.436035,4279.358887,4284.487305,4295.897461,4282.820313,4291.666504,4272.692383,4247.948730,4420.641113,4378.974121,4342.051270,4381.153809,2573.000000,4.000000,92.000000,,,,0.000000,4.000000,4.000000,4.000000,4.000000,4.000000,4.000000,4.000000,4.000000,4.000000,4.000000,4.000000,4.000000,4.000000,4.000000,100.000000,,,,,,,,,,,,,,,,,,,,,,,,,,,,,,,,,,,,,,,,,,,,,,,
1665608080.738728,1665608080.739994,113.000000,0.000000,4260.256348,4264.102539,4260.769043,4273.589844,4283.974121,4295.769043,4289.743652,4296.538574,4274.743652,4245.641113,4419.230957,4379.871582,4340.512695,4382.179688,2302.000000,4.000000,92.000000,,,,0.000000,4.000000,4.000000,4.000000,4.000000,4.000000,4.000000,4.000000,4.000000,4.000000,4.000000,4.000000,4.000000,4.000000,4.000000,100.000000,,,,,,,,,,,,,,,,,,,,,,,,,,,,,,,,,,,,,,,,,,,,,,,
1665608080.746536,1665608080.747802,114.000000,0.000000,4273.333496,4265.000000,4272.307617,4277.051270,4287.051270,4297.436035,4291.282227,4305.128418,4288.077148,4265.769043,4439.871582,4386.153809,4355.000000,4398.333496,2695.000000,4.000000,92.000000,,,,0.000000,4.000000,4.000000,4.000000,4.000000,4.000000,4.000000,4.000000,4.000000,4.000000,4.000000,4.000000,4.000000,4.000000,4.000000,100.000000,,,,,,,,,,,,,,,,,,,,,,,,,,,,,,,,,,,,,,,,,,,,,,,
1665608080.754344,1665608080.755611,115.000000,0.000000,4283.461426,4270.256348,4281.666504,4283.205078,4283.205078,4291.922852,4278.846191,4302.820313,4291.922852,4276.410156,4445.384766,4390.641113,4366.794922,4408.333496,2743.000000,4.000000,92.000000,,,,0.000000,4.000000,4.000000,4.000000,4.000000,4.000000,4.000000,4.000000,4.000000,4.000000,4.000000,4.000000,4.000000,4.000000,4.000000,100.000000,,,,,,,,,,,,,,,,,,,,,,,,,,,,,,,,,,,,,,,,,,,,,,,
1665608080.762153,1665608080.763319,116.000000,0.000000,4290.641113,4279.230957,4291.538574,4288.974121,4285.128418,4289.615234,4283.205078,4304.102539,4294.487305,4274.358887,4446.025879,4398.205078,4365.128418,4410.897461,2573.000000,4.000000,92.000000,,,,0.000000,4.000000,4.000000,4.000000,4.000000,4.000000,4.000000,4.000000,4.000000,4.000000,4.000000,4.000000,4.000000,4.000000,4.000000,100.000000,,,,,,,,,,,,,,,,,,,,,,,,,,,,,,,,,,,,,,,,,,,,,,,
1665608080.769961,1665608080.771128,117.000000,0.000000,4297.563965,4285.512695,4298.846191,4290.641113,4293.717773,4293.077148,4297.563965,4315.897461,4304.615234,4286.025879,4457.179688,4406.794922,4369.615234,4419.102539,2302.000000,4.000000,92.000000,,,,0.000000,4.000000,4.000000,4.000000,4.000000,4.000000,4.000000,4.000000,4.000000,4.000000,4.000000,4.000000,4.000000,4.000000,4.000000,100.000000,,,,,,,,,,,,,,,,,,,,,,,,,,,,,,,,,,,,,,,,,,,,,,,
1665608080.777770,1665608080.778836,118.000000,0.000000,4288.077148,4280.384766,4288.589844,4282.563965,4290.000000,4290.128418,4292.692383,4315.384766,4303.846191,4292.820313,4451.025879,4402.820313,4373.077148,4416.025879,2695.000000,4.000000,92.000000,,,,0.000000,4.000000,4.000000,4.000000,4.000000,4.000000,4.000000,4.000000,4.000000,4.000000,4.000000,4.000000,4.000000,4.000000,4.000000,100.000000,,,,,,,,,,,,,,,,,,,,,,,,,,,,,,,,,,,,,,,,,,,,,,,
1665608080.785578,1665608080.786744,119.000000,0.000000,4270.641113,4269.102539,4277.307617,4278.333496,4281.794922,4291.922852,4288.205078,4301.794922,4294.487305,4275.897461,4440.384766,4392.820313,4359.871582,4397.692383,2743.000000,4.000000,92.000000,,,,0.000000,4.000000,4.000000,4.000000,4.000000,4.000000,4.000000,4.000000,4.000000,4.000000,4.000000,4.000000,4.000000,4.000000,4.000000,100.000000,,,,,,,,,,,,,,,,,,,,,,,,,,,,,,,,,,,,,,,,,,,,,,,
1665608080.793387,1665608080.794753,120.000000,0.000000,4268.077148,4266.282227,4278.974121,4280.512695,4282.692383,4297.436035,4297.307617,4298.461426,4289.615234,4262.948730,4442.307617,4388.333496,4348.077148,4388.077148,2573.000000,4.000000,92.000000,,,,0.000000,4.000000,4.000000,4.000000,4.000000,4.000000,4.000000,4.000000,4.000000,4.000000,4.000000,4.000000,4.000000,4.000000,4.000000,100.000000,,,,,,,,,,,,,,,,,,,,,,,,,,,,,,,,,,,,,,,,,,,,,,,
1665608080.801195,1665608080.802562,121.000000,0.000000,4269.358887,4266.410156,4278.846191,4276.538574,4281.666504,4292.179688,4294.615234,4300.641113,4283.589844,4263.077148,4435.641113,4387.563965,4344.743652,4389.871582,2302.000000,4.000000,92.000000,,,,0.000000,4.000000,4.000000,4.000000,4.000000,4.000000,4.000000,4.000000,4.000000,4.000000,4.000000,4.000000,4.000000,4.000000,4.000000,100.000000,,,,,,,,,,,,,,,,,,,,,,,,,,,,,,,,,,,,,,,,,,,,,,,
1665608080.809003,1665608080.810470,122.000000,1.000000,4271.410156,4268.699707,4281.648438,4278.021973,4282.710449,4292.692383,4295.128418,4303.571289,4286.776367,4266.392090,4437.545898,4390.988770,4349.011230,4394.615234,2304.857178,4.000000,92.000000,,,,0.000000,4.000000,4.000000,4.000000,4.000000,4.000000,4.000000,4.000000,4.000000,4.000000,4.000000,4.000000,4.000000,4.000000,4.000000,100.000000,,,,,,,,,,,,,,,,,,,,,,,,,,,,,,,,,,,,,,,,,,,,,,,
1665608080.816812,1665608080.818279,123.000000,1.000000,4273.461426,4270.988770,4284.450684,4279.505371,4283.754395,4293.205078,4295.641113,4306.501953,4289.963379,4269.707031,4439.450684,4394.414063,4353.278320,4399.358887,2307.714355,4.000000,92.000000,,,,0.000000,4.000000,4.000000,4.000000,4.000000,4.000000,4.000000,4.000000,4.000000,4.000000,4.000000,4.000000,4.000000,4.000000,4.000000,100.000000,,,,,,,,,,,,,,,,,,,,,,,,,,,,,,,,,,,,,,,,,,,,,,,
1665608080.824620,1665608080.826088,124.000000,1.000000,4275.512695,4273.278320,4287.252930,4280.988770,4284.798340,4293.717773,4296.153809,4309.432129,4293.150391,4273.021973,4441.355469,4397.838867,4357.545898,4404.102539,2310.571533,4.000000,92.000000,,,,0.000000,4.000000,4.000000,4.000000,4.000000,4.000000,4.000000,4.000000,4.000000,4.000000,4.000000,4.000000,4.000000,4.000000,4.000000,100.000000,,,,,,,,,,,,,,,,,,,,,,,,,,,,,,,,,,,,,,,,,,,,,,,
1665608080.832429,1665608080.833896,125.000000,1.000000,4277.563965,4275.567871,4290.055176,4282.472656,4285.842285,4294.230957,4296.666504,4312.362793,4296.336914,4276.336914,4443.260254,4401.263672,4361.812988,4408.846191,2313.428467,4.000000,92.000000,,,,0.000000,4.000000,4.000000,4.000000,4.000000,4.000000,4.000000,4.000000,4.000000,4.000000,4.000000,4.000000,4.000000,4.000000,4.000000,100.000000,,,,,,,,,,,,,,,,,,,,,,,,,,,,,,,,,,,,,,,,,,,,,,,
1665608080.840237,1665608080.841705,126.000000,1.000000,4279.615234,4277.856934,4292.856934,4283.956055,4286.886230,4294.743652,4297.179688,4315.292969,4299.523926,4279.651855,4445.165039,4404.688477,4366.080566,4413.589844,2316.285645,4.000000,92.000000,,,,0.000000,4.000000,4.000000,4.000000,4.000000,4.000000,4.000000,4.000000,4.000000,4.000000,4.000000,4.000000,4.000000,4.000000,4.000000,100.000000,,,,,,,,,,,,,,,,,,,,,,,,,,,,,,,,,,,,,,,,,,,,,,,
1665608080.848045,1665608080.849514,127.000000,1.000000,4281.666504,4280.146484,4295.659180,4285.439453,4287.930176,4295.256348,4297.692383,4318.223633,4302.710449,4282.966797,4447.069824,4408.113770,4370.348145,4418.333496,2319.142822,4.000000,92.000000,,,,0.000000,4.000000,4.000000,4.000000,4.000000,4.000000,4.000000,4.000000,4.000000,4.000000,4.000000,4.000000,4.000000,4.000000,4.000000,100.000000,,,,,,,,,,,,,,,,,,,,,,,,,,,,,,,,,,,,,,,,,,,,,,,
1665608080.855854,1665608080.857322,0.000000,0.000000,4283.717773,4282.436035,4298.461426,4286.922852,4288.974121,4295.769043,4298.205078,4321.153809,4305.897461,4286.282227,4448.974121,4411.538574,4374.615234,4423.077148,2322.000000,4.000000,92.000000,,,,0.000000,4.000000,4.000000,4.000000,4.000000,4.000000,4.000000,4.000000,4.000000,4.000000,4.000000,4.000000,4.000000,4.000000,4.000000,100.000000,,,,,,,,,,,,,,,,,,,,,,,,,,,,,,,,,,,,,,,,,,,,,,,
1665608080.863662,1665608080.865231,1.000000,0.000000,4285.256348,4279.358887,4292.436035,4282.179688,4281.025879,4296.025879,4287.820313,4309.358887,4299.358887,4280.384766,4450.384766,4403.333496,4369.230957,4421.410156,2294.000000,4.000000,92.000000,,,,0.000000,4.000000,4.000000,4.000000,4.000000,4.000000,4.000000,4.000000,4.000000,4.000000,4.000000,4.000000,4.000000,4.000000,4.000000,100.000000,,,,,,,,,,,,,,,,,,,,,,,,,,,,,,,,,,,,,,,,,,,,,,,
1665608080.871471,1665608080.873040,2.000000,0.000000,4282.948730,4274.358887,4284.230957,4282.563965,4281.153809,4293.333496,4287.307617,4304.743652,4292.563965,4273.589844,4440.897461,4400.384766,4357.436035,4412.436035,2279.000000,4.000000,92.000000,,,,0.000000,4.000000,4.000000,4.000000,4.000000,4.000000,4.000000,4.000000,4.000000,4.000000,4.000000,4.000000,4.000000,4.000000,4.000000,100.000000,,,,,,,,,,,,,,,,,,,,,,,,,,,,,,,,,,,,,,,,,,,,,,,
1665608080.879279,1665608080.880848,3.000000,0.000000,4276.025879,4266.410156,4282.179688,4281.538574,4282.948730,4293.461426,4295.384766,4305.512695,4294.615234,4272.051270,4432.563965,4402.820313,4350.897461,4407.692383,2411.000000,4.000000,92.000000,,,,0.000000,4.000000,4.000000,4.000000,4.000000,4.000000,4.000000,4.000000,4.000000,4.000000,4.000000,4.000000,4.000000,4.000000,4.000000,100.000000,,,,,,,,,,,,,,,,,,,,,,,,,,,,,,,,,,,,,,,,,,,,,,,
1665608080.887088,1665608080.888657,4.000000,0.000000,4268.077148,4258.846191,4277.051270,4278.589844,4278.077148,4297.692383,4290.128418,4299.871582,4289.230957,4262.436035,4429.871582,4395.128418,4345.000000,4399.487305,2418.000000,4.000000,92.000000,,,,0.000000,4.000000,4.000000,4.000000,4.000000,4.000000,4.000000,4.000000,4.000000,4.000000,4.000000,4.000000,4.000000,4.000000,4.000000,100.000000,,,,,,,,,,,,,,,,,,,,,,,,,,,,,,,,,,,,,,,,,,,,,,,
1665608080.894896,1665608080.896565,5.000000,0.000000,4263.333496,4260.641113,4266.794922,4278.461426,4279.358887,4298.205078,4280.384766,4297.307617,4280.384766,4250.769043,4426.025879,4389.358887,4340.256348,4392.692383,1631.000000,4.000000,92.000000,,,,0.000000,4.000000,4.000000,4.000000,4.000000,4.000000,4.000000,4.000000,4.000000,4.000000,4.000000,4.000000,4.000000,4.000000,4.000000,100.000000,0.976563,25.000000,4.000000,1.000000,3.000000,3.000000,4.000000,4.000000,4.000000,4.000000,4.000000,4.000000,4.000000,1.000000,1.000000,4.000000,1.000000,0.603325,-0.280064,-1.135964,0.364806,1.000000,0.037559,2.936796,2.485436,14.502795,0.067800,1.000000,0.393746,58.869450,-437.209412,761.971558,1.000000,0.397698,0.340121,0.110315,0.338988,1.000000,0.468117,4.600364,-7.782352,19.322220,1.000000,0.219435,0.219435,0.000000,1.000000
1665608080.902705,1665608080.904474,6.000000,0.000000,4256.025879,4262.692383,4258.077148,4272.948730,4278.846191,4286.666504,4274.487305,4291.794922,4276.794922,4248.717773,4416.282227,4387.948730,4337.051270,4389.615234,2261.000000,4.000000,92.000000,,,,0.000000,4.000000,4.000000,4.000000,4.000000,4.000000,4.000000,4.000000,4.000000,4.000000,4.000000,4.000000,4.000000,4.000000,4.000000,100.000000,,,,,,,,,,,,,,,,,,,,,,,,,,,,,,,,,,,,,,,,,,,,,,,
1665608080.910513,1665608080.912283,7.000000,0.000000,4244.102539,4252.692383,4256.282227,4264.230957,4267.692383,4276.794922,4266.410156,4278.333496,4271.922852,4246.922852,4409.102539,4384.358887,4331.922852,4378.846191,2322.000000,4.000000,92.000000,,,,0.000000,4.000000,4.000000,4.000000,4.000000,4.000000,4.000000,4.000000,4.000000,4.000000,4.000000,4.000000,4.000000,4.000000,4.000000,100.000000,,,,,,,,,,,,,,,,,,,,,,,,,,,,,,,,,,,,,,,,,,,,,,,
1665608080.918321,1665608080.920091,8.000000,0.000000,4246.794922,4250.000000,4258.717773,4267.436035,4268.974121,4287.436035,4266.922852,4280.256348,4272.820313,4248.589844,4418.974121,4393.589844,4335.641113,4376.538574,2399.000000,4.000000,92.000000,,,,0.000000,4.000000,4.000000,4.000000,4.000000,4.000000,4.000000,4.000000,4.000000,4.000000,4.000000,4.000000,4.000000,4.000000,4.000000,100.000000,,,,,,,,,,,,,,,,,,,,,,,,,,,,,,,,,,,,,,,,,,,,,,,
1665608080.926130,1665608080.928000,9.000000,0.000000,4259.871582,4261.153809,4263.974121,4274.615234,4279.230957,4297.307617,4278.461426,4294.487305,4283.077148,4257.179688,4426.794922,4412.179688,4347.563965,4387.820313,2376.000000,4.000000,92.000000,,,,0.000000,4.000000,4.000000,4.000000,4.000000,4.000000,4.000000,4.000000,4.000000,4.000000,4.000000,4.000000,4.000000,4.000000,4.000000,100.000000,,,,,,,,,,,,,,,,,,,,,,,,,,,,,,,,,,,,,,,,,,,,,,,
1665608080.933938,1665608080.935909,10.000000,0.000000,4266.282227,4270.256348,4273.846191,4280.897461,4281.153809,4296.282227,4286.538574,4300.384766,4289.743652,4268.717773,4432.436035,4425.769043,4357.307617,4400.512695,2687.000000,4.000000,92.000000,,,,0.000000,4.000000,4.000000,4.000000,4.000000,4.000000,4.000000,4.000000,4.000000,4.000000,4.000000,4.000000,4.000000,4.000000,4.000000,100.000000,,,,,,,,,,,,,,,,,,,,,,,,,,,,,,,,,,,,,,,,,,,,,,,
1665608080.941747,1665608080.943718,11.000000,0.000000,4273.461426,4271.282227,4283.461426,4285.384766,4280.769043,4298.461426,4288.205078,4311.153809,4294.487305,4278.974121,4445.128418,4439.487305,4366.538574,4413.077148,2727.000000,4.000000,92.000000,1,1,1,0.000000,4.000000,4.000000,4.000000,4.000000,4.000000,4.000000,4.000000,4.000000,4.000000,4.000000,4.000000,4.000000,4.000000,4.000000,100.000000,,,,,,,,,,,,,,,,,,,,,,,,,,,,,,,,,,,,,,,,,,,,,,,
1665608080.949555,1665608080.951626,12.000000,1.000000,4272.243652,4271.330078,4281.410156,4284.535156,4280.416504,4296.297852,4285.496582,4307.756348,4291.907227,4275.416504,4443.092773,4442.099121,4364.583496,4410.913574,2573.000000,4.000000,92.000000,,,,0.000000,4.000000,4.000000,4.000000,4.000000,4.000000,4.000000,4.000000,4.000000,4.000000,4.000000,4.000000,4.000000,4.000000,4.000000,100.000000,,,,,,,,,,,,,,,,,,,,,,,,,,,,,,,,,,,,,,,,,,,,,,,
1665608080.957363,1665608080.959435,13.000000,1.000000,4271.025879,4271.378418,4279.358887,4283.686035,4280.063965,4294.134766,4282.788574,4304.358887,4289.327148,4271.858887,4441.057617,4444.711426,4362.628418,4408.750000,2302.000000,4.000000,92.000000,,,,0.000000,4.000000,4.000000,4.000000,4.000000,4.000000,4.000000,4.000000,4.000000,4.000000,4.000000,4.000000,4.000000,4.000000,4.000000,100.000000,,,,,,,,,,,,,,,,,,,,,,,,,,,,,,,,,,,,,,,,,,,,,,,
1665608080.965172,1665608080.967244,14.000000,1.000000,4269.807617,4271.426270,4277.307617,4282.836426,4279.711426,4291.971191,4280.080078,4300.961426,4286.746582,4268.301270,4439.022461,4447.323730,4360.672852,4406.586426,2695.000000,4.000000,92.000000,,,,0.000000,4.000000,4.000000,4.000000,4.000000,4.000000,4.000000,4.000000,4.000000,4.000000,4.000000,4.000000,4.000000,4.000000,4.000000,100.000000,,,,,,,,,,,,,,,,,,,,,,,,,,,,,,,,,,,,,,,,,,,,,,,
1665608080.972980,1665608080.975053,15.000000,1.000000,4268.589844,4271.474121,4275.256348,4281.987305,4279.358887,4289.807617,4277.371582,4297.563965,4284.166504,4264.743652,4436.987305,4449.936035,4358.717773,4404.422852,2743.000000,4.000000,92.000000,,,,0.000000,4.000000,4.000000,4.000000,4.000000,4.000000,4.000000,4.000000,4.000000,4.000000,4.000000,4.000000,4.000000,4.000000,4.000000,100.000000,,,,,,,,,,,,,,,,,,,,,,,,,,,,,,,,,,,,,,,,,,,,,,,
1665608080.980789,1665608080.982862,16.000000,1.000000,4267.371582,4271.522461,4273.205078,4281.137695,4279.006348,4287.644043,4274.663574,4294.166504,4281.586426,4261.186035,4434.952148,4452.547852,4356.762695,4402.259766,1022.625000,4.000000,92.000000,,,,0.000000,4.000000,4.000000,4.000000,4.000000,4.000000,4.000000,4.000000,4.000000,4.000000,4.000000,4.000000,4.000000,4.000000,4.000000,100.000000,,,,,,,,,,,,,,,,,,,,,,,,,,,,,,,,,,,,,,,,,,,,,,,
1665608080.988597,1665608080.990671,17.000000,1.000000,4266.153809,4271.570313,4271.153809,4280.288574,4278.653809,4285.480957,4271.955078,4290.769043,4279.006348,4257.628418,4432.916504,4455.160156,4354.807617,4400.096191,681.750000,4.000000,92.000000,,,,0.000000,4.000000,4.000000,4.000000,4.000000,4.000000,4.000000,4.000000,4.000000,4.000000,4.000000,4.000000,4.000000,4.000000,4.000000,100.000000,,,,,,,,,,,,,,,,,,,,,,,,,,,,,,,,,,,,,,,,,,,,,,,
1665608080.996405,1665608080.998480,18.000000,1.000000,4264.936035,4271.618652,4269.102539,4279.438965,4278.301270,4283.317383,4269.246582,4287.371582,4276.426270,4254.070313,4430.881348,4457.772461,4352.852539,4397.932617,340.875000,4.000000,92.000000,,,,0.000000,4.000000,4.000000,4.000000,4.000000,4.000000,4.000000,4.000000,4.000000,4.000000,4.000000,4.000000,4.000000,4.000000,4.000000,100.000000,,,,,,,,,,,,,,,,,,,,,,,,,,,,,,,,,,,,,,,,,,,,,,,
1665608081.004214,1665608081.006289,19.000000,0.000000,4263.717773,4271.666504,4267.051270,4278.589844,4277.948730,4281.153809,4266.538574,4283.974121,4273.846191,4250.512695,4428.846191,4460.384766,4350.897461,4395.769043,0.000000,4.000000,92.000000,,,,0.000000,4.000000,4.000000,4.000000,4.000000,4.000000,4.000000,4.000000,4.000000,4.000000,4.000000,4.000000,4.000000,4.000000,4.000000,100.000000,,,,,,,,,,,,,,,,,,,,,,,,,,,,,,,,,,,,,,,,,,,,,,,
1665608081.012022,1665608081.014197,20.000000,0.000000,4261.666504,4276.538574,4272.051270,4288.846191,4284.230957,4290.641113,4280.000000,4297.179688,4281.922852,4255.384766,4428.077148,4461.538574,4357.563965,4396.153809,0.000000,4.000000,92.000000,,,,0.000000,4.000000,4.000000,4.000000,4.000000,4.000000,4.000000,4.000000,4.000000,4.000000,4.000000,4.000000,4.000000,4.000000,4.000000,100.000000,,,,,,,,,,,,,,,,,,,,,,,,,,,,,,,,,,,,,,,,,,,,,,,
1665608081.019831,1665608081.022006,21.000000,0.000000,4265.000000,4276.538574,4274.487305,4292.820313,4282.051270,4298.717773,4283.717773,4305.512695,4286.410156,4262.436035,4434.102539,4462.436035,4363.717773,4398.846191,0.000000,4.000000,92.000000,,,,0.000000,4.000000,4.000000,4.000000,4.000000,4.000000,4.000000,4.000000,4.000000,4.000000,4.000000,4.000000,4.000000,4.000000,4.000000,100.000000,,,,,,,,,,,,,,,,,,,,,,,,,,,,,,,,,,,,,,,,,,,,,,,
1665608081.027639,1665608081.029915,22.000000,0.000000,4274.743652,4274.102539,4277.563965,4281.538574,4276.922852,4295.000000,4281.794922,4309.743652,4302.820313,4277.436035,4447.563965,4467.563965,4367.436035,4410.128418,0.000000,4.000000,92.000000,,,,0.000000,4.000000,4.000000,4.000000,4.000000,4.000000,4.000000,4.000000,4.000000,4.000000,4.000000,4.000000,4.000000,4.000000,4.000000,100.000000,,,,,,,,,,,,,,,,,,,,,,,,,,,,,,,,,,,,,,,,,,,,,,,
1665608081.035448,1665608081.037723,23.000000,0.000000,4275.256348,4275.256348,4275.000000,4279.230957,4275.256348,4294.615234,4282.051270,4309.487305,4307.948730,4280.512695,4447.307617,4466.922852,4366.025879,4415.000000,0.000000,4.000000,92.000000,,,,0.000000,4.000000,4.000000,4.000000,4.000000,4.000000,4.000000,4.000000,4.000000,4.000000,4.000000,4.000000,4.000000,4.000000,4.000000,100.000000,,,,,,,,,,,,,,,,,,,,,,,,,,,,,,,,,,,,,,,,,,,,,,,
1665608081.043256,1665608081.045532,24.000000,0.000000,4267.563965,4276.410156,4269.487305,4291.282227,4277.820313,4298.589844,4282.436035,4301.410156,4289.487305,4268.589844,4434.102539,4457.820313,4360.256348,4406.410156,0.000000,4.000000,92.000000,,,,0.000000,4.000000,4.000000,4.000000,4.000000,4.000000,4.000000,4.000000,4.000000,4.000000,4.000000,4.000000,4.000000,4.000000,4.000000,100.000000,,,,,,,,,,,,,,,,,,,,,,,,,,,,,,,,,,,,,,,,,,,,,,,
1665608081.051065,1665608081.053541,25.000000,1.000000,4265.592773,4275.080078,4267.628418,4288.589844,4276.057617,4296.474121,4281.650879,4299.679688,4287.644043,4266.794922,4432.740234,4453.349121,4358.589844,4405.160156,0.000000,4.000000,92.000000,,,,0.000000,4.000000,4.000000,4.000000,4.000000,4.000000,4.000000,4.000000,4.000000,4.000000,4.000000,4.000000,4.000000,4.000000,4.000000,100.000000,,,,,,,,,,,,,,,,,,,,,,,,,,,,,,,,,,,,,,,,,,,,,,,
1665608081.058873,1665608081.061350,26.000000,1.000000,4263.621582,4273.750000,4265.769043,4285.897461,4274.294922,4294.358887,4280.865234,4297.948730,4285.801270,4265.000000,4431.378418,4448.878418,4356.922852,4403.910156,0.000000,4.000000,92.000000,,,,0.000000,4.000000,4.000000,4.000000,4.000000,4.000000,4.000000,4.000000,4.000000,4.000000,4.000000,4.000000,4.000000,4.000000,4.000000,100.000000,,,,,,,,,,,,,,,,,,,,,,,,,,,,,,,,,,,,,,,,,,,,,,,
1665608081.066681,1665608081.069159,27.000000,1.000000,4261.650879,4272.419922,4263.910156,4283.205078,4272.532227,4292.243652,4280.080078,4296.217773,4283.958496,4263.205078,4430.016113,4444.407227,4355.256348,4402.660156,0.000000,4.000000,92.000000,,,,0.000000,4.000000,4.000000,4.000000,4.000000,4.000000,4.000000,4.000000,4.000000,4.000000,4.000000,4.000000,4.000000,4.000000,4.000000,100.000000,,,,,,,,,,,,,,,,,,,,,,,,,,,,,,,,,,,,,,,,,,,,,,,
1665608081.074490,1665608081.076968,28.000000,1.000000,4259.679688,4271.089844,4262.051270,4280.512695,4270.769043,4290.128418,4279.294922,4294.487305,4282.115234,4261.410156,4428.653809,4439.936035,4353.589844,4401.410156,0.000000,4.000000,92.000000,,,,0.000000,4.000000,4.000000,4.000000,4.000000,4.000000,4.000000,4.000000,4.000000,4.000000,4.000000,4.000000,4.000000,4.000000,4.000000,100.000000,,,,,,,,,,,,,,,,,,,,,,,,,,,,,,,,,,,,,,,,,,,,,,,
1665608081.082298,1665608081.084776,29.000000,1.000000,4257.708496,4269.759766,4260.192383,4277.820313,4269.006348,4288.012695,4278.509766,4292.756348,4280.272461,4259.615234,4427.291504,4435.464844,4351.922852,4400.160156,0.000000,4.000000,92.000000,,,,0.000000,4.000000,4.000000,4.000000,4.000000,4.000000,4.000000,4.000000,4.000000,4.000000,4.000000,4.000000,4.000000,4.000000,4.000000,100.000000,,,,,,,,,,,,,,,,,,,,,,,,,,,,,,,,,,,,,,,,,,,,,,,
1665608081.090107,1665608081.092585,30.000000,1.000000,4255.737305,4268.429688,4258.333496,4275.128418,4267.243652,4285.897461,4277.724121,4291.025879,4278.429688,4257.820313,4425.929688,4430.993652,4350.256348,4398.910156,0.000000,4.000000,92.000000,,,,0.000000,4.000000,4.000000,4.000000,4.000000,4.000000,4.000000,4.000000,4.000000,4.000000,4.000000,4.000000,4.000000,4.000000,4.000000,100.000000,,,,,,,,,,,,,,,,,,,,,,,,,,,,,,,,,,,,,,,,,,,,,,,
1665608081.097915,1665608081.100394,31.000000,1.000000,4253.766113,4267.099121,4256.474121,4272.436035,4265.480957,4283.782227,4276.938965,4289.294922,4276.586426,4256.025879,4424.567383,4426.522461,4348.589844,4397.660156,0.000000,4.000000,92.000000,,,,0.000000,4.000000,4.000000,4.000000,4.000000,4.000000,4.000000,4.000000,4.000000,4.000000,4.000000,4.000000,4.000000,4.000000,4.000000,100.000000,,,,,,,,,,,,,,,,,,,,,,,,,,,,,,,,,,,,,,,,,,,,,,,
1665608081.105724,1665608081.108203,32.000000,0.000000,4251.794922,4265.769043,4254.615234,4269.743652,4263.717773,4281.666504,4276.153809,4287.563965,4274.743652,4254.230957,4423.205078,4422.051270,4346.922852,4396.410156,0.000000,4.000000,92.000000,,,,0.000000,4.000000,4.000000,4.000000,4.000000,4.000000,4.000000,4.000000,4.000000,4.000000,4.000000,4.000000,4.000000,4.000000,4.000000,100.000000,,,,,,,,,,,,,,,,,,,,,,,,,,,,,,,,,,,,,,,,,,,,,,,
1665608081.113532,1665608081.116012,33.000000,0.000000,4263.077148,4270.256348,4271.282227,4294.230957,4273.205078,4280.641113,4271.794922,4293.461426,4283.205078,4259.743652,4436.282227,4430.000000,4360.256348,4403.333496,0.000000,4.000000,92.000000,,,,0.000000,4.000000,4.000000,4.000000,4.000000,4.000000,4.000000,4.000000,4.000000,4.000000,4.000000,4.000000,4.000000,4.000000,4.000000,100.000000,,,,,,,,,,,,,,,,,,,,,,,,,,,,,,,,,,,,,,,,,,,,,,,
1665608081.121340,1665608081.123821,34.000000,0.000000,4268.846191,4276.410156,4275.384766,4300.384766,4273.717773,4279.615234,4267.692383,4292.307617,4282.692383,4260.641113,4438.974121,4429.743652,4367.948730,4403.461426,0.000000,4.000000,92.000000,,,,0.000000,4.000000,4.000000,4.000000,4.000000,4.000000,4.000000,4.000000,4.000000,4.000000,4.000000,4.000000,4.000000,4.000000,4.000000,100.000000,,,,,,,,,,,,,,,,,,,,,,,,,,,,,,,,,,,,,,,,,,,,,,,
1665608081.129149,1665608081.131630,35.000000,0.000000,4265.128418,4278.205078,4265.769043,4285.256348,4265.512695,4280.512695,4278.077148,4296.410156,4283.974121,4264.102539,4437.563965,4429.615234,4368.846191,4407.179688,0.000000,4.000000,92.000000,,,,0.000000,4.000000,4.000000,4.000000,4.000000,4.000000,4.000000,4.000000,4.000000,4.000000,4.000000,4.000000,4.000000,4.000000,4.000000,100.000000,,,,,,,,,,,,,,,,,,,,,,,,,,,,,,,,,,,,,,,,,,,,,,,
1665608081.136957,1665608081.139539,36.000000,0.000000,4266.922852,4272.051270,4264.102539,4279.358887,4264.871582,4279.102539,4276.282227,4297.692383,4286.666504,4265.128418,4427.436035,4426.666504,4366.282227,4408.846191,0.000000,4.000000,92.000000,,,,0.000000,4.000000,4.000000,4.000000,4.000000,4.000000,4.000000,4.000000,4.000000,4.000000,4.000000,4.000000,4.000000,4.000000,4.000000,100.000000,,,,,,,,,,,,,,,,,,,,,,,,,,,,,,,,,,,,,,,,,,,,,,,
1665608081.144766,1665608081.147347,37.000000,0.000000,4267.820313,4265.897461,4265.641113,4283.846191,4267.051270,4282.692383,4263.333496,4287.820313,4277.051270,4256.922852,4420.769043,4418.333496,4360.897461,4402.307617,0.000000,4.000000,92.000000,,,,0.000000,4.000000,4.000000,4.000000,4.000000,4.000000,4.000000,4.000000,4.000000,4.000000,4.000000,4.000000,4.000000,4.000000,4.000000,100.000000,,,,,,,,,,,,,,,,,,,,,,,,,,,,,,,,,,,,,,,,,,,,,,,
1665608081.152574,1665608081.155156,38.000000,0.000000,4257.820313,4262.436035,4259.358887,4279.358887,4263.461426,4285.769043,4267.436035,4279.615234,4264.230957,4247.307617,4426.538574,4413.717773,4349.358887,4393.077148,0.000000,4.000000,92.000000,,,,0.000000,4.000000,4.000000,4.000000,4.000000,4.000000,4.000000,4.000000,4.000000,4.000000,4.000000,4.000000,4.000000,4.000000,4.000000,100.000000,,,,,,,,,,,,,,,,,,,,,,,,,,,,,,,,,,,,,,,,,,,,,,,
1665608081.160382,1665608081.162965,39.000000,0.000000,4252.820313,4264.230957,4255.641113,4275.128418,4264.358887,4280.769043,4275.128418,4281.922852,4263.333496,4247.051270,4427.692383,4413.333496,4338.717773,4390.769043,0.000000,4.000000,92.000000,,,,0.000000,4.000000,4.000000,4.000000,4.000000,4.000000,4.000000,4.000000,4.000000,4.000000,4.000000,4.000000,4.000000,4.000000,4.000000,100.000000,,,,,,,,,,,,,,,,,,,,,,,,,,,,,,,,,,,,,,,,,,,,,,,
1665608081.168191,1665608081.170873,40.000000,0.000000,4260.897461,4267.948730,4259.743652,4283.717773,4269.871582,4281.666504,4271.538574,4283.205078,4267.436035,4249.615234,4419.871582,4408.846191,4344.358887,4396.794922,0.000000,4.000000,92.000000,,,,0.000000,4.000000,4.000000,4.000000,4.000000,4.000000,4.000000,4.000000,4.000000,4.000000,4.000000,4.000000,4.000000,4.000000,4.000000,100.000000,,,,,,,,,,,,,,,,,,,,,,,,,,,,,,,,,,,,,,,,,,,,,,,
1665608081.175999,1665608081.178681,41.000000,0.000000,4264.615234,4263.974121,4260.512695,4286.794922,4269.487305,4289.743652,4274.358887,4283.461426,4266.410156,4245.897461,4419.871582,4406.025879,4352.307617,4396.794922,0.000000,4.000000,92.000000,,,,0.000000,4.000000,4.000000,4.000000,4.000000,4.000000,4.000000,4.000000,4.000000,4.000000,4.000000,4.000000,4.000000,4.000000,4.000000,100.000000,,,,,,,,,,,,,,,,,,,,,,,,,,,,,,,,,,,,,,,,,,,,,,,
1665608081.183808,1665608081.186490,42.000000,0.000000,4261.794922,4263.333496,4258.974121,4278.589844,4267.948730,4287.692383,4278.846191,4288.717773,4264.487305,4248.589844,4428.333496,4411.282227,4350.000000,4393.717773,0.000000,4.000000,92.000000,,,,0.000000,4.000000,4.000000,4.000000,4.000000,4.000000,4.000000,4.000000,4.000000,4.000000,4.000000,4.000000,4.000000,4.000000,4.000000,100.000000,,,,,,,,,,,,,,,,,,,,,,,,,,,,,,,,,,,,,,,,,,,,,,,
1665608081.191616,1665608081.194398,43.000000,0.000000,4262.692383,4267.051270,4260.512695,4278.717773,4266.922852,4277.948730,4272.820313,4286.538574,4266.282227,4256.538574,4430.384766,4413.846191,4346.410156,4393.461426,0.000000,4.000000,92.000000,,,,0.000000,4.000000,4.000000,4.000000,4.000000,4.000000,4.000000,4.000000,4.000000,4.000000,4.000000,4.000000,4.000000,4.000000,4.000000,100.000000,,,,,,,,,,,,,,,,,,,,,,,,,,,,,,,,,,,,,,,,,,,,,,,
1665608081.199425,1665608081.202307,44.000000,0.000000,4265.128418,4266.153809,4263.461426,4288.717773,4266.794922,4274.102539,4269.230957,4281.282227,4273.717773,4260.769043,4430.769043,4412.179688,4352.436035,4396.410156,0.000000,4.000000,92.000000,,,,0.000000,4.000000,4.000000,4.000000,4.000000,4.000000,4.000000,4.000000,4.000000,4.000000,4.000000,4.000000,4.000000,4.000000,4.000000,100.000000,,,,,,,,,,,,,,,,,,,,,,,,,,,,,,,,,,,,,,,,,,,,,,,
1665608081.207233,1665608081.210115,45.000000,0.000000,4267.692383,4269.743652,4265.897461,4294.615234,4275.512695,4280.512695,4279.358887,4288.974121,4279.487305,4263.974121,4434.358887,4414.358887,4364.358887,4406.025879,0.000000,4.000000,92.000000,,,,0.000000,4.000000,4.000000,4.000000,4.000000,4.000000,4.000000,4.000000,4.000000,4.000000,4.000000,4.000000,4.000000,4.000000,4.000000,100.000000,,,,,,,,,,,,,,,,,,,,,,,,,,,,,,,,,,,,,,,,,,,,,,,
1665608081.215041,1665608081.217923,46.000000,0.000000,4269.102539,4278.974121,4267.179688,4290.897461,4280.641113,4280.384766,4277.820313,4297.179688,4277.563965,4266.025879,4432.436035,4415.384766,4366.922852,4411.282227,0.000000,4.000000,92.000000,,,,0.000000,4.000000,4.000000,4.000000,4.000000,4.000000,4.000000,4.000000,4.000000,4.000000,4.000000,4.000000,4.000000,4.000000,4.000000,100.000000,,,,,,,,,,,,,,,,,,,,,,,,,,,,,,,,,,,,,,,,,,,,,,,
1665608081.222850,1665608081.225732,47.000000,0.000000,4266.666504,4278.333496,4268.974121,4291.922852,4271.922852,4271.410156,4267.948730,4294.743652,4278.461426,4264.871582,4431.153809,4413.846191,4361.538574,4405.128418,0.000000,4.000000,92.000000,,,,0.000000,4.000000,4.000000,4.000000,4.000000,4.000000,4.000000,4.000000,4.000000,4.000000,4.000000,4.000000,4.000000,4.000000,4.000000,100.000000,,,,,,,,,,,,,,,,,,,,,,,,,,,,,,,,,,,,,,,,,,,,,,,
1665608081.230658,1665608081.233440,48.000000,0.000000,4265.512695,4270.384766,4264.871582,4293.589844,4264.358887,4270.769043,4271.922852,4288.589844,4276.410156,4251.922852,4428.205078,4409.615234,4352.051270,4397.436035,0.000000,4.000000,92.000000,,,,0.000000,4.000000,4.000000,4.000000,4.000000,4.000000,4.000000,4.000000,4.000000,4.000000,4.000000,4.000000,4.000000,4.000000,4.000000,100.000000,,,,,,,,,,,,,,,,,,,,,,,,,,,,,,,,,,,,,,,,,,,,,,,
1665608081.238467,1665608081.241249,49.000000,0.000000,4263.205078,4263.846191,4256.794922,4282.436035,4264.871582,4276.666504,4270.384766,4277.436035,4258.974121,4234.102539,4420.512695,4397.436035,4339.615234,4391.922852,0.000000,4.000000,92.000000,,,,0.000000,4.000000,4.000000,4.000000,4.000000,4.000000,4.000000,4.000000,4.000000,4.000000,4.000000,4.000000,4.000000,4.000000,4.000000,100.000000,,,,,,,,,,,,,,,,,,,,,,,,,,,,,,,,,,,,,,,,,,,,,,,
1665608081.246275,1665608081.248957,50.000000,0.000000,4258.717773,4261.282227,4257.436035,4279.487305,4268.974121,4278.333496,4263.717773,4273.589844,4258.205078,4239.615234,4421.282227,4396.282227,4338.205078,4387.436035,0.000000,4.000000,92.000000,,,,0.000000,4.000000,4.000000,4.000000,4.000000,4.000000,4.000000,4.000000,4.000000,4.000000,4.000000,4.000000,4.000000,4.000000,4.000000,100.000000,,,,,,,,,,,,,,,,,,,,,,,,,,,,,,,,,,,,,,,,,,,,,,,
1665608081.254084,1665608081.256766,51.000000,0.000000,4268.333496,4272.948730,4270.128418,4294.230957,4279.230957,4279.615234,4272.436035,4284.871582,4276.666504,4259.230957,4428.205078,4411.538574,4351.666504,4396.538574,0.000000,4.000000,92.000000,,,,0.000000,4.000000,4.000000,4.000000,4.000000,4.000000,4.000000,4.000000,4.000000,4.000000,4.000000,4.000000,4.000000,4.000000,4.000000,100.000000,,,,,,,,,,,,,,,,,,,,,,,,,,,,,,,,,,,,,,,,,,,,,,,
1665608081.261892,1665608081.264474,52.000000,0.000000,4278.461426,4283.461426,4274.487305,4297.307617,4281.410156,4282.051270,4278.717773,4285.256348,4273.077148,4253.846191,4424.487305,4412.563965,4355.512695,4405.384766,0.000000,4.000000,92.000000,,,,0.000000,4.000000,4.000000,4.000000,4.000000,4.000000,4.000000,4.000000,4.000000,4.000000,4.000000,4.000000,4.000000,4.000000,4.000000,100.000000,,,,,,,,,,,,,,,,,,,,,,,,,,,,,,,,,,,,,,,,,,,,,,,
1665608081.269700,1665608081.272383,53.000000,0.000000,4269.871582,4270.897461,4266.410156,4288.974121,4267.436035,4277.820313,4272.820313,4282.436035,4264.743652,4242.436035,4426.410156,4403.205078,4346.410156,4398.974121,0.000000,4.000000,92.000000,,,,0.000000,4.000000,4.000000,4.000000,4.000000,4.000000,4.000000,4.000000,4.000000,4.000000,4.000000,4.000000,4.000000,4.000000,4.000000,100.000000,,,,,,,,,,,,,,,,,,,,,,,,,,,,,,,,,,,,,,,,,,,,,,,
1665608081.277509,1665608081.280191,54.000000,0.000000,4270.256348,4267.051270,4267.563965,4294.358887,4263.205078,4276.282227,4276.410156,4293.077148,4280.769043,4260.256348,4440.384766,4408.333496,4354.871582,4400.512695,0.000000,4.000000,92.000000,,,,0.000000,4.000000,4.000000,4.000000,4.000000,4.000000,4.000000,4.000000,4.000000,4.000000,4.000000,4.000000,4.000000,4.000000,4.000000,100.000000,,,,,,,,,,,,,,,,,,,,,,,,,,,,,,,,,,,,,,,,,,,,,,,
1665608081.285317,1665608081.287900,55.000000,0.000000,4281.666504,4280.256348,4275.128418,4300.641113,4274.358887,4279.102539,4280.897461,4293.974121,4287.307617,4271.922852,4440.512695,4415.256348,4371.410156,4407.692383,0.000000,4.000000,92.000000,,,,0.000000,4.000000,4.000000,4.000000,4.000000,4.000000,4.000000,4.000000,4.000000,4.000000,4.000000,4.000000,4.000000,4.000000,4.000000,100.000000,,,,,,,,,,,,,,,,,,,,,,,,,,,,,,,,,,,,,,,,,,,,,,,
1665608081.293126,1665608081.295708,56.000000,0.000000,4271.153809,4274.743652,4268.717773,4293.077148,4275.769043,4276.153809,4268.717773,4277.692383,4266.794922,4251.922852,4426.410156,4405.128418,4359.615234,4396.538574,0.000000,4.000000,92.000000,,,,0.000000,4.000000,4.000000,4.000000,4.000000,4.000000,4.000000,4.000000,4.000000,4.000000,4.000000,4.000000,4.000000,4.000000,4.000000,100.000000,,,,,,,,,,,,,,,,,,,,,,,,,,,,,,,,,,,,,,,,,,,,,,,
1665608081.300934,1665608081.303417,57.000000,0.000000,4255.128418,4264.230957,4261.153809,4289.743652,4272.051270,4278.461426,4269.358887,4275.256348,4259.615234,4241.282227,4427.948730,4397.692383,4341.025879,4388.461426,0.000000,4.000000,92.000000,,,,0.000000,4.000000,4.000000,4.000000,4.000000,4.000000,4.000000,4.000000,4.000000,4.000000,4.000000,4.000000,4.000000,4.000000,4.000000,100.000000,,,,,,,,,,,,,,,,,,,,,,,,,,,,,,,,,,,,,,,,,,,,,,,
1665608081.308742,1665608081.311225,58.000000,0.000000,4269.358887,4279.230957,4269.871582,4293.589844,4278.717773,4287.692383,4285.769043,4292.051270,4275.897461,4256.794922,4441.282227,4406.794922,4354.102539,4404.230957,0.000000,4.000000,92.000000,,,,0.000000,4.000000,4.000000,4.000000,4.000000,4.000000,4.000000,4.000000,4.000000,4.000000,4.000000,4.000000,4.000000,4.000000,4.000000,100.000000,,,,,,,,,,,,,,,,,,,,,,,,,,,,,,,,,,,,,,,,,,,,,,,
1665608081.316551,1665608081.318934,59.000000,0.000000,4284.743652,4287.179688,4275.769043,4298.205078,4280.641113,4289.358887,4291.025879,4301.282227,4284.743652,4267.948730,4440.384766,4415.512695,4370.000000,4413.974121,0.000000,4.000000,92.000000,,,,0.000000,4.000000,4.000000,4.000000,4.000000,4.000000,4.000000,4.000000,4.000000,4.000000,4.000000,4.000000,4.000000,4.000000,4.000000,100.000000,,,,,,,,,,,,,,,,,,,,,,,,,,,,,,,,,,,,,,,,,,,,,,,
1665608081.324359,1665608081.326742,60.000000,0.000000,4271.922852,4267.820313,4268.461426,4296.025879,4267.820313,4278.974121,4281.666504,4299.230957,4282.692383,4262.051270,4432.179688,4414.743652,4360.000000,4404.102539,0.000000,4.000000,92.000000,,,,0.000000,4.000000,4.000000,4.000000,4.000000,4.000000,4.000000,4.000000,4.000000,4.000000,4.000000,4.000000,4.000000,4.000000,4.000000,100.000000,,,,,,,,,,,,,,,,,,,,,,,,,,,,,,,,,,,,,,,,,,,,,,,
1665608081.332168,1665608081.334451,61.000000,0.000000,4261.922852,4260.512695,4266.410156,4291.025879,4263.461426,4274.743652,4278.717773,4302.307617,4282.051270,4260.000000,4434.615234,4413.333496,4351.922852,4400.897461,0.000000,4.000000,92.000000,,,,0.000000,4.000000,4.000000,4.000000,4.000000,4.000000,4.000000,4.000000,4.000000,4.000000,4.000000,4.000000,4.000000,4.000000,4.000000,100.000000,,,,,,,,,,,,,,,,,,,,,,,,,,,,,,,,,,,,,,,,,,,,,,,
1665608081.339976,1665608081.342259,62.000000,0.000000,4269.358887,4273.461426,4267.051270,4294.487305,4272.307617,4279.615234,4282.948730,4304.743652,4282.563965,4266.282227,4439.230957,4413.846191,4359.358887,4404.358887,0.000000,4.000000,92.000000,,,,0.000000,4.000000,4.000000,4.000000,4.000000,4.000000,4.000000,4.000000,4.000000,4.000000,4.000000,4.000000,4.000000,4.000000,4.000000,100.000000,,,,,,,,,,,,,,,,,,,,,,,,,,,,,,,,,,,,,,,,,,,,,,,
1665608081.347785,1665608081.349968,63.000000,0.000000,4271.794922,4274.743652,4264.487305,4293.333496,4272.563965,4280.384766,4279.615234,4295.512695,4280.641113,4266.666504,4434.615234,4410.641113,4361.410156,4401.410156,0.000000,4.000000,92.000000,,,,0.000000,4.000000,4.000000,4.000000,4.000000,4.000000,4.000000,4.000000,4.000000,4.000000,4.000000,4.000000,4.000000,4.000000,4.000000,100.000000,,,,,,,,,,,,,,,,,,,,,,,,,,,,,,,,,,,,,,,,,,,,,,,
1665608081.355593,1665608081.357876,64.000000,0.000000,4264.230957,4264.358887,4263.205078,4282.051270,4265.897461,4278.077148,4277.051270,4291.153809,4281.153809,4261.282227,4427.692383,4406.666504,4351.025879,4396.025879,2322.000000,4.000000,92.000000,,,,0.000000,4.000000,4.000000,4.000000,4.000000,4.000000,4.000000,4.000000,4.000000,4.000000,4.000000,4.000000,4.000000,4.000000,4.000000,100.000000,,,,,,,,,,,,,,,,,,,,,,,,,,,,,,,,,,,,,,,,,,,,,,,
1665608081.363401,1665608081.365785,65.000000,0.000000,4260.384766,4261.538574,4260.897461,4280.384766,4263.589844,4278.077148,4278.461426,4289.102539,4275.641113,4256.410156,4426.538574,4400.000000,4338.974121,4391.025879,2284.000000,4.000000,92.000000,,,,0.000000,4.000000,4.000000,4.000000,4.000000,4.000000,4.000000,4.000000,4.000000,4.000000,4.000000,4.000000,4.000000,4.000000,4.000000,100.000000,,,,,,,,,,,,,,,,,,,,,,,,,,,,,,,,,,,,,,,,,,,,,,,
1665608081.371210,1665608081.373593,66.000000,0.000000,4263.974121,4266.153809,4260.256348,4291.410156,4265.512695,4281.538574,4277.692383,4284.358887,4269.871582,4256.922852,4427.820313,4399.102539,4342.563965,4391.153809,2282.000000,4.000000,92.000000,,,,0.000000,4.000000,4.000000,4.000000,4.000000,4.000000,4.000000,4.000000,4.000000,4.000000,4.000000,4.000000,4.000000,4.000000,4.000000,100.000000,,,,,,,,,,,,,,,,,,,,,,,,,,,,,,,,,,,,,,,,,,,,,,,
1665608081.379018,1665608081.381402,67.000000,0.000000,4267.051270,4269.230957,4270.384766,4296.410156,4271.153809,4281.025879,4279.615234,4291.538574,4279.871582,4262.820313,4430.256348,4411.153809,4356.410156,4400.128418,2409.000000,4.000000,92.000000,,,,0.000000,4.000000,4.000000,4.000000,4.000000,4.000000,4.000000,4.000000,4.000000,4.000000,4.000000,4.000000,4.000000,4.000000,4.000000,100.000000,,,,,,,,,,,,,,,,,,,,,,,,,,,,,,,,,,,,,,,,,,,,,,,
1665608081.386827,1665608081.389211,68.000000,0.000000,4267.436035,4274.615234,4277.563965,4295.769043,4277.051270,4279.487305,4286.538574,4299.743652,4285.512695,4265.000000,4433.589844,4418.974121,4355.000000,4403.461426,2426.000000,4.000000,92.000000,,,,0.000000,4.000000,4.000000,4.000000,4.000000,4.000000,4.000000,4.000000,4.000000,4.000000,4.000000,4.000000,4.000000,4.000000,4.000000,100.000000,,,,,,,,,,,,,,,,,,,,,,,,,,,,,,,,,,,,,,,,,,,,,,,
1665608081.394635,1665608081.397019,69.000000,0.000000,4273.077148,4277.307617,4277.051270,4297.692383,4279.487305,4287.307617,4288.974121,4294.230957,4275.897461,4261.538574,4434.871582,4415.256348,4349.102539,4403.589844,1629.000000,4.000000,92.000000,,,,0.000000,4.000000,4.000000,4.000000,4.000000,4.000000,4.000000,4.000000,4.000000,4.000000,4.000000,4.000000,4.000000,4.000000,4.000000,100.000000,0.921875,83.333336,4.000000,3.000000,4.000000,4.000000,4.000000,4.000000,4.000000,4.000000,4.000000,4.000000,4.000000,4.000000,3.000000,4.000000,0.000000,,,-1.135964,0.364806,0.000000,,,2.485436,14.502795,,0.000000,,,-437.209412,761.971558,0.000000,,,0.110315,0.338988,0.000000,,,-7.782352,19.322220,0.000000,,,0.000000,1.000000
1665608081.402444,1665608081.404928,70.000000,0.000000,4281.922852,4278.589844,4279.358887,4293.333496,4281.282227,4288.717773,4283.333496,4294.230957,4275.641113,4258.589844,4432.051270,4414.358887,4356.282227,4412.692383,2271.000000,4.000000,92.000000,,,,0.000000,4.000000,4.000000,4.000000,4.000000,4.000000,4.000000,4.000000,4.000000,4.000000,4.000000,4.000000,4.000000,4.000000,4.000000,100.000000,,,,,,,,,,,,,,,,,,,,,,,,,,,,,,,,,,,,,,,,,,,,,,,
1665608081.410252,1665608081.412836,71.000000,1.000000,4282.417480,4278.260254,4279.230957,4292.124512,4282.930176,4289.047852,4282.856934,4294.340820,4277.563965,4260.128418,4431.904785,4414.615234,4356.099121,4412.106445,2322.000000,4.000000,92.000000,,,,0.000000,4.000000,4.000000,4.000000,4.000000,4.000000,4.000000,4.000000,4.000000,4.000000,4.000000,4.000000,4.000000,4.000000,4.000000,100.000000,,,,,,,,,,,,,,,,,,,,,,,,,,,,,,,,,,,,,,,,,,,,,,,
1665608081.418060,1665608081.420645,72.000000,1.000000,4282.912109,4277.930176,4279.102539,4290.915527,4284.578613,4289.377441,4282.380859,4294.450684,4279.487305,4261.666504,4431.758301,4414.871582,4355.915527,4411.520020,2399.000000,4.000000,92.000000,,,,0.000000,4.000000,4.000000,4.000000,4.000000,4.000000,4.000000,4.000000,4.000000,4.000000,4.000000,4.000000,4.000000,4.000000,4.000000,100.000000,,,,,,,,,,,,,,,,,,,,,,,,,,,,,,,,,,,,,,,,,,,,,,,
1665608081.425869,1665608081.428454,73.000000,1.000000,4283.406738,4277.600586,4278.974121,4289.707031,4286.227051,4289.707031,4281.904785,4294.560547,4281.410156,4263.205078,4431.611816,4415.128418,4355.732422,4410.934082,2376.000000,4.000000,92.000000,,,,0.000000,4.000000,4.000000,4.000000,4.000000,4.000000,4.000000,4.000000,4.000000,4.000000,4.000000,4.000000,4.000000,4.000000,4.000000,100.000000,,,,,,,,,,,,,,,,,,,,,,,,,,,,,,,,,,,,,,,,,,,,,,,
1665608081.433677,1665608081.436262,74.000000,1.000000,4283.900879,4277.270996,4278.846191,4288.498047,4287.875488,4290.036621,4281.428711,4294.670410,4283.333496,4264.743652,4431.465332,4415.384766,4355.549316,4410.348145,2687.000000,4.000000,92.000000,,,,0.000000,4.000000,4.000000,4.000000,4.000000,4.000000,4.000000,4.000000,4.000000,4.000000,4.000000,4.000000,4.000000,4.000000,4.000000,100.000000,,,,,,,,,,,,,,,,,,,,,,,,,,,,,,,,,,,,,,,,,,,,,,,
1665608081.441486,1665608081.444071,75.000000,1.000000,4284.395508,4276.941406,4278.717773,4287.289551,4289.523926,4290.366211,4280.952148,4294.780273,4285.256348,4266.282227,4431.318848,4415.641113,4355.366211,4409.761719,2727.000000,4.000000,92.000000,,,,0.000000,4.000000,4.000000,4.000000,4.000000,4.000000,4.000000,4.000000,4.000000,4.000000,4.000000,4.000000,4.000000,4.000000,4.000000,100.000000,,,,,,,,,,,,,,,,,,,,,,,,,,,,,,,,,,,,,,,,,,,,,,,
1665608081.449294,1665608081.451880,76.000000,1.000000,4284.890137,4276.611816,4278.589844,4286.080566,4291.172363,4290.695801,4280.476074,4294.890137,4287.179688,4267.820313,4431.172363,4415.897461,4355.183105,4409.175781,2573.000000,4.000000,92.000000,,,,0.000000,4.000000,4.000000,4.000000,4.000000,4.000000,4.000000,4.000000,4.000000,4.000000,4.000000,4.000000,4.000000,4.000000,4.000000,100.000000,,,,,,,,,,,,,,,,,,,,,,,,,,,,,,,,,,,,,,,,,,,,,,,
1665608081.457102,1665608081.459688,77.000000,0.000000,4285.384766,4276.282227,4278.461426,4284.871582,4292.820313,4291.025879,4280.000000,4295.000000,4289.102539,4269.358887,4431.025879,4416.153809,4355.000000,4408.589844,2284.000000,4.000000,92.000000,,,,0.000000,4.000000,4.000000,4.000000,4.000000,4.000000,4.000000,4.000000,4.000000,4.000000,4.000000,4.000000,4.000000,4.000000,4.000000,100.000000,,,,,,,,,,,,,,,,,,,,,,,,,,,,,,,,,,,,,,,,,,,,,,,
1665608081.464911,1665608081.467597,78.000000,0.000000,4285.000000,4282.563965,4278.205078,4288.077148,4296.922852,4293.589844,4289.615234,4298.077148,4292.948730,4265.000000,4441.794922,4419.230957,4359.230957,4412.436035,2685.000000,4.000000,92.000000,,,,0.000000,4.000000,4.000000,4.000000,4.000000,4.000000,4.000000,4.000000,4.000000,4.000000,4.000000,4.000000,4.000000,4.000000,4.000000,100.000000,,,,,,,,,,,,,,,,,,,,,,,,,,,,,,,,,,,,,,,,,,,,,,,
1665608081.472719,1665608081.475406,79.000000,0.000000,4288.974121,4278.974121,4280.384766,4284.871582,4293.589844,4294.102539,4296.153809,4306.025879,4293.974121,4263.974121,4445.512695,4416.410156,4359.615234,4410.897461,2735.000000,4.000000,92.000000,,,,0.000000,4.000000,4.000000,4.000000,4.000000,4.000000,4.000000,4.000000,4.000000,4.000000,4.000000,4.000000,4.000000,4.000000,4.000000,100.000000,,,,,,,,,,,,,,,,,,,,,,,,,,,,,,,,,,,,,,,,,,,,,,,
1665608081.480528,1665608081.483214,80.000000,0.000000,4288.333496,4280.769043,4284.102539,4281.025879,4288.974121,4292.179688,4291.922852,4312.051270,4294.230957,4271.153809,4443.077148,4419.615234,4362.179688,4408.717773,2561.000000,4.000000,92.000000,,,,0.000000,4.000000,4.000000,4.000000,4.000000,4.000000,4.000000,4.000000,4.000000,4.000000,4.000000,4.000000,4.000000,4.000000,4.000000,100.000000,,,,,,,,,,,,,,,,,,,,,,,,,,,,,,,,,,,,,,,,,,,,,,,
1665608081.488336,1665608081.491023,81.000000,0.000000,4297.692383,4292.692383,4294.487305,4292.436035,4297.563965,4296.153809,4294.358887,4314.615234,4299.615234,4281.794922,4454.358887,4436.282227,4369.230957,4418.589844,2284.000000,4.000000,92.000000,,,,0.000000,4.000000,4.000000,4.000000,4.000000,4.000000,4.000000,4.000000,4.000000,4.000000,4.000000,4.000000,4.000000,4.000000,4.000000,100.000000,,,,,,,,,,,,,,,,,,,,,,,,,,,,,,,,,,,,,,,,,,,,,,,
1665608081.496145,1665608081.498832,82.000000,0.000000,4307.820313,4297.820313,4299.743652,4305.000000,4304.102539,4298.205078,4306.666504,4321.538574,4302.051270,4281.410156,4460.641113,4453.974121,4368.974121,4428.589844,2685.000000,4.000000,92.000000,,,,0.000000,4.000000,4.000000,4.000000,4.000000,4.000000,4.000000,4.000000,4.000000,4.000000,4.000000,4.000000,4.000000,4.000000,4.000000,100.000000,,,,,,,,,,,,,,,,,,,,,,,,,,,,,,,,,,,,,,,,,,,,,,,
1665608081.503953,1665608081.506740,83.000000,0.000000,4304.102539,4292.692383,4298.205078,4303.077148,4299.615234,4297.563965,4307.692383,4323.846191,4297.436035,4274.102539,4451.410156,4463.717773,4363.333496,4426.922852,2735.000000,4.000000,92.000000,,,,0.000000,4.000000,4.000000,4.000000,4.000000,4.000000,4.000000,4.000000,4.000000,4.000000,4.000000,4.000000,4.000000,4.000000,4.000000,100.000000,,,,,,,,,,,,,,,,,,,,,,,,,,,,,,,,,,,,,,,,,,,,,,,
1665608081.511761,1665608081.514649,84.000000,0.000000,4304.487305,4294.102539,4303.077148,4298.974121,4296.922852,4298.461426,4296.538574,4313.717773,4296.153809,4277.692383,4443.461426,4466.922852,4364.871582,4426.025879,2561.000000,4.000000,92.000000,,,,0.000000,4.000000,4.000000,4.000000,4.000000,4.000000,4.000000,4.000000,4.000000,4.000000,4.000000,4.000000,4.000000,4.000000,4.000000,100.000000,,,,,,,,,,,,,,,,,,,,,,,,,,,,,,,,,,,,,,,,,,,,,,,
1665608081.519570,1665608081.522457,85.000000,0.000000,4311.794922,4302.563965,4306.282227,4305.641113,4303.461426,4294.615234,4289.487305,4306.025879,4298.077148,4283.333496,4447.051270,4466.153809,4369.615234,4432.436035,2284.000000,4.000000,92.000000,,,,0.000000,4.000000,4.000000,4.000000,4.000000,4.000000,4.000000,4.000000,4.000000,4.000000,4.000000,4.000000,4.000000,4.000000,4.000000,100.000000,,,,,,,,,,,,,,,,,,,,,,,,,,,,,,,,,,,,,,,,,,,,,,,
1665608081.527378,1665608081.530366,86.000000,0.000000,4302.436035,4301.282227,4300.000000,4310.384766,4310.128418,4293.461426,4301.410156,4307.307617,4294.102539,4273.205078,4455.641113,4464.871582,4364.615234,4429.358887,2685.000000,4.000000,92.000000,,,,0.000000,4.000000,4.000000,4.000000,4.000000,4.000000,4.000000,4.000000,4.000000,4.000000,4.000000,4.000000,4.000000,4.000000,4.000000,100.000000,,,,,,,,,,,,,,,,,,,,,,,,,,,,,,,,,,,,,,,,,,,,,,,
1665608081.535187,1665608081.538275,87.000000,1.000000,4301.355469,4298.736328,4298.882813,4306.172363,4308.077148,4293.406738,4301.208984,4308.150391,4294.853516,4273.607910,4454.871582,4463.736328,4365.311523,4426.978027,2627.714355,4.000000,92.000000,,,,0.000000,4.000000,4.000000,4.000000,4.000000,4.000000,4.000000,4.000000,4.000000,4.000000,4.000000,4.000000,4.000000,4.000000,4.000000,100.000000,,,,,,,,,,,,,,,,,,,,,,,,,,,,,,,,,,,,,,,,,,,,,,,
1665608081.542995,1665608081.546084,88.000000,1.000000,4300.274902,4296.190430,4297.765625,4301.959473,4306.025879,4293.351563,4301.007324,4308.992676,4295.604492,4274.011230,4454.102539,4462.600586,4366.007324,4424.597168,2570.428467,4.000000,92.000000,,,,0.000000,4.000000,4.000000,4.000000,4.000000,4.000000,4.000000,4.000000,4.000000,4.000000,4.000000,4.000000,4.000000,4.000000,4.000000,100.000000,,,,,,,,,,,,,,,,,,,,,,,,,,,,,,,,,,,,,,,,,,,,,,,
1665608081.550804,1665608081.553893,89.000000,1.000000,4299.194336,4293.644531,4296.648438,4297.747070,4303.974121,4293.296875,4300.805664,4309.834961,4296.355469,4274.414063,4453.333496,4461.465332,4366.703125,4422.216309,2513.142822,4.000000,92.000000,,,,0.000000,4.000000,4.000000,4.000000,4.000000,4.000000,4.000000,4.000000,4.000000,4.000000,4.000000,4.000000,4.000000,4.000000,4.000000,100.000000,,,,,,,,,,,,,,,,,,,,,,,,,,,,,,,,,,,,,,,,,,,,,,,
1665608081.558612,1665608081.561702,90.000000,1.000000,4298.113770,4291.099121,4295.531250,4293.534668,4301.922852,4293.241699,4300.604492,4310.677734,4297.106445,4274.816895,4452.563965,4460.329590,4367.399414,4419.834961,2455.857178,4.000000,92.000000,,,,0.000000,4.000000,4.000000,4.000000,4.000000,4.000000,4.000000,4.000000,4.000000,4.000000,4.000000,4.000000,4.000000,4.000000,4.000000,100.000000,,,,,,,,,,,,,,,,,,,,,,,,,,,,,,,,,,,,,,,,,,,,,,,
1665608081.566420,1665608081.569511,91.000000,1.000000,4297.033203,4288.553223,4294.414063,4289.322266,4299.871582,4293.187012,4300.402832,4311.520020,4297.856934,4275.219727,4451.794922,4459.194336,4368.095215,4417.454102,2398.571533,4.000000,92.000000,,,,0.000000,4.000000,4.000000,4.000000,4.000000,4.000000,4.000000,4.000000,4.000000,4.000000,4.000000,4.000000,4.000000,4.000000,4.000000,100.000000,,,,,,,,,,,,,,,,,,,,,,,,,,,,,,,,,,,,,,,,,,,,,,,
1665608081.574229,1665608081.577319,92.000000,1.000000,4295.952148,4286.007324,4293.296875,4285.109863,4297.820313,4293.131836,4300.201660,4312.362793,4298.607910,4275.622559,4451.025879,4458.058594,4368.791016,4415.073242,2341.285645,4.000000,92.000000,,,,0.000000,4.000000,4.000000,4.000000,4.000000,4.000000,4.000000,4.000000,4.000000,4.000000,4.000000,4.000000,4.000000,4.000000,4.000000,100.000000,,,,,,,,,,,,,,,,,,,,,,,,,,,,,,,,,,,,,,,,,,,,,,,
1665608081.582037,1665608081.585128,93.000000,0.000000,4294.871582,4283.461426,4292.179688,4280.897461,4295.769043,4293.077148,4300.000000,4313.205078,4299.358887,4276.025879,4450.256348,4456.922852,4369.487305,4412.692383,2284.000000,4.000000,92.000000,,,,0.000000,4.000000,4.000000,4.000000,4.000000,4.000000,4.000000,4.000000,4.000000,4.000000,4.000000,4.000000,4.000000,4.000000,4.000000,100.000000,,,,,,,,,,,,,,,,,,,,,,,,,,,,,,,,,,,,,,,,,,,,,,,
1665608081.589846,1665608081.592937,94.000000,0.000000,4294.358887,4280.769043,4296.538574,4292.436035,4294.487305,4294.743652,4306.025879,4321.794922,4307.436035,4282.820313,4462.692383,4465.256348,4389.487305,4418.205078,2685.000000,4.000000,92.000000,,,,0.000000,4.000000,4.000000,4.000000,4.000000,4.000000,4.000000,4.000000,4.000000,4.000000,4.000000,4.000000,4.000000,4.000000,4.000000,100.000000,,,,,,,,,,,,,,,,,,,,,,,,,,,,,,,,,,,,,,,,,,,,,,,
1665608081.597654,1665608081.600846,95.000000,0.000000,4306.025879,4283.974121,4300.000000,4299.102539,4294.487305,4294.871582,4301.538574,4328.717773,4312.051270,4292.307617,4472.563965,4467.692383,4399.871582,4431.025879,2735.000000,4.000000,92.000000,,,,0.000000,4.000000,4.000000,4.000000,4.000000,4.000000,4.000000,4.000000,4.000000,4.000000,4.000000,4.000000,4.000000,4.000000,4.000000,100.000000,,,,,,,,,,,,,,,,,,,,,,,,,,,,,,,,,,,,,,,,,,,,,,,
1665608081.605462,1665608081.608754,96.000000,1.000000,4302.985352,4282.948730,4297.545898,4297.289551,4293.937500,4294.102539,4300.897461,4327.014648,4310.897461,4291.245605,4470.549316,4464.230957,4396.721680,4428.534668,2727.857178,4.000000,92.000000,,,,0.000000,4.000000,4.000000,4.000000,4.000000,4.000000,4.000000,4.000000,4.000000,4.000000,4.000000,4.000000,4.000000,4.000000,4.000000,100.000000,,,,,,,,,,,,,,,,,,,,,,,,,,,,,,,,,,,,,,,,,,,,,,,
1665608081.613271,1665608081.616563,97.000000,1.000000,4299.944824,4281.922852,4295.091797,4295.476074,4293.388184,4293.333496,4300.256348,4325.311523,4309.743652,4290.183105,4468.534668,4460.769043,4393.571289,4426.043945,2720.714355,4.000000,92.000000,,,,0.000000,4.000000,4.000000,4.000000,4.000000,4.000000,4.000000,4.000000,4.000000,4.000000,4.000000,4.000000,4.000000,4.000000,4.000000,100.000000,,,,,,,,,,,,,,,,,,,,,,,,,,,,,,,,,,,,,,,,,,,,,,,
1665608081.621079,1665608081.624372,98.000000,1.000000,4296.904785,4280.897461,4292.637207,4293.663086,4292.838867,4292.563965,4299.615234,4323.607910,4308.589844,4289.121094,4466.520020,4457.307617,4390.421387,4423.553223,2713.571533,4.000000,92.000000,,,,0.000000,4.000000,4.000000,4.000000,4.000000,4.000000,4.000000,4.000000,4.000000,4.000000,4.000000,4.000000,4.000000,4.000000,4.000000,100.000000,,,,,,,,,,,,,,,,,,,,,,,,,,,,,,,,,,,,,,,,,,,,,,,
1665608081.628888,1665608081.632180,99.000000,1.000000,4293.864258,4279.871582,4290.183105,4291.849609,4292.289551,4291.794922,4298.974121,4321.904785,4307.436035,4288.058594,4464.505371,4453.846191,4387.270996,4421.062500,2706.428467,4.000000,92.000000,,,,0.000000,4.000000,4.000000,4.000000,4.000000,4.000000,4.000000,4.000000,4.000000,4.000000,4.000000,4.000000,4.000000,4.000000,4.000000,100.000000,,,,,,,,,,,,,,,,,,,,,,,,,,,,,,,,,,,,,,,,,,,,,,,
1665608081.636696,1665608081.639989,100.000000,1.000000,4290.824219,4278.846191,4287.729004,4290.036621,4291.739746,4291.025879,4298.333496,4320.201660,4306.282227,4286.996094,4462.490723,4450.384766,4384.121094,4418.571289,2699.285645,4.000000,92.000000,,,,0.000000,4.000000,4.000000,4.000000,4.000000,4.000000,4.000000,4.000000,4.000000,4.000000,4.000000,4.000000,4.000000,4.000000,4.000000,100.000000,,,,,,,,,,,,,,,,,,,,,,,,,,,,,,,,,,,,,,,,,,,,,,,
1665608081.644505,1665608081.647798,101.000000,1.000000,4287.783691,4277.820313,4285.274902,4288.223633,4291.190430,4290.256348,4297.692383,4318.498047,4305.128418,4285.934082,4460.476074,4446.922852,4380.970703,4416.080566,2692.142822,4.000000,92.000000,,,,0.000000,4.000000,4.000000,4.000000,4.000000,4.000000,4.000000,4.000000,4.000000,4.000000,4.000000,4.000000,4.000000,4.000000,4.000000,100.000000,,,,,,,,,,,,,,,,,,,,,,,,,,,,,,,,,,,,,,,,,,,,,,,
1665608081.652313,1665608081.655606,102.000000,0.000000,4284.743652,4276.794922,4282.820313,4286.410156,4290.641113,4289.487305,4297.051270,4316.794922,4303.974121,4284.871582,4458.461426,4443.461426,4377.820313,4413.589844,2685.000000,4.000000,92.000000,,,,0.000000,4.000000,4.000000,4.000000,4.000000,4.000000,4.000000,4.000000,4.000000,4.000000,4.000000,4.000000,4.000000,4.000000,4.000000,100.000000,,,,,,,,,,,,,,,,,,,,,,,,,,,,,,,,,,,,,,,,,,,,,,,
1665608081.660121,1665608081.663515,103.000000,0.000000,4296.153809,4282.436035,4292.436035,4296.410156,4292.692383,4302.179688,4303.589844,4322.179688,4310.897461,4287.307617,4477.051270,4449.871582,4380.128418,4427.307617,2735.000000,4.000000,92.000000,,,,0.000000,4.000000,4.000000,4.000000,4.000000,4.000000,4.000000,4.000000,4.000000,4.000000,4.000000,4.000000,4.000000,4.000000,4.000000,100.000000,,,,,,,,,,,,,,,,,,,,,,,,,,,,,,,,,,,,,,,,,,,,,,,
1665608081.667930,1665608081.671324,104.000000,0.000000,4296.666504,4283.717773,4299.615234,4296.282227,4293.077148,4301.025879,4308.077148,4330.769043,4313.974121,4287.563965,4476.794922,4455.897461,4382.563965,4428.333496,2561.000000,4.000000,92.000000,,,,0.000000,4.000000,4.000000,4.000000,4.000000,4.000000,4.000000,4.000000,4.000000,4.000000,4.000000,4.000000,4.000000,4.000000,4.000000,100.000000,,,,,,,,,,,,,,,,,,,,,,,,,,,,,,,,,,,,,,,,,,,,,,,
1665608081.675738,1665608081.679132,105.000000,0.000000,4296.025879,4285.384766,4297.820313,4294.102539,4293.974121,4293.077148,4305.641113,4333.589844,4318.077148,4296.666504,4471.153809,4457.179688,4390.000000,4426.666504,2284.000000,4.000000,92.000000,,,,0.000000,4.000000,4.000000,4.000000,4.000000,4.000000,4.000000,4.000000,4.000000,4.000000,4.000000,4.000000,4.000000,4.000000,4.000000,100.000000,,,,,,,,,,,,,,,,,,,,,,,,,,,,,,,,,,,,,,,,,,,,,,,
1665608081.683547,1665608081.686941,106.000000,0.000000,4291.922852,4282.948730,4295.000000,4294.871582,4288.974121,4289.487305,4296.153809,4325.256348,4314.615234,4294.615234,4466.794922,4447.563965,4392.563965,4430.384766,2685.000000,4.000000,92.000000,,,,0.000000,4.000000,4.000000,4.000000,4.000000,4.000000,4.000000,4.000000,4.000000,4.000000,4.000000,4.000000,4.000000,4.000000,4.000000,100.000000,,,,,,,,,,,,,,,,,,,,,,,,,,,,,,,,,,,,,,,,,,,,,,,
1665608081.691355,1665608081.694750,107.000000,0.000000,4291.922852,4279.230957,4296.538574,4292.820313,4280.256348,4290.128418,4293.461426,4317.820313,4302.692383,4280.641113,4458.846191,4441.538574,4383.717773,4429.230957,2735.000000,4.000000,92.000000,,,,0.000000,4.000000,4.000000,4.000000,4.000000,4.000000,4.000000,4.000000,4.000000,4.000000,4.000000,4.000000,4.000000,4.000000,4.000000,100.000000,,,,,,,,,,,,,,,,,,,,,,,,,,,,,,,,,,,,,,,,,,,,,,,
1665608081.699164,1665608081.702758,108.000000,0.000000,4295.897461,4280.769043,4293.461426,4292.179688,4279.743652,4293.077148,4296.410156,4314.871582,4299.230957,4278.205078,4455.512695,4440.769043,4378.846191,4421.025879,2561.000000,4.000000,92.000000,,,,0.000000,4.000000,4.000000,4.000000,4.000000,4.000000,4.000000,4.000000,4.000000,4.000000,4.000000,4.000000,4.000000,4.000000,4.000000,100.000000,,,,,,,,,,,,,,,,,,,,,,,,,,,,,,,,,,,,,,,,,,,,,,,
1665608081.706972,1665608081.710567,109.000000,0.000000,4287.692383,4280.000000,4284.487305,4294.487305,4283.077148,4294.487305,4292.436035,4312.436035,4300.256348,4279.871582,4456.794922,4430.769043,4379.743652,4411.538574,2284.000000,4.000000,92.000000,,,,0.000000,4.000000,4.000000,4.000000,4.000000,4.000000,4.000000,4.000000,4.000000,4.000000,4.000000,4.000000,4.000000,4.000000,4.000000,100.000000,,,,,,,,,,,,,,,,,,,,,,,,,,,,,,,,,,,,,,,,,,,,,,,
1665608081.714780,1665608081.718376,110.000000,0.000000,4282.436035,4280.000000,4284.102539,4292.948730,4280.512695,4289.743652,4289.358887,4310.000000,4299.743652,4277.179688,4456.794922,4424.358887,4381.153809,4414.871582,2685.000000,4.000000,92.000000,,,,0.000000,4.000000,4.000000,4.000000,4.000000,4.000000,4.000000,4.000000,4.000000,4.000000,4.000000,4.000000,4.000000,4.000000,4.000000,100.000000,,,,,,,,,,,,,,,,,,,,,,,,,,,,,,,,,,,,,,,,,,,,,,,
1665608081.722589,1665608081.726185,111.000000,0.000000,4289.615234,4280.256348,4291.538574,4290.256348,4277.179688,4283.589844,4292.307617,4313.589844,4302.179688,4278.846191,4458.846191,4430.384766,4388.461426,4425.000000,2735.000000,4.000000,92.000000,,,,0.000000,4.000000,4.000000,4.000000,4.000000,4.000000,4.000000,4.000000,4.000000,4.000000,4.000000,4.000000,4.000000,4.000000,4.000000,100.000000,,,,,,,,,,,,,,,,,,,,,,,,,,,,,,,,,,,,,,,,,,,,,,,
1665608081.730397,1665608081.733994,112.000000,0.000000,4295.128418,4282.436035,4295.769043,4293.717773,4281.666504,4279.615234,4297.820313,4323.077148,4306.794922,4282.307617,4465.000000,4440.897461,4395.897461,4430.769043,2561.000000,4.000000,92.000000,,,,0.000000,4.000000,4.000000,4.000000,4.000000,4.000000,4.000000,4.000000,4.000000,4.000000,4.000000,4.000000,4.000000,4.000000,4.000000,100.000000,,,,,,,,,,,,,,,,,,,,,,,,,,,,,,,,,,,,,,,,,,,,,,,
1665608081.738206,1665608081.741803,113.000000,0.000000,4297.563965,4287.307617,4297.051270,4298.461426,4292.820313,4281.410156,4303.077148,4326.794922,4312.436035,4286.410156,4471.538574,4446.153809,4390.000000,4427.692383,2284.000000,4.000000,92.000000,,,,0.000000,4.000000,4.000000,4.000000,4.000000,4.000000,4.000000,4.000000,4.000000,4.000000,4.000000,4.000000,4.000000,4.000000,4.000000,100.000000,,,,,,,,,,,,,,,,,,,,,,,,,,,,,,,,,,,,,,,,,,,,,,,
1665608081.746014,1665608081.749612,114.000000,0.000000,4295.769043,4283.846191,4294.615234,4297.179688,4296.666504,4282.692383,4302.948730,4319.487305,4311.922852,4287.051270,4468.205078,4437.820313,4378.846191,4417.563965,2685.000000,4.000000,92.000000,,,,0.000000,4.000000,4.000000,4.000000,4.000000,4.000000,4.000000,4.000000,4.000000,4.000000,4.000000,4.000000,4.000000,4.000000,4.000000,100.000000,,,,,,,,,,,,,,,,,,,,,,,,,,,,,,,,,,,,,,,,,,,,,,,
1665608081.753822,1665608081.757421,115.000000,0.000000,4286.282227,4280.256348,4286.538574,4294.743652,4291.666504,4280.000000,4296.025879,4310.512695,4300.641113,4277.179688,4454.230957,4424.102539,4375.769043,4411.410156,2735.000000,4.000000,92.000000,,,,0.000000,4.000000,4.000000,4.000000,4.000000,4.000000,4.000000,4.000000,4.000000,4.000000,4.000000,4.000000,4.000000,4.000000,4.000000,100.000000,,,,,,,,,,,,,,,,,,,,,,,,,,,,,,,,,,,,,,,,,,,,,,,
1665608081.761631,1665608081.765230,116.000000,0.000000,4279.871582,4281.282227,4277.563965,4293.333496,4290.512695,4281.794922,4283.974121,4301.025879,4290.128418,4265.512695,4442.436035,4421.282227,4372.820313,4410.897461,2561.000000,4.000000,92.000000,,,,0.000000,4.000000,4.000000,4.000000,4.000000,4.000000,4.000000,4.000000,4.000000,4.000000,4.000000,4.000000,4.000000,4.000000,4.000000,100.000000,,,,,,,,,,,,,,,,,,,,,,,,,,,,,,,,,,,,,,,,,,,,,,,
1665608081.769439,1665608081.773039,117.000000,0.000000,4286.794922,4281.410156,4280.769043,4295.641113,4291.922852,4285.384766,4281.922852,4296.666504,4289.871582,4264.102539,4440.769043,4428.717773,4369.615234,4412.948730,2284.000000,4.000000,92.000000,,,,0.000000,4.000000,4.000000,4.000000,4.000000,4.000000,4.000000,4.000000,4.000000,4.000000,4.000000,4.000000,4.000000,4.000000,4.000000,100.000000,,,,,,,,,,,,,,,,,,,,,,,,,,,,,,,,,,,,,,,,,,,,,,,
1665608081.777248,1665608081.780848,118.000000,0.000000,4292.563965,4283.205078,4290.384766,4300.384766,4287.563965,4283.461426,4292.179688,4302.436035,4288.717773,4270.897461,4450.256348,4429.743652,4372.179688,4416.538574,2685.000000,4.000000,92.000000,,,,0.000000,4.000000,4.000000,4.000000,4.000000,4.000000,4.000000,4.000000,4.000000,4.000000,4.000000,4.000000,4.000000,4.000000,4.000000,100.000000,,,,,,,,,,,,,,,,,,,,,,,,,,,,,,,,,,,,,,,,,,,,,,,
1665608081.785056,1665608081.788556,119.000000,0.000000,4287.436035,4284.487305,4290.000000,4297.948730,4281.282227,4278.077148,4297.692383,4308.333496,4289.102539,4274.358887,4460.512695,4425.384766,4373.077148,4418.333496,2735.000000,4.000000,92.000000,,,,0.000000,4.000000,4.000000,4.000000,4.000000,4.000000,4.000000,4.000000,4.000000,4.000000,4.000000,4.000000,4.000000,4.000000,4.000000,100.000000,,,,,,,,,,,,,,,,,,,,,,,,,,,,,,,,,,,,,,,,,,,,,,,
1665608081.792865,1665608081.796365,120.000000,0.000000,4289.102539,4278.974121,4287.563965,4294.230957,4279.743652,4283.846191,4301.410156,4317.563965,4298.717773,4275.641113,4460.512695,4432.692383,4374.615234,4419.871582,2561.000000,4.000000,92.000000,,,,0.000000,4.000000,4.000000,4.000000,4.000000,4.000000,4.000000,4.000000,4.000000,4.000000,4.000000,4.000000,4.000000,4.000000,4.000000,100.000000,,,,,,,,,,,,,,,,,,,,,,,,,,,,,,,,,,,,,,,,,,,,,,,
1665608081.800673,1665608081.804073,121.000000,0.000000,4299.358887,4281.666504,4294.230957,4294.743652,4281.794922,4298.077148,4309.615234,4328.205078,4304.615234,4278.717773,4461.410156,4442.436035,4380.256348,4429.615234,2284.000000,4.000000,92.000000,,,,0.000000,4.000000,4.000000,4.000000,4.000000,4.000000,4.000000,4.000000,4.000000,4.000000,4.000000,4.000000,4.000000,4.000000,4.000000,100.000000,,,,,,,,,,,,,,,,,,,,,,,,,,,,,,,,,,,,,,,,,,,,,,,
1665608081.808482,1665608081.811981,122.000000,0.000000,4300.641113,4291.666504,4301.666504,4296.538574,4283.205078,4303.974121,4308.333496,4322.051270,4299.615234,4273.717773,4464.230957,4438.333496,4383.974121,4436.025879,2685.000000,4.000000,92.000000,,,,0.000000,4.000000,4.000000,4.000000,4.000000,4.000000,4.000000,4.000000,4.000000,4.000000,4.000000,4.000000,4.000000,4.000000,4.000000,100.000000,,,,,,,,,,,,,,,,,,,,,,,,,,,,,,,,,,,,,,,,,,,,,,,
1665608081.816290,1665608081.819790,123.000000,0.000000,4295.384766,4287.692383,4296.538574,4298.974121,4282.563965,4295.256348,4296.538574,4308.846191,4293.974121,4262.307617,4451.282227,4430.256348,4381.538574,4425.512695,2735.000000,4.000000,92.000000,,,,0.000000,4.000000,4.000000,4.000000,4.000000,4.000000,4.000000,4.000000,4.000000,4.000000,4.000000,4.000000,4.000000,4.000000,4.000000,100.000000,,,,,,,,,,,,,,,,,,,,,,,,,,,,,,,,,,,,,,,,,,,,,,,
1665608081.824098,1665608081.827598,124.000000,0.000000,4289.358887,4277.436035,4285.512695,4298.333496,4280.000000,4282.820313,4289.102539,4309.871582,4294.230957,4265.384766,4441.025879,4429.871582,4378.333496,4416.410156,2561.000000,4.000000,92.000000,,,,0.000000,4.000000,4.000000,4.000000,4.000000,4.000000,4.000000,4.000000,4.000000,4.000000,4.000000,4.000000,4.000000,4.000000,4.000000,100.000000,,,,,,,,,,,,,,,,,,,,,,,,,,,,,,,,,,,,,,,,,,,,,,,
1665608081.831907,1665608081.835307,125.000000,0.000000,4282.307617,4280.128418,4280.384766,4297.051270,4278.077148,4281.666504,4280.384766,4311.922852,4294.871582,4275.128418,4450.128418,4425.897461,4377.051270,4416.410156,2284.000000,4.000000,92.000000,,,,0.000000,4.000000,4.000000,4.000000,4.000000,4.000000,4.000000,4.000000,4.000000,4.000000,4.000000,4.000000,4.000000,4.000000,4.000000,100.000000,,,,,,,,,,,,,,,,,,,,,,,,,,,,,,,,,,,,,,,,,,,,,,,
1665608081.839715,1665608081.843015,126.000000,0.000000,4279.358887,4279.358887,4277.948730,4292.051270,4277.563965,4284.743652,4276.794922,4307.820313,4293.461426,4271.282227,4451.410156,4417.179688,4367.692383,4413.077148,2685.000000,4.000000,92.000000,,,,0.000000,4.000000,4.000000,4.000000,4.000000,4.000000,4.000000,4.000000,4.000000,4.000000,4.000000,4.000000,4.000000,4.000000,4.000000,100.000000,,,,,,,,,,,,,,,,,,,,,,,,,,,,,,,,,,,,,,,,,,,,,,,
1665608081.847524,1665608081.850924,127.000000,0.000000,4276.794922,4265.512695,4274.358887,4281.666504,4276.922852,4282.563965,4288.846191,4308.974121,4291.922852,4262.563965,4439.743652,4414.871582,4355.512695,4405.641113,92.000000,4.000000,92.000000,,,,0.000000,4.000000,4.000000,4.000000,4.000000,4.000000,4.000000,4.000000,4.000000,4.000000,4.000000,4.000000,4.000000,4.000000,4.000000,100.000000,,,,,,,,,,,,,,,,,,,,,,,,,,,,,,,,,,,,,,,,,,,,,,,
1665608081.855332,1665608081.858832,0.000000,0.000000,4275.897461,4264.615234,4273.589844,4283.205078,4278.461426,4280.512695,4297.692383,4309.487305,4292.563965,4263.205078,4444.487305,4418.077148,4360.000000,4406.282227,2316.000000,4.000000,92.000000,,,,0.000000,4.000000,4.000000,4.000000,4.000000,4.000000,4.000000,4.000000,4.000000,4.000000,4.000000,4.000000,4.000000,4.000000,4.000000,100.000000,,,,,,,,,,,,,,,,,,,,,,,,,,,,,,,,,,,,,,,,,,,,,,,
1665608081.863140,1665608081.866641,1.000000,0.000000,4284.743652,4280.256348,4278.461426,4296.922852,4279.487305,4280.128418,4292.179688,4300.128418,4289.743652,4266.153809,4450.641113,4415.897461,4369.487305,4413.974121,2284.000000,4.000000,92.000000,,,,0.000000,4.000000,4.000000,4.000000,4.000000,4.000000,4.000000,4.000000,4.000000,4.000000,4.000000,4.000000,4.000000,4.000000,4.000000,100.000000,,,,,,,,,,,,,,,,,,,,,,,,,,,,,,,,,,,,,,,,,,,,,,,
1665608081.870949,1665608081.874450,2.000000,0.000000,4285.384766,4281.153809,4276.794922,4296.025879,4277.307617,4278.589844,4288.461426,4292.820313,4280.000000,4261.410156,4438.846191,4411.025879,4361.153809,4410.641113,2276.000000,4.000000,92.000000,,,,0.000000,4.000000,4.000000,4.000000,4.000000,4.000000,4.000000,4.000000,4.000000,4.000000,4.000000,4.000000,4.000000,4.000000,4.000000,100.000000,,,,,,,,,,,,,,,,,,,,,,,,,,,,,,,,,,,,,,,,,,,,,,,
1665608081.878757,1665608081.882258,3.000000,0.000000,4279.102539,4275.897461,4275.128418,4288.077148,4278.461426,4282.948730,4295.256348,4303.461426,4281.153809,4259.743652,4441.922852,4417.436035,4355.769043,4407.948730,2409.000000,4.000000,92.000000,,,,0.000000,4.000000,4.000000,4.000000,4.000000,4.000000,4.000000,4.000000,4.000000,4.000000,4.000000,4.000000,4.000000,4.000000,4.000000,100.000000,,,,,,,,,,,,,,,,,,,,,,,,,,,,,,,,,,,,,,,,,,,,,,,
1665608081.886566,1665608081.890167,4.000000,1.000000,4279.175781,4275.860840,4275.531250,4288.956055,4277.637207,4284.981445,4295.531250,4304.633789,4283.150391,4260.128418,4442.179688,4418.131836,4358.278320,4408.553223,2426.000000,4.000000,92.000000,,,,0.000000,4.000000,4.000000,4.000000,4.000000,4.000000,4.000000,4.000000,4.000000,4.000000,4.000000,4.000000,4.000000,4.000000,4.000000,100.000000,,,,,,,,,,,,,,,,,,,,,,,,,,,,,,,,,,,,,,,,,,,,,,,
1665608081.894374,1665608081.897976,5.000000,1.000000,4279.249023,4275.824219,4275.934082,4289.834961,4276.812988,4287.014648,4295.805664,4305.805664,4285.146484,4260.512695,4442.436035,4418.827637,4360.787598,4409.157715,1629.000000,4.000000,92.000000,,,,0.000000,4.000000,4.000000,4.000000,4.000000,4.000000,4.000000,4.000000,4.000000,4.000000,4.000000,4.000000,4.000000,4.000000,4.000000,100.000000,0.843750,100.000000,4.000000,4.000000,4.000000,4.000000,4.000000,4.000000,4.000000,4.000000,4.000000,4.000000,4.000000,4.000000,4.000000,4.000000,0.000000,,,-1.135964,0.364806,0.000000,,,2.485436,14.502795,,0.000000,,,-437.209412,761.971558,0.000000,,,0.110315,0.338988,0.000000,,,-7.782352,19.322220,0.000000,,,0.000000,1.000000
1665608081.902182,1665608081.905784,6.000000,1.000000,4279.322266,4275.787598,4276.336914,4290.714355,4275.988770,4289.047852,4296.080566,4306.978027,4287.143066,4260.897461,4442.692383,4419.523926,4363.296875,4409.761719,2271.000000,4.000000,92.000000,,,,0.000000,4.000000,4.000000,4.000000,4.000000,4.000000,4.000000,4.000000,4.000000,4.000000,4.000000,4.000000,4.000000,4.000000,4.000000,100.000000,,,,,,,,,,,,,,,,,,,,,,,,,,,,,,,,,,,,,,,,,,,,,,,
1665608081.909991,1665608081.913593,7.000000,1.000000,4279.395508,4275.750977,4276.739746,4291.593262,4275.165039,4291.080566,4296.355469,4308.150391,4289.139160,4261.282227,4442.948730,4420.219727,4365.805664,4410.366211,2322.000000,4.000000,92.000000,,,,0.000000,4.000000,4.000000,4.000000,4.000000,4.000000,4.000000,4.000000,4.000000,4.000000,4.000000,4.000000,4.000000,4.000000,4.000000,100.000000,,,,,,,,,,,,,,,,,,,,,,,,,,,,,,,,,,,,,,,,,,,,,,,
1665608081.917799,1665608081.921402,8.000000,1.000000,4279.468750,4275.714355,4277.143066,4292.472656,4274.340820,4293.113770,4296.629883,4309.322266,4291.135742,4261.666504,4443.205078,4420.915527,4368.314941,4410.970703,2399.000000,4.000000,92.000000,,,,0.000000,4.000000,4.000000,4.000000,4.000000,4.000000,4.000000,4.000000,4.000000,4.000000,4.000000,4.000000,4.000000,4.000000,4.000000,100.000000,,,,,,,,,,,,,,,,,,,,,,,,,,,,,,,,,,,,,,,,,,,,,,,
1665608081.925608,1665608081.929210,9.000000,1.000000,4279.541992,4275.677734,4277.545898,4293.351563,4273.516602,4295.146484,4296.904785,4310.494629,4293.131836,4262.051270,4443.461426,4421.611816,4370.824219,4411.575195,2376.000000,4.000000,92.000000,,,,0.000000,4.000000,4.000000,4.000000,4.000000,4.000000,4.000000,4.000000,4.000000,4.000000,4.000000,4.000000,4.000000,4.000000,4.000000,100.000000,,,,,,,,,,,,,,,,,,,,,,,,,,,,,,,,,,,,,,,,,,,,,,,
1665608081.933416,1665608081.937019,10.000000,0.000000,4279.615234,4275.641113,4277.948730,4294.230957,4272.692383,4297.179688,4297.179688,4311.666504,4295.128418,4262.436035,4443.717773,4422.307617,4373.333496,4412.179688,2678.000000,4.000000,92.000000,,,,0.000000,4.000000,4.000000,4.000000,4.000000,4.000000,4.000000,4.000000,4.000000,4.000000,4.000000,4.000000,4.000000,4.000000,4.000000,100.000000,,,,,,,,,,,,,,,,,,,,,,,,,,,,,,,,,,,,,,,,,,,,,,,
1665608081.941225,1665608081.944928,11.000000,0.000000,4282.692383,4273.846191,4278.205078,4294.871582,4272.948730,4297.948730,4298.077148,4311.922852,4293.461426,4267.307617,4441.922852,4418.589844,4371.282227,4414.230957,2723.000000,4.000000,92.000000,,,,0.000000,4.000000,4.000000,4.000000,4.000000,4.000000,4.000000,4.000000,4.000000,4.000000,4.000000,4.000000,4.000000,4.000000,4.000000,100.000000,,,,,,,,,,,,,,,,,,,,,,,,,,,,,,,,,,,,,,,,,,,,,,,
1665608081.949033,1665608081.952837,12.000000,0.000000,4279.230957,4272.820313,4276.538574,4290.769043,4278.589844,4294.230957,4297.051270,4310.384766,4293.333496,4273.846191,4452.436035,4419.743652,4364.358887,4411.282227,2550.000000,4.000000,92.000000,,,,0.000000,4.000000,4.000000,4.000000,4.000000,4.000000,4.000000,4.000000,4.000000,4.000000,4.000000,4.000000,4.000000,4.000000,4.000000,100.000000,,,,,,,,,,,,,,,,,,,,,,,,,,,,,,,,,,,,,,,,,,,,,,,
1665608081.956842,1665608081.960745,13.000000,1.000000,4279.541992,4273.479980,4276.025879,4291.822266,4278.708984,4293.928711,4295.833496,4309.917480,4293.214355,4273.882813,4451.922852,4419.432129,4365.210449,4411.236328,2284.000000,4.000000,92.000000,,,,0.000000,4.000000,4.000000,4.000000,4.000000,4.000000,4.000000,4.000000,4.000000,4.000000,4.000000,4.000000,4.000000,4.000000,4.000000,100.000000,,,,,,,,,,,,,,,,,,,,,,,,,,,,,,,,,,,,,,,,,,,,,,,
1665608081.964650,1665608081.968554,14.000000,1.000000,4279.853516,4274.139160,4275.512695,4292.875488,4278.827637,4293.626465,4294.615234,4309.450684,4293.095215,4273.919434,4451.410156,4419.121094,4366.062500,4411.190430,2685.000000,4.000000,92.000000,,,,0.000000,4.000000,4.000000,4.000000,4.000000,4.000000,4.000000,4.000000,4.000000,4.000000,4.000000,4.000000,4.000000,4.000000,4.000000,100.000000,,,,,,,,,,,,,,,,,,,,,,,,,,,,,,,,,,,,,,,,,,,,,,,
1665608081.972458,1665608081.976363,15.000000,1.000000,4280.165039,4274.798340,4275.000000,4293.928711,4278.946777,4293.324219,4293.397461,4308.983398,4292.976074,4273.956055,4450.897461,4418.809570,4366.914063,4411.144531,2735.000000,4.000000,92.000000,,,,0.000000,4.000000,4.000000,4.000000,4.000000,4.000000,4.000000,4.000000,4.000000,4.000000,4.000000,4.000000,4.000000,4.000000,4.000000,100.000000,,,,,,,,,,,,,,,,,,,,,,,,,,,,,,,,,,,,,,,,,,,,,,,
1665608081.980267,1665608081.984172,16.000000,1.000000,4280.476074,4275.458008,4274.487305,4294.981445,4279.065918,4293.021973,4292.179688,4308.516602,4292.856934,4273.992676,4450.384766,4418.498047,4367.765625,4411.099121,1821.428589,4.000000,92.000000,,,,0.000000,4.000000,4.000000,4.000000,4.000000,4.000000,4.000000,4.000000,4.000000,4.000000,4.000000,4.000000,4.000000,4.000000,4.000000,100.000000,,,,,,,,,,,,,,,,,,,,,,,,,,,,,,,,,,,,,,,,,,,,,,,
1665608081.988075,1665608081.991981,17.000000,1.000000,4280.787598,4276.117188,4273.974121,4296.034668,4279.185059,4292.719727,4290.961426,4308.049316,4292.738281,4274.029297,4449.871582,4418.187012,4368.617188,4411.053223,1639.285767,4.000000,92.000000,,,,0.000000,4.000000,4.000000,4.000000,4.000000,4.000000,4.000000,4.000000,4.000000,4.000000,4.000000,4.000000,4.000000,4.000000,4.000000,100.000000,,,,,,,,,,,,,,,,,,,,,,,,,,,,,,,,,,,,,,,,,,,,,,,
1665608081.995884,1665608081.999790,18.000000,1.000000,4281.099121,4276.776367,4273.461426,4297.087891,4279.304199,4292.417480,4289.743652,4307.582520,4292.619141,4274.065918,4449.358887,4417.875488,4369.468750,4411.007324,1457.142822,4.000000,92.000000,,,,0.000000,4.000000,4.000000,4.000000,4.000000,4.000000,4.000000,4.000000,4.000000,4.000000,4.000000,4.000000,4.000000,4.000000,4.000000,100.000000,,,,,,,,,,,,,,,,,,,,,,,,,,,,,,,,,,,,,,,,,,,,,,,
1665608082.003692,1665608082.007599,19.000000,1.000000,4281.410156,4277.436035,4272.948730,4298.141113,4279.422852,4292.115234,4288.525879,4307.115234,4292.500000,4274.102539,4448.846191,4417.563965,4370.320313,4410.961426,1275.000000,4.000000,92.000000,,,,0.000000,4.000000,4.000000,4.000000,4.000000,4.000000,4.000000,4.000000,4.000000,4.000000,4.000000,4.000000,4.000000,4.000000,4.000000,100.000000,,,,,,,,,,,,,,,,,,,,,,,,,,,,,,,,,,,,,,,,,,,,,,,
1665608082.011500,1665608082.015408,20.000000,1.000000,4281.721680,4278.095215,4272.436035,4299.194336,4279.541992,4291.812988,4287.307617,4306.648438,4292.380859,4274.139160,4448.333496,4417.252930,4371.172363,4410.915527,1092.857178,4.000000,92.000000,,,,0.000000,4.000000,4.000000,4.000000,4.000000,4.000000,4.000000,4.000000,4.000000,4.000000,4.000000,4.000000,4.000000,4.000000,4.000000,100.000000,,,,,,,,,,,,,,,,,,,,,,,,,,,,,,,,,,,,,,,,,,,,,,,
1665608082.019309,1665608082.023217,21.000000,1.000000,4282.033203,4278.754395,4271.922852,4300.247070,4279.661133,4291.511230,4286.089844,4306.181152,4292.261719,4274.175781,4447.820313,4416.941406,4372.023926,4410.870117,910.714294,4.000000,92.000000,,,,0.000000,4.000000,4.000000,4.000000,4.000000,4.000000,4.000000,4.000000,4.000000,4.000000,4.000000,4.000000,4.000000,4.000000,4.000000,100.000000,,,,,,,,,,,,,,,,,,,,,,,,,,,,,,,,,,,,,,,,,,,,,,,
1665608082.027117,1665608082.031026,22.000000,1.000000,4282.344238,4279.414063,4271.410156,4301.300293,4279.780273,4291.208984,4284.871582,4305.714355,4292.143066,4274.212402,4447.307617,4416.629883,4372.875488,4410.824219,728.571411,4.000000,92.000000,,,,0.000000,4.000000,4.000000,4.000000,4.000000,4.000000,4.000000,4.000000,4.000000,4.000000,4.000000,4.000000,4.000000,4.000000,4.000000,100.000000,,,,,,,,,,,,,,,,,,,,,,,,,,,,,,,,,,,,,,,,,,,,,,,
1665608082.034926,1665608082.038835,23.000000,1.000000,4282.655762,4280.073242,4270.897461,4302.353516,4279.899414,4290.906738,4283.653809,4305.247070,4292.023926,4274.249023,4446.794922,4416.318848,4373.727051,4410.778320,546.428589,4.000000,92.000000,,,,0.000000,4.000000,4.000000,4.000000,4.000000,4.000000,4.000000,4.000000,4.000000,4.000000,4.000000,4.000000,4.000000,4.000000,4.000000,100.000000,,,,,,,,,,,,,,,,,,,,,,,,,,,,,,,,,,,,,,,,,,,,,,,
1665608082.042734,1665608082.046644,24.000000,1.000000,4282.966797,4280.732422,4270.384766,4303.406738,4280.018555,4290.604492,4282.436035,4304.780273,4291.904785,4274.285645,4446.282227,4416.007324,4374.578613,4410.732422,364.285706,4.000000,92.000000,,,,0.000000,4.000000,4.000000,4.000000,4.000000,4.000000,4.000000,4.000000,4.000000,4.000000,4.000000,4.000000,4.000000,4.000000,4.000000,100.000000,,,,,,,,,,,,,,,,,,,,,,,,,,,,,,,,,,,,,,,,,,,,,,,
1665608082.050542,1665608082.054452,25.000000,1.000000,4283.278320,4281.392090,4269.871582,4304.459473,4280.137207,4290.302246,4281.217773,4304.312988,4291.785645,4274.322266,4445.769043,4415.695801,4375.430176,4410.687012,182.142853,4.000000,92.000000,,,,0.000000,4.000000,4.000000,4.000000,4.000000,4.000000,4.000000,4.000000,4.000000,4.000000,4.000000,4.000000,4.000000,4.000000,4.000000,100.000000,,,,,,,,,,,,,,,,,,,,,,,,,,,,,,,,,,,,,,,,,,,,,,,
1665608082.058351,1665608082.062261,26.000000,0.000000,4283.589844,4282.051270,4269.358887,4305.512695,4280.256348,4290.000000,4280.000000,4303.846191,4291.666504,4274.358887,4445.256348,4415.384766,4376.282227,4410.641113,0.000000,4.000000,92.000000,,,,0.000000,4.000000,4.000000,4.000000,4.000000,4.000000,4.000000,4.000000,4.000000,4.000000,4.000000,4.000000,4.000000,4.000000,4.000000,100.000000,,,,,,,,,,,,,,,,,,,,,,,,,,,,,,,,,,,,,,,,,,,,,,,
1665608082.066159,1665608082.070170,27.000000,0.000000,4272.692383,4279.230957,4258.077148,4294.615234,4279.743652,4292.692383,4278.205078,4298.077148,4282.436035,4264.230957,4443.205078,4410.769043,4367.436035,4399.358887,0.000000,4.000000,92.000000,,,,0.000000,4.000000,4.000000,4.000000,4.000000,4.000000,4.000000,4.000000,4.000000,4.000000,4.000000,4.000000,4.000000,4.000000,4.000000,100.000000,,,,,,,,,,,,,,,,,,,,,,,,,,,,,,,,,,,,,,,,,,,,,,,
1665608082.073968,1665608082.077979,28.000000,0.000000,4279.487305,4295.641113,4272.307617,4299.102539,4280.128418,4296.666504,4284.358887,4310.641113,4293.333496,4270.384766,4460.512695,4421.538574,4368.974121,4405.256348,0.000000,4.000000,92.000000,,,,0.000000,4.000000,4.000000,4.000000,4.000000,4.000000,4.000000,4.000000,4.000000,4.000000,4.000000,4.000000,4.000000,4.000000,4.000000,100.000000,,,,,,,,,,,,,,,,,,,,,,,,,,,,,,,,,,,,,,,,,,,,,,,
1665608082.081776,1665608082.085787,29.000000,0.000000,4286.025879,4287.692383,4281.794922,4304.615234,4279.871582,4296.538574,4291.538574,4313.589844,4301.153809,4280.769043,4466.410156,4428.333496,4376.153809,4415.128418,0.000000,4.000000,92.000000,,,,0.000000,4.000000,4.000000,4.000000,4.000000,4.000000,4.000000,4.000000,4.000000,4.000000,4.000000,4.000000,4.000000,4.000000,4.000000,100.000000,,,,,,,,,,,,,,,,,,,,,,,,,,,,,,,,,,,,,,,,,,,,,,,
1665608082.089585,1665608082.093596,30.000000,0.000000,4288.589844,4281.538574,4278.974121,4306.153809,4286.922852,4297.948730,4297.820313,4310.256348,4293.974121,4278.333496,4460.512695,4425.641113,4375.128418,4415.769043,0.000000,4.000000,92.000000,,,,0.000000,4.000000,4.000000,4.000000,4.000000,4.000000,4.000000,4.000000,4.000000,4.000000,4.000000,4.000000,4.000000,4.000000,4.000000,100.000000,,,,,,,,,,,,,,,,,,,,,,,,,,,,,,,,,,,,,,,,,,,,,,,
1665608082.097393,1665608082.101505,31.000000,0.000000,4289.102539,4300.512695,4277.948730,4311.666504,4290.000000,4297.948730,4297.179688,4309.358887,4286.282227,4265.641113,4452.051270,4421.410156,4367.820313,4412.692383,0.000000,4.000000,92.000000,,,,0.000000,4.000000,4.000000,4.000000,4.000000,4.000000,4.000000,4.000000,4.000000,4.000000,4.000000,4.000000,4.000000,4.000000,4.000000,100.000000,,,,,,,,,,,,,,,,,,,,,,,,,,,,,,,,,,,,,,,,,,,,,,,
1665608082.105202,1665608082.109413,32.000000,0.000000,4280.769043,4307.307617,4273.717773,4312.820313,4282.436035,4294.230957,4291.410156,4298.077148,4277.179688,4256.538574,4441.922852,4412.820313,4363.077148,4406.794922,0.000000,4.000000,92.000000,,,,0.000000,4.000000,4.000000,4.000000,4.000000,4.000000,4.000000,4.000000,4.000000,4.000000,4.000000,4.000000,4.000000,4.000000,4.000000,100.000000,,,,,,,,,,,,,,,,,,,,,,,,,,,,,,,,,,,,,,,,,,,,,,,
1665608082.113010,1665608082.117222,33.000000,0.000000,4280.641113,4298.205078,4274.230957,4309.358887,4280.769043,4293.717773,4290.384766,4293.333496,4275.256348,4259.487305,4447.692383,4412.307617,4365.384766,4407.820313,0.000000,4.000000,92.000000,,,,0.000000,4.000000,4.000000,4.000000,4.000000,4.000000,4.000000,4.000000,4.000000,4.000000,4.000000,4.000000,4.000000,4.000000,4.000000,100.000000,,,,,,,,,,,,,,,,,,,,,,,,,,,,,,,,,,,,,,,,,,,,,,,
1665608082.120818,1665608082.125031,34.000000,0.000000,4293.333496,4302.563965,4282.692383,4313.461426,4285.000000,4296.282227,4294.102539,4309.615234,4290.384766,4267.692383,4462.820313,4423.589844,4368.717773,4417.692383,0.000000,4.000000,92.000000,,,,0.000000,4.000000,4.000000,4.000000,4.000000,4.000000,4.000000,4.000000,4.000000,4.000000,4.000000,4.000000,4.000000,4.000000,4.000000,100.000000,,,,,,,,,,,,,,,,,,,,,,,,,,,,,,,,,,,,,,,,,,,,,,,
1665608082.128627,1665608082.132840,35.000000,0.000000,4297.051270,4308.205078,4283.333496,4312.051270,4283.461426,4298.717773,4297.563965,4319.871582,4298.461426,4271.025879,4461.282227,4429.358887,4367.051270,4417.948730,0.000000,4.000000,92.000000,,,,0.000000,4.000000,4.000000,4.000000,4.000000,4.000000,4.000000,4.000000,4.000000,4.000000,4.000000,4.000000,4.000000,4.000000,4.000000,100.000000,,,,,,,,,,,,,,,,,,,,,,,,,,,,,,,,,,,,,,,,,,,,,,,
1665608082.136435,1665608082.140749,36.000000,1.000000,4298.637695,4308.253418,4284.342773,4310.320313,4285.416504,4298.365234,4297.436035,4318.477539,4297.019043,4269.936035,4461.057617,4428.525879,4366.057617,4417.099121,0.000000,4.000000,92.000000,,,,0.000000,4.000000,4.000000,4.000000,4.000000,4.000000,4.000000,4.000000,4.000000,4.000000,4.000000,4.000000,4.000000,4.000000,4.000000,100.000000,,,,,,,,,,,,,,,,,,,,,,,,,,,,,,,,,,,,,,,,,,,,,,,
1665608082.144244,1665608082.148557,37.000000,1.000000,4300.224121,4308.301270,4285.352539,4308.589844,4287.371582,4298.012695,4297.307617,4317.083496,4295.577148,4268.846191,4460.833496,4427.692383,4365.063965,4416.250000,0.000000,4.000000,92.000000,,,,0.000000,4.000000,4.000000,4.000000,4.000000,4.000000,4.000000,4.000000,4.000000,4.000000,4.000000,4.000000,4.000000,4.000000,4.000000,100.000000,,,,,,,,,,,,,,,,,,,,,,,,,,,,,,,,,,,,,,,,,,,,,,,
1665608082.152052,1665608082.156366,38.000000,1.000000,4301.811035,4308.349121,4286.362305,4306.858887,4289.327148,4297.660156,4297.179688,4315.688965,4294.134766,4267.756348,4460.608887,4426.858887,4364.070313,4415.400879,0.000000,4.000000,92.000000,,,,0.000000,4.000000,4.000000,4.000000,4.000000,4.000000,4.000000,4.000000,4.000000,4.000000,4.000000,4.000000,4.000000,4.000000,4.000000,100.000000,,,,,,,,,,,,,,,,,,,,,,,,,,,,,,,,,,,,,,,,,,,,,,,
1665608082.159860,1665608082.164175,39.000000,1.000000,4303.397461,4308.397461,4287.371582,4305.128418,4291.282227,4297.307617,4297.051270,4314.294922,4292.692383,4266.666504,4460.384766,4426.025879,4363.077148,4414.551270,0.000000,4.000000,92.000000,,,,0.000000,4.000000,4.000000,4.000000,4.000000,4.000000,4.000000,4.000000,4.000000,4.000000,4.000000,4.000000,4.000000,4.000000,4.000000,100.000000,,,,,,,,,,,,,,,,,,,,,,,,,,,,,,,,,,,,,,,,,,,,,,,
1665608082.167669,1665608082.171984,40.000000,1.000000,4304.983887,4308.445313,4288.381348,4303.397461,4293.237305,4296.955078,4296.922852,4312.900879,4291.250000,4265.577148,4460.160156,4425.192383,4362.083496,4413.702148,0.000000,4.000000,92.000000,,,,0.000000,4.000000,4.000000,4.000000,4.000000,4.000000,4.000000,4.000000,4.000000,4.000000,4.000000,4.000000,4.000000,4.000000,4.000000,100.000000,,,,,,,,,,,,,,,,,,,,,,,,,,,,,,,,,,,,,,,,,,,,,,,
1665608082.175477,1665608082.179792,41.000000,1.000000,4306.570313,4308.493652,4289.391113,4301.666504,4295.192383,4296.602539,4296.794922,4311.506348,4289.807617,4264.487305,4459.936035,4424.358887,4361.089844,4412.852539,0.000000,4.000000,92.000000,,,,0.000000,4.000000,4.000000,4.000000,4.000000,4.000000,4.000000,4.000000,4.000000,4.000000,4.000000,4.000000,4.000000,4.000000,4.000000,100.000000,,,,,,,,,,,,,,,,,,,,,,,,,,,,,,,,,,,,,,,,,,,,,,,
1665608082.183286,1665608082.187601,42.000000,1.000000,4308.157227,4308.541504,4290.400879,4299.936035,4297.147461,4296.250000,4296.666504,4310.112305,4288.365234,4263.397461,4459.711426,4423.525879,4360.096191,4412.003418,0.000000,4.000000,92.000000,,,,0.000000,4.000000,4.000000,4.000000,4.000000,4.000000,4.000000,4.000000,4.000000,4.000000,4.000000,4.000000,4.000000,4.000000,4.000000,100.000000,,,,,,,,,,,,,,,,,,,,,,,,,,,,,,,,,,,,,,,,,,,,,,,
1665608082.191094,1665608082.195410,43.000000,0.000000,4309.743652,4308.589844,4291.410156,4298.205078,4299.102539,4295.897461,4296.538574,4308.717773,4286.922852,4262.307617,4459.487305,4422.692383,4359.102539,4411.153809,0.000000,4.000000,92.000000,,,,0.000000,4.000000,4.000000,4.000000,4.000000,4.000000,4.000000,4.000000,4.000000,4.000000,4.000000,4.000000,4.000000,4.000000,4.000000,100.000000,,,,,,,,,,,,,,,,,,,,,,,,,,,,,,,,,,,,,,,,,,,,,,,
1665608082.198902,1665608082.203318,44.000000,0.000000,4317.820313,4311.410156,4299.871582,4305.000000,4307.307617,4302.820313,4298.846191,4319.230957,4297.436035,4268.461426,4460.897461,4431.025879,4367.307617,4418.589844,0.000000,4.000000,92.000000,,,,0.000000,4.000000,4.000000,4.000000,4.000000,4.000000,4.000000,4.000000,4.000000,4.000000,4.000000,4.000000,4.000000,4.000000,4.000000,100.000000,,,,,,,,,,,,,,,,,,,,,,,,,,,,,,,,,,,,,,,,,,,,,,,
1665608082.206711,1665608082.211126,45.000000,0.000000,4307.820313,4311.410156,4298.077148,4314.743652,4305.000000,4303.077148,4305.384766,4323.589844,4304.615234,4277.948730,4460.384766,4431.922852,4371.666504,4415.641113,0.000000,4.000000,92.000000,,,,0.000000,4.000000,4.000000,4.000000,4.000000,4.000000,4.000000,4.000000,4.000000,4.000000,4.000000,4.000000,4.000000,4.000000,4.000000,100.000000,,,,,,,,,,,,,,,,,,,,,,,,,,,,,,,,,,,,,,,,,,,,,,,
1665608082.214519,1665608082.219035,46.000000,0.000000,4306.410156,4306.666504,4297.179688,4314.487305,4298.974121,4297.307617,4310.256348,4325.512695,4309.743652,4278.333496,4465.000000,4430.384766,4375.256348,4417.307617,0.000000,4.000000,92.000000,,,,0.000000,4.000000,4.000000,4.000000,4.000000,4.000000,4.000000,4.000000,4.000000,4.000000,4.000000,4.000000,4.000000,4.000000,4.000000,100.000000,,,,,,,,,,,,,,,,,,,,,,,,,,,,,,,,,,,,,,,,,,,,,,,
1665608082.222328,1665608082.226943,47.000000,0.000000,4302.179688,4292.436035,4285.641113,4298.717773,4290.512695,4294.102539,4300.512695,4315.128418,4292.692383,4254.871582,4454.743652,4419.102539,4356.794922,4407.948730,0.000000,4.000000,92.000000,,,,0.000000,4.000000,4.000000,4.000000,4.000000,4.000000,4.000000,4.000000,4.000000,4.000000,4.000000,4.000000,4.000000,4.000000,4.000000,100.000000,,,,,,,,,,,,,,,,,,,,,,,,,,,,,,,,,,,,,,,,,,,,,,,
1665608082.230136,1665608082.234752,48.000000,0.000000,4292.436035,4287.051270,4279.358887,4288.333496,4286.538574,4298.846191,4292.948730,4308.077148,4277.179688,4246.666504,4443.461426,4410.769043,4339.615234,4398.846191,0.000000,4.000000,92.000000,,,,0.000000,4.000000,4.000000,4.000000,4.000000,4.000000,4.000000,4.000000,4.000000,4.000000,4.000000,4.000000,4.000000,4.000000,4.000000,100.000000,,,,,,,,,,,,,,,,,,,,,,,,,,,,,,,,,,,,,,,,,,,,,,,
1665608082.237945,1665608082.242561,49.000000,0.000000,4299.358887,4296.538574,4290.512695,4291.922852,4292.948730,4308.461426,4297.179688,4310.641113,4282.948730,4261.025879,4442.179688,4417.948730,4352.692383,4407.692383,0.000000,4.000000,92.000000,,,,0.000000,4.000000,4.000000,4.000000,4.000000,4.000000,4.000000,4.000000,4.000000,4.000000,4.000000,4.000000,4.000000,4.000000,4.000000,100.000000,,,,,,,,,,,,,,,,,,,,,,,,,,,,,,,,,,,,,,,,,,,,,,,
1665608082.245753,1665608082.250369,50.000000,0.000000,4310.256348,4304.487305,4297.948730,4300.769043,4297.820313,4310.384766,4292.563965,4303.717773,4282.820313,4257.307617,4444.871582,4425.128418,4368.205078,4414.743652,0.000000,4.000000,92.000000,,,,0.000000,4.000000,4.000000,4.000000,4.000000,4.000000,4.000000,4.000000,4.000000,4.000000,4.000000,4.000000,4.000000,4.000000,4.000000,100.000000,,,,,,,,,,,,,,,,,,,,,,,,,,,,,,,,,,,,,,,,,,,,,,,
1665608082.253562,1665608082.258178,51.000000,0.000000,4305.256348,4307.436035,4297.563965,4308.461426,4297.820313,4302.692383,4282.436035,4296.666504,4280.769043,4251.922852,4450.641113,4426.153809,4363.846191,4414.615234,0.000000,4.000000,92.000000,,,,0.000000,4.000000,4.000000,4.000000,4.000000,4.000000,4.000000,4.000000,4.000000,4.000000,4.000000,4.000000,4.000000,4.000000,4.000000,100.000000,,,,,,,,,,,,,,,,,,,,,,,,,,,,,,,,,,,,,,,,,,,,,,,
1665608082.261370,1665608082.265987,52.000000,0.000000,4307.436035,4318.333496,4304.871582,4313.077148,4305.000000,4302.179688,4287.051270,4309.487305,4292.820313,4263.333496,4460.256348,4434.743652,4362.820313,4425.256348,0.000000,4.000000,92.000000,,,,0.000000,4.000000,4.000000,4.000000,4.000000,4.000000,4.000000,4.000000,4.000000,4.000000,4.000000,4.000000,4.000000,4.000000,4.000000,100.000000,,,,,,,,,,,,,,,,,,,,,,,,,,,,,,,,,,,,,,,,,,,,,,,
