title:Psychopy_Rahul_Speakers_Blink, start timestamp:1665722274.731766, stop timestamp:1665722335.746461, headset type:EPOCX, headset serial:E2020A42, headset firmware:720, channels:86, sampling rate:eeg_128;pm_2, samples:7815      , version:2.1, 
Timestamp,OriginalTimestamp,EEG.Counter,EEG.Interpolated,EEG.AF3,EEG.F7,EEG.F3,EEG.FC5,EEG.T7,EEG.P7,EEG.O1,EEG.O2,EEG.P8,EEG.T8,EEG.FC6,EEG.F4,EEG.F8,EEG.AF4,EEG.RawCq,EEG.Battery,EEG.BatteryPercent,MarkerIndex,MarkerType,MarkerValueInt,EEG.MarkerHardware,CQ.AF3,CQ.F7,CQ.F3,CQ.FC5,CQ.T7,CQ.P7,CQ.O1,CQ.O2,CQ.P8,CQ.T8,CQ.FC6,CQ.F4,CQ.F8,CQ.AF4,CQ.Overall,EQ.SampleRateQuality,EQ.OVERALL,EQ.AF3,EQ.F7,EQ.F3,EQ.FC5,EQ.T7,EQ.P7,EQ.O1,EQ.O2,EQ.P8,EQ.T8,EQ.FC6,EQ.F4,EQ.F8,EQ.AF4,PM.Engagement.IsActive,PM.Engagement.Scaled,PM.Engagement.Raw,PM.Engagement.Min,PM.Engagement.Max,PM.Excitement.IsActive,PM.Excitement.Scaled,PM.Excitement.Raw,PM.Excitement.Min,PM.Excitement.Max,PM.LongTermExcitement,PM.Stress.IsActive,PM.Stress.Scaled,PM.Stress.Raw,PM.Stress.Min,PM.Stress.Max,PM.Relaxation.IsActive,PM.Relaxation.Scaled,PM.Relaxation.Raw,PM.Relaxation.Min,PM.Relaxation.Max,PM.Interest.IsActive,PM.Interest.Scaled,PM.Interest.Raw,PM.Interest.Min,PM.Interest.Max,PM.Focus.IsActive,PM.Focus.Scaled,PM.Focus.Raw,PM.Focus.Min,PM.Focus.Max
1665722274.731766,1665722274.731870,48.000000,0.000000,4282.820313,4297.307617,4294.615234,4298.077148,4294.358887,4289.230957,4285.641113,4304.487305,4291.666504,4277.436035,4442.436035,4464.487305,4335.769043,4412.179688,0.000000,4.000000,82.000000,,,,0.000000,4.000000,4.000000,4.000000,4.000000,4.000000,4.000000,4.000000,4.000000,4.000000,4.000000,4.000000,4.000000,4.000000,4.000000,100.000000,,,,,,,,,,,,,,,,,,,,,,,,,,,,,,,,,,,,,,,,,,,,,,,
1665722274.739574,1665722274.739579,49.000000,0.000000,4283.717773,4297.692383,4295.384766,4310.769043,4295.384766,4293.717773,4287.692383,4306.153809,4290.000000,4272.179688,4437.179688,4463.717773,4334.487305,4408.589844,0.000000,4.000000,82.000000,,,,0.000000,4.000000,4.000000,4.000000,4.000000,4.000000,4.000000,4.000000,4.000000,4.000000,4.000000,4.000000,4.000000,4.000000,4.000000,100.000000,,,,,,,,,,,,,,,,,,,,,,,,,,,,,,,,,,,,,,,,,,,,,,,
1665722274.747382,1665722274.747387,50.000000,0.000000,4278.333496,4292.820313,4286.922852,4313.333496,4298.205078,4287.436035,4288.846191,4306.282227,4287.820313,4268.205078,4434.871582,4457.563965,4330.769043,4404.615234,0.000000,4.000000,82.000000,,,,0.000000,4.000000,4.000000,4.000000,4.000000,4.000000,4.000000,4.000000,4.000000,4.000000,4.000000,4.000000,4.000000,4.000000,4.000000,100.000000,,,,,,,,,,,,,,,,,,,,,,,,,,,,,,,,,,,,,,,,,,,,,,,
1665722274.755191,1665722274.755096,51.000000,0.000000,4276.282227,4290.897461,4282.436035,4298.974121,4295.897461,4286.538574,4285.897461,4302.307617,4282.051270,4269.615234,4442.948730,4451.025879,4329.871582,4405.512695,0.000000,4.000000,82.000000,,,,0.000000,4.000000,4.000000,4.000000,4.000000,4.000000,4.000000,4.000000,4.000000,4.000000,4.000000,4.000000,4.000000,4.000000,4.000000,100.000000,,,,,,,,,,,,,,,,,,,,,,,,,,,,,,,,,,,,,,,,,,,,,,,
1665722274.762999,1665722274.762904,52.000000,0.000000,4278.846191,4288.077148,4288.717773,4290.769043,4291.922852,4295.000000,4288.461426,4300.641113,4280.256348,4267.051270,4440.512695,4451.794922,4329.358887,4405.769043,0.000000,4.000000,82.000000,,,,0.000000,4.000000,4.000000,4.000000,4.000000,4.000000,4.000000,4.000000,4.000000,4.000000,4.000000,4.000000,4.000000,4.000000,4.000000,100.000000,,,,,,,,,,,,,,,,,,,,,,,,,,,,,,,,,,,,,,,,,,,,,,,
1665722274.770807,1665722274.770613,53.000000,0.000000,4281.666504,4289.615234,4296.025879,4305.897461,4299.102539,4299.871582,4297.563965,4304.487305,4287.563965,4271.922852,4438.846191,4462.692383,4334.871582,4407.948730,0.000000,4.000000,82.000000,,,,0.000000,4.000000,4.000000,4.000000,4.000000,4.000000,4.000000,4.000000,4.000000,4.000000,4.000000,4.000000,4.000000,4.000000,4.000000,100.000000,,,,,,,,,,,,,,,,,,,,,,,,,,,,,,,,,,,,,,,,,,,,,,,
1665722274.778616,1665722274.778521,54.000000,0.000000,4282.051270,4296.794922,4294.487305,4319.102539,4302.307617,4300.000000,4300.384766,4306.025879,4288.589844,4266.538574,4455.769043,4469.615234,4341.794922,4410.769043,0.000000,4.000000,82.000000,,,,0.000000,4.000000,4.000000,4.000000,4.000000,4.000000,4.000000,4.000000,4.000000,4.000000,4.000000,4.000000,4.000000,4.000000,4.000000,100.000000,,,,,,,,,,,,,,,,,,,,,,,,,,,,,,,,,,,,,,,,,,,,,,,
1665722274.786424,1665722274.786330,55.000000,0.000000,4281.794922,4299.230957,4291.410156,4311.153809,4296.025879,4302.307617,4297.692383,4303.333496,4285.384766,4259.743652,4455.641113,4465.512695,4337.051270,4405.512695,0.000000,4.000000,82.000000,,,,0.000000,4.000000,4.000000,4.000000,4.000000,4.000000,4.000000,4.000000,4.000000,4.000000,4.000000,4.000000,4.000000,4.000000,4.000000,100.000000,,,,,,,,,,,,,,,,,,,,,,,,,,,,,,,,,,,,,,,,,,,,,,,
1665722274.794233,1665722274.794238,56.000000,0.000000,4277.307617,4288.846191,4293.717773,4297.307617,4295.256348,4301.922852,4296.153809,4307.179688,4292.948730,4276.282227,4437.051270,4464.871582,4329.487305,4402.692383,0.000000,4.000000,82.000000,,,,0.000000,4.000000,4.000000,4.000000,4.000000,4.000000,4.000000,4.000000,4.000000,4.000000,4.000000,4.000000,4.000000,4.000000,4.000000,100.000000,,,,,,,,,,,,,,,,,,,,,,,,,,,,,,,,,,,,,,,,,,,,,,,
1665722274.802041,1665722274.802047,57.000000,0.000000,4278.717773,4285.000000,4296.794922,4304.358887,4299.230957,4299.230957,4301.922852,4313.589844,4300.512695,4292.307617,4444.487305,4476.666504,4336.410156,4413.589844,0.000000,4.000000,82.000000,,,,0.000000,4.000000,4.000000,4.000000,4.000000,4.000000,4.000000,4.000000,4.000000,4.000000,4.000000,4.000000,4.000000,4.000000,4.000000,100.000000,,,,,,,,,,,,,,,,,,,,,,,,,,,,,,,,,,,,,,,,,,,,,,,
1665722274.809849,1665722274.809955,58.000000,0.000000,4294.871582,4299.230957,4302.563965,4319.230957,4296.153809,4297.563965,4306.666504,4312.820313,4298.077148,4283.461426,4458.205078,4488.717773,4346.025879,4422.820313,0.000000,4.000000,82.000000,,,,0.000000,4.000000,4.000000,4.000000,4.000000,4.000000,4.000000,4.000000,4.000000,4.000000,4.000000,4.000000,4.000000,4.000000,4.000000,100.000000,,,,,,,,,,,,,,,,,,,,,,,,,,,,,,,,,,,,,,,,,,,,,,,
1665722274.817658,1665722274.817763,59.000000,0.000000,4296.922852,4302.179688,4303.077148,4312.179688,4293.205078,4296.410156,4299.102539,4305.897461,4295.512695,4269.743652,4450.000000,4483.333496,4342.948730,4412.692383,0.000000,4.000000,82.000000,,,,0.000000,4.000000,4.000000,4.000000,4.000000,4.000000,4.000000,4.000000,4.000000,4.000000,4.000000,4.000000,4.000000,4.000000,4.000000,100.000000,,,,,,,,,,,,,,,,,,,,,,,,,,,,,,,,,,,,,,,,,,,,,,,
1665722274.825466,1665722274.825672,60.000000,0.000000,4282.307617,4290.769043,4296.538574,4303.461426,4298.589844,4297.692383,4292.307617,4301.538574,4293.589844,4276.282227,4443.077148,4473.077148,4337.307617,4405.128418,0.000000,4.000000,82.000000,,,,0.000000,4.000000,4.000000,4.000000,4.000000,4.000000,4.000000,4.000000,4.000000,4.000000,4.000000,4.000000,4.000000,4.000000,4.000000,100.000000,,,,,,,,,,,,,,,,,,,,,,,,,,,,,,,,,,,,,,,,,,,,,,,
1665722274.833274,1665722274.833480,61.000000,0.000000,4287.436035,4295.512695,4296.666504,4310.897461,4300.641113,4296.282227,4295.512695,4301.538574,4287.179688,4282.948730,4444.871582,4477.436035,4339.102539,4413.974121,0.000000,4.000000,82.000000,,,,0.000000,4.000000,4.000000,4.000000,4.000000,4.000000,4.000000,4.000000,4.000000,4.000000,4.000000,4.000000,4.000000,4.000000,4.000000,100.000000,,,,,,,,,,,,,,,,,,,,,,,,,,,,,,,,,,,,,,,,,,,,,,,
1665722274.841083,1665722274.841389,62.000000,0.000000,4298.589844,4306.025879,4301.410156,4315.128418,4299.358887,4294.871582,4298.717773,4302.051270,4281.922852,4266.153809,4449.230957,4483.333496,4343.974121,4419.230957,0.000000,4.000000,82.000000,,,,0.000000,4.000000,4.000000,4.000000,4.000000,4.000000,4.000000,4.000000,4.000000,4.000000,4.000000,4.000000,4.000000,4.000000,4.000000,100.000000,,,,,,,,,,,,,,,,,,,,,,,,,,,,,,,,,,,,,,,,,,,,,,,
1665722274.848891,1665722274.849197,63.000000,0.000000,4285.769043,4299.102539,4294.358887,4310.000000,4307.051270,4295.641113,4297.179688,4299.102539,4279.615234,4253.205078,4453.205078,4472.179688,4338.717773,4409.871582,0.000000,4.000000,82.000000,,,,0.000000,4.000000,4.000000,4.000000,4.000000,4.000000,4.000000,4.000000,4.000000,4.000000,4.000000,4.000000,4.000000,4.000000,4.000000,100.000000,,,,,,,,,,,,,,,,,,,,,,,,,,,,,,,,,,,,,,,,,,,,,,,
1665722274.856700,1665722274.857105,64.000000,0.000000,4274.871582,4292.436035,4289.487305,4308.205078,4313.205078,4296.153809,4288.333496,4294.487305,4277.692383,4266.922852,4446.153809,4458.717773,4326.153809,4401.794922,1736.000000,4.000000,82.000000,,,,0.000000,4.000000,4.000000,4.000000,4.000000,4.000000,4.000000,4.000000,4.000000,4.000000,4.000000,4.000000,4.000000,4.000000,4.000000,100.000000,,,,,,,,,,,,,,,,,,,,,,,,,,,,,,,,,,,,,,,,,,,,,,,
1665722274.864508,1665722274.864914,65.000000,0.000000,4282.948730,4296.025879,4296.025879,4309.487305,4303.333496,4293.333496,4280.641113,4291.922852,4277.948730,4273.333496,4436.025879,4459.871582,4325.256348,4403.461426,1940.000000,4.000000,82.000000,,,,0.000000,4.000000,4.000000,4.000000,4.000000,4.000000,4.000000,4.000000,4.000000,4.000000,4.000000,4.000000,4.000000,4.000000,4.000000,100.000000,,,,,,,,,,,,,,,,,,,,,,,,,,,,,,,,,,,,,,,,,,,,,,,
1665722274.872316,1665722274.872622,66.000000,0.000000,4287.563965,4297.692383,4294.871582,4311.282227,4292.179688,4293.717773,4287.307617,4292.563965,4280.384766,4267.179688,4437.820313,4464.358887,4334.743652,4408.077148,2353.000000,4.000000,82.000000,,,,0.000000,4.000000,4.000000,4.000000,4.000000,4.000000,4.000000,4.000000,4.000000,4.000000,4.000000,4.000000,4.000000,4.000000,4.000000,100.000000,,,,,,,,,,,,,,,,,,,,,,,,,,,,,,,,,,,,,,,,,,,,,,,
1665722274.880125,1665722274.880431,67.000000,0.000000,4286.794922,4296.794922,4292.563965,4312.948730,4297.179688,4298.974121,4295.256348,4297.692383,4280.256348,4274.487305,4446.794922,4471.025879,4338.846191,4413.333496,2064.000000,4.000000,82.000000,,,,0.000000,4.000000,4.000000,4.000000,4.000000,4.000000,4.000000,4.000000,4.000000,4.000000,4.000000,4.000000,4.000000,4.000000,4.000000,100.000000,,,,,,,,,,,,,,,,,,,,,,,,,,,,,,,,,,,,,,,,,,,,,,,
1665722274.887933,1665722274.888139,68.000000,0.000000,4290.897461,4296.794922,4298.333496,4310.897461,4304.615234,4303.461426,4297.692383,4301.794922,4284.102539,4284.230957,4448.461426,4478.077148,4337.436035,4414.743652,1664.000000,4.000000,82.000000,,,,0.000000,4.000000,4.000000,4.000000,4.000000,4.000000,4.000000,4.000000,4.000000,4.000000,4.000000,4.000000,4.000000,4.000000,4.000000,100.000000,,,,,,,,,,,,,,,,,,,,,,,,,,,,,,,,,,,,,,,,,,,,,,,
1665722274.895742,1665722274.895948,69.000000,0.000000,4288.846191,4297.307617,4300.769043,4308.461426,4306.922852,4303.846191,4299.743652,4299.487305,4285.769043,4277.179688,4438.333496,4471.410156,4333.846191,4410.641113,2237.000000,4.000000,82.000000,,,,0.000000,4.000000,4.000000,4.000000,4.000000,4.000000,4.000000,4.000000,4.000000,4.000000,4.000000,4.000000,4.000000,4.000000,4.000000,100.000000,,,,,,,,,,,,,,,,,,,,,,,,,,,,,,,,,,,,,,,,,,,,,,,
1665722274.903550,1665722274.903656,70.000000,0.000000,4278.589844,4297.948730,4294.230957,4310.000000,4307.051270,4301.410156,4298.589844,4298.461426,4279.358887,4253.589844,4430.769043,4461.282227,4329.102539,4407.436035,2314.000000,4.000000,82.000000,,,,0.000000,4.000000,4.000000,4.000000,4.000000,4.000000,4.000000,4.000000,4.000000,4.000000,4.000000,4.000000,4.000000,4.000000,4.000000,100.000000,,,,,,,,,,,,,,,,,,,,,,,,,,,,,,,,,,,,,,,,,,,,,,,
1665722274.911358,1665722274.911465,71.000000,0.000000,4281.538574,4301.153809,4294.871582,4317.436035,4303.846191,4297.820313,4297.179688,4307.563965,4284.487305,4245.897461,4442.179688,4467.563965,4332.436035,4410.384766,1756.000000,4.000000,82.000000,,,,0.000000,4.000000,4.000000,4.000000,4.000000,4.000000,4.000000,4.000000,4.000000,4.000000,4.000000,4.000000,4.000000,4.000000,4.000000,100.000000,,,,,,,,,,,,,,,,,,,,,,,,,,,,,,,,,,,,,,,,,,,,,,,
1665722274.919167,1665722274.919173,72.000000,0.000000,4295.128418,4306.282227,4302.692383,4318.205078,4299.871582,4296.153809,4301.410156,4314.487305,4297.179688,4275.384766,4451.794922,4479.358887,4340.769043,4411.794922,1993.000000,4.000000,82.000000,,,,0.000000,4.000000,4.000000,4.000000,4.000000,4.000000,4.000000,4.000000,4.000000,4.000000,4.000000,4.000000,4.000000,4.000000,4.000000,100.000000,,,,,,,,,,,,,,,,,,,,,,,,,,,,,,,,,,,,,,,,,,,,,,,
1665722274.926975,1665722274.926982,73.000000,0.000000,4298.333496,4309.230957,4308.589844,4309.358887,4302.948730,4300.769043,4302.307617,4310.641113,4297.179688,4295.641113,4443.077148,4482.436035,4340.769043,4411.922852,2221.000000,4.000000,82.000000,,,,0.000000,4.000000,4.000000,4.000000,4.000000,4.000000,4.000000,4.000000,4.000000,4.000000,4.000000,4.000000,4.000000,4.000000,4.000000,100.000000,,,,,,,,,,,,,,,,,,,,,,,,,,,,,,,,,,,,,,,,,,,,,,,
1665722274.934784,1665722274.934690,74.000000,0.000000,4296.666504,4311.410156,4308.077148,4313.974121,4312.436035,4305.384766,4302.051270,4305.000000,4289.871582,4281.153809,4441.025879,4481.794922,4341.153809,4412.179688,2476.000000,4.000000,82.000000,,,,0.000000,4.000000,4.000000,4.000000,4.000000,4.000000,4.000000,4.000000,4.000000,4.000000,4.000000,4.000000,4.000000,4.000000,4.000000,100.000000,,,,,,,,,,,,,,,,,,,,,,,,,,,,,,,,,,,,,,,,,,,,,,,
1665722274.942592,1665722274.942599,75.000000,0.000000,4298.077148,4311.410156,4299.615234,4328.205078,4317.051270,4302.820313,4307.051270,4305.512695,4285.512695,4271.922852,4447.307617,4475.256348,4341.666504,4407.051270,1948.000000,4.000000,82.000000,,,,0.000000,4.000000,4.000000,4.000000,4.000000,4.000000,4.000000,4.000000,4.000000,4.000000,4.000000,4.000000,4.000000,4.000000,4.000000,100.000000,,,,,,,,,,,,,,,,,,,,,,,,,,,,,,,,,,,,,,,,,,,,,,,
1665722274.950400,1665722274.950407,76.000000,0.000000,4293.717773,4306.282227,4296.153809,4320.769043,4313.717773,4301.538574,4309.743652,4306.282227,4285.641113,4269.871582,4442.051270,4470.128418,4330.769043,4399.230957,2837.000000,4.000000,82.000000,,,,0.000000,4.000000,4.000000,4.000000,4.000000,4.000000,4.000000,4.000000,4.000000,4.000000,4.000000,4.000000,4.000000,4.000000,4.000000,100.000000,,,,,,,,,,,,,,,,,,,,,,,,,,,,,,,,,,,,,,,,,,,,,,,
1665722274.958209,1665722274.958315,77.000000,0.000000,4292.948730,4299.487305,4304.871582,4304.358887,4305.769043,4305.256348,4311.025879,4304.358887,4291.410156,4267.820313,4436.666504,4479.871582,4329.230957,4401.922852,3094.000000,4.000000,82.000000,,,,0.000000,4.000000,4.000000,4.000000,4.000000,4.000000,4.000000,4.000000,4.000000,4.000000,4.000000,4.000000,4.000000,4.000000,4.000000,100.000000,,,,,,,,,,,,,,,,,,,,,,,,,,,,,,,,,,,,,,,,,,,,,,,
1665722274.966017,1665722274.966124,78.000000,0.000000,4297.436035,4299.102539,4306.282227,4308.333496,4296.922852,4305.256348,4306.666504,4303.461426,4293.974121,4268.333496,4441.666504,4486.410156,4339.102539,4407.307617,2476.000000,4.000000,82.000000,,,,0.000000,4.000000,4.000000,4.000000,4.000000,4.000000,4.000000,4.000000,4.000000,4.000000,4.000000,4.000000,4.000000,4.000000,4.000000,100.000000,,,,,,,,,,,,,,,,,,,,,,,,,,,,,,,,,,,,,,,,,,,,,,,
1665722274.973825,1665722274.974032,79.000000,0.000000,4295.384766,4300.256348,4298.205078,4318.333496,4297.692383,4300.384766,4297.820313,4304.871582,4292.692383,4258.205078,4454.487305,4486.282227,4342.820313,4405.256348,1948.000000,4.000000,82.000000,,,,0.000000,4.000000,4.000000,4.000000,4.000000,4.000000,4.000000,4.000000,4.000000,4.000000,4.000000,4.000000,4.000000,4.000000,4.000000,100.000000,,,,,,,,,,,,,,,,,,,,,,,,,,,,,,,,,,,,,,,,,,,,,,,
1665722274.981634,1665722274.981841,80.000000,0.000000,4292.563965,4298.333496,4296.922852,4314.615234,4304.358887,4301.025879,4300.000000,4308.589844,4296.282227,4265.897461,4462.820313,4485.384766,4341.922852,4405.128418,2837.000000,4.000000,82.000000,,,,0.000000,4.000000,4.000000,4.000000,4.000000,4.000000,4.000000,4.000000,4.000000,4.000000,4.000000,4.000000,4.000000,4.000000,4.000000,100.000000,,,,,,,,,,,,,,,,,,,,,,,,,,,,,,,,,,,,,,,,,,,,,,,
1665722274.989442,1665722274.989749,81.000000,0.000000,4294.102539,4298.846191,4299.871582,4305.256348,4306.025879,4302.692383,4304.487305,4309.487305,4297.307617,4293.974121,4453.717773,4480.897461,4342.692383,4405.384766,3094.000000,4.000000,82.000000,,,,0.000000,4.000000,4.000000,4.000000,4.000000,4.000000,4.000000,4.000000,4.000000,4.000000,4.000000,4.000000,4.000000,4.000000,4.000000,100.000000,,,,,,,,,,,,,,,,,,,,,,,,,,,,,,,,,,,,,,,,,,,,,,,
1665722274.997250,1665722274.997557,82.000000,0.000000,4293.974121,4302.692383,4301.025879,4310.512695,4306.282227,4304.230957,4304.615234,4307.307617,4294.230957,4292.179688,4445.769043,4481.922852,4345.256348,4407.948730,2476.000000,4.000000,82.000000,,,,0.000000,4.000000,4.000000,4.000000,4.000000,4.000000,4.000000,4.000000,4.000000,4.000000,4.000000,4.000000,4.000000,4.000000,4.000000,100.000000,,,,,,,,,,,,,,,,,,,,,,,,,,,,,,,,,,,,,,,,,,,,,,,
1665722275.005059,1665722275.005466,83.000000,0.000000,4296.410156,4305.256348,4305.128418,4317.948730,4309.230957,4307.051270,4306.922852,4309.487305,4296.538574,4275.128418,4463.589844,4495.128418,4356.153809,4416.410156,1948.000000,4.000000,82.000000,,,,0.000000,4.000000,4.000000,4.000000,4.000000,4.000000,4.000000,4.000000,4.000000,4.000000,4.000000,4.000000,4.000000,4.000000,4.000000,100.000000,,,,,,,,,,,,,,,,,,,,,,,,,,,,,,,,,,,,,,,,,,,,,,,
1665722275.012867,1665722275.013274,84.000000,0.000000,4305.000000,4309.358887,4312.307617,4315.897461,4308.461426,4302.563965,4306.538574,4311.794922,4298.205078,4278.461426,4475.897461,4503.461426,4364.871582,4421.538574,2837.000000,4.000000,82.000000,,,,0.000000,4.000000,4.000000,4.000000,4.000000,4.000000,4.000000,4.000000,4.000000,4.000000,4.000000,4.000000,4.000000,4.000000,4.000000,100.000000,,,,,,,,,,,,,,,,,,,,,,,,,,,,,,,,,,,,,,,,,,,,,,,
1665722275.020676,1665722275.021183,85.000000,0.000000,4305.128418,4311.282227,4309.358887,4317.051270,4307.051270,4298.589844,4298.717773,4307.563965,4296.025879,4286.538574,4459.743652,4497.820313,4357.051270,4416.538574,3094.000000,4.000000,82.000000,,,,0.000000,4.000000,4.000000,4.000000,4.000000,4.000000,4.000000,4.000000,4.000000,4.000000,4.000000,4.000000,4.000000,4.000000,4.000000,100.000000,,,,,,,,,,,,,,,,,,,,,,,,,,,,,,,,,,,,,,,,,,,,,,,
1665722275.028484,1665722275.028991,86.000000,0.000000,4297.692383,4305.256348,4302.563965,4316.025879,4307.820313,4301.153809,4296.282227,4305.000000,4293.205078,4276.538574,4452.051270,4487.563965,4346.666504,4411.410156,2476.000000,4.000000,82.000000,,,,0.000000,4.000000,4.000000,4.000000,4.000000,4.000000,4.000000,4.000000,4.000000,4.000000,4.000000,4.000000,4.000000,4.000000,4.000000,100.000000,,,,,,,,,,,,,,,,,,,,,,,,,,,,,,,,,,,,,,,,,,,,,,,
1665722275.036292,1665722275.036899,87.000000,0.000000,4295.384766,4303.717773,4300.512695,4310.384766,4305.000000,4300.384766,4299.102539,4304.871582,4290.384766,4258.461426,4459.102539,4480.641113,4343.205078,4411.025879,1948.000000,4.000000,82.000000,,,,0.000000,4.000000,4.000000,4.000000,4.000000,4.000000,4.000000,4.000000,4.000000,4.000000,4.000000,4.000000,4.000000,4.000000,4.000000,100.000000,,,,,,,,,,,,,,,,,,,,,,,,,,,,,,,,,,,,,,,,,,,,,,,
1665722275.044101,1665722275.044708,88.000000,0.000000,4295.512695,4303.846191,4303.333496,4311.410156,4303.077148,4294.615234,4297.307617,4301.538574,4289.102539,4260.512695,4455.256348,4480.128418,4341.794922,4408.717773,2837.000000,4.000000,82.000000,,,,0.000000,4.000000,4.000000,4.000000,4.000000,4.000000,4.000000,4.000000,4.000000,4.000000,4.000000,4.000000,4.000000,4.000000,4.000000,100.000000,,,,,,,,,,,,,,,,,,,,,,,,,,,,,,,,,,,,,,,,,,,,,,,
1665722275.051909,1665722275.052416,89.000000,0.000000,4292.948730,4296.153809,4304.230957,4306.153809,4304.743652,4295.897461,4294.871582,4299.743652,4292.179688,4282.179688,4447.051270,4479.615234,4341.922852,4406.922852,3094.000000,4.000000,82.000000,,,,0.000000,4.000000,4.000000,4.000000,4.000000,4.000000,4.000000,4.000000,4.000000,4.000000,4.000000,4.000000,4.000000,4.000000,4.000000,100.000000,,,,,,,,,,,,,,,,,,,,,,,,,,,,,,,,,,,,,,,,,,,,,,,
1665722275.059718,1665722275.060225,90.000000,0.000000,4291.410156,4293.974121,4300.769043,4301.153809,4301.025879,4298.333496,4293.717773,4302.948730,4294.615234,4287.179688,4443.077148,4474.358887,4339.743652,4407.692383,2476.000000,4.000000,82.000000,,,,0.000000,4.000000,4.000000,4.000000,4.000000,4.000000,4.000000,4.000000,4.000000,4.000000,4.000000,4.000000,4.000000,4.000000,4.000000,100.000000,,,,,,,,,,,,,,,,,,,,,,,,,,,,,,,,,,,,,,,,,,,,,,,
1665722275.067526,1665722275.067933,91.000000,0.000000,4292.051270,4297.563965,4298.846191,4313.461426,4297.436035,4293.589844,4293.461426,4301.794922,4291.538574,4277.948730,4444.487305,4470.000000,4341.025879,4404.358887,1948.000000,4.000000,82.000000,,,,0.000000,4.000000,4.000000,4.000000,4.000000,4.000000,4.000000,4.000000,4.000000,4.000000,4.000000,4.000000,4.000000,4.000000,4.000000,100.000000,,,,,,,,,,,,,,,,,,,,,,,,,,,,,,,,,,,,,,,,,,,,,,,
1665722275.075334,1665722275.075842,92.000000,0.000000,4294.487305,4297.436035,4299.615234,4319.102539,4298.077148,4291.666504,4294.230957,4301.410156,4290.256348,4280.256348,4455.384766,4470.897461,4348.717773,4404.871582,2837.000000,4.000000,82.000000,,,,0.000000,4.000000,4.000000,4.000000,4.000000,4.000000,4.000000,4.000000,4.000000,4.000000,4.000000,4.000000,4.000000,4.000000,4.000000,100.000000,,,,,,,,,,,,,,,,,,,,,,,,,,,,,,,,,,,,,,,,,,,,,,,
1665722275.083143,1665722275.083650,93.000000,0.000000,4297.948730,4297.179688,4298.333496,4309.743652,4300.769043,4291.922852,4291.666504,4305.512695,4294.102539,4278.974121,4453.461426,4473.205078,4343.717773,4406.922852,3094.000000,4.000000,82.000000,,,,0.000000,4.000000,4.000000,4.000000,4.000000,4.000000,4.000000,4.000000,4.000000,4.000000,4.000000,4.000000,4.000000,4.000000,4.000000,100.000000,,,,,,,,,,,,,,,,,,,,,,,,,,,,,,,,,,,,,,,,,,,,,,,
1665722275.090951,1665722275.091459,94.000000,0.000000,4296.153809,4298.589844,4293.974121,4310.769043,4303.846191,4291.282227,4289.230957,4306.153809,4294.743652,4278.974121,4440.641113,4472.179688,4333.846191,4405.641113,2476.000000,4.000000,82.000000,,,,0.000000,4.000000,4.000000,4.000000,4.000000,4.000000,4.000000,4.000000,4.000000,4.000000,4.000000,4.000000,4.000000,4.000000,4.000000,100.000000,,,,,,,,,,,,,,,,,,,,,,,,,,,,,,,,,,,,,,,,,,,,,,,
1665722275.098760,1665722275.099167,95.000000,0.000000,4291.922852,4294.615234,4297.051270,4308.589844,4297.436035,4292.820313,4293.974121,4302.692383,4293.205078,4285.000000,4448.461426,4472.307617,4342.179688,4406.153809,1948.000000,4.000000,82.000000,,,,0.000000,4.000000,4.000000,4.000000,4.000000,4.000000,4.000000,4.000000,4.000000,4.000000,4.000000,4.000000,4.000000,4.000000,4.000000,100.000000,,,,,,,,,,,,,,,,,,,,,,,,,,,,,,,,,,,,,,,,,,,,,,,
1665722275.106568,1665722275.106976,96.000000,0.000000,4294.230957,4292.948730,4305.128418,4304.358887,4291.538574,4296.410156,4299.358887,4301.282227,4294.102539,4269.487305,4462.948730,4477.820313,4359.102539,4410.128418,2837.000000,4.000000,82.000000,,,,0.000000,4.000000,4.000000,4.000000,4.000000,4.000000,4.000000,4.000000,4.000000,4.000000,4.000000,4.000000,4.000000,4.000000,4.000000,100.000000,,,,,,,,,,,,,,,,,,,,,,,,,,,,,,,,,,,,,,,,,,,,,,,
1665722275.114376,1665722275.114684,97.000000,0.000000,4295.512695,4298.077148,4300.000000,4310.128418,4302.948730,4299.358887,4298.333496,4304.230957,4295.256348,4264.615234,4462.563965,4476.410156,4366.666504,4410.641113,3094.000000,4.000000,82.000000,,,,0.000000,4.000000,4.000000,4.000000,4.000000,4.000000,4.000000,4.000000,4.000000,4.000000,4.000000,4.000000,4.000000,4.000000,4.000000,100.000000,,,,,,,,,,,,,,,,,,,,,,,,,,,,,,,,,,,,,,,,,,,,,,,
1665722275.122185,1665722275.122493,98.000000,0.000000,4290.000000,4292.436035,4291.922852,4305.256348,4309.487305,4297.692383,4299.102539,4308.077148,4296.282227,4292.051270,4459.487305,4466.282227,4363.461426,4407.307617,2476.000000,4.000000,82.000000,,,,0.000000,4.000000,4.000000,4.000000,4.000000,4.000000,4.000000,4.000000,4.000000,4.000000,4.000000,4.000000,4.000000,4.000000,4.000000,100.000000,,,,,,,,,,,,,,,,,,,,,,,,,,,,,,,,,,,,,,,,,,,,,,,
1665722275.129993,1665722275.130201,99.000000,0.000000,4283.205078,4282.692383,4292.307617,4300.641113,4299.487305,4296.666504,4300.384766,4308.205078,4297.563965,4297.563965,4452.692383,4466.794922,4356.153809,4407.307617,1948.000000,4.000000,82.000000,,,,0.000000,4.000000,4.000000,4.000000,4.000000,4.000000,4.000000,4.000000,4.000000,4.000000,4.000000,4.000000,4.000000,4.000000,4.000000,100.000000,,,,,,,,,,,,,,,,,,,,,,,,,,,,,,,,,,,,,,,,,,,,,,,
1665722275.137802,1665722275.138010,100.000000,0.000000,4286.922852,4286.410156,4297.820313,4307.820313,4300.897461,4299.743652,4299.230957,4306.282227,4293.717773,4276.666504,4447.179688,4475.000000,4352.179688,4407.563965,2837.000000,4.000000,82.000000,,,,0.000000,4.000000,4.000000,4.000000,4.000000,4.000000,4.000000,4.000000,4.000000,4.000000,4.000000,4.000000,4.000000,4.000000,4.000000,100.000000,,,,,,,,,,,,,,,,,,,,,,,,,,,,,,,,,,,,,,,,,,,,,,,
1665722275.145610,1665722275.145718,101.000000,0.000000,4294.615234,4295.641113,4304.615234,4310.000000,4306.794922,4301.922852,4302.179688,4309.487305,4292.820313,4274.102539,4456.666504,4479.102539,4356.153809,4409.358887,3094.000000,4.000000,82.000000,,,,0.000000,4.000000,4.000000,4.000000,4.000000,4.000000,4.000000,4.000000,4.000000,4.000000,4.000000,4.000000,4.000000,4.000000,4.000000,100.000000,,,,,,,,,,,,,,,,,,,,,,,,,,,,,,,,,,,,,,,,,,,,,,,
1665722275.153418,1665722275.153527,102.000000,0.000000,4291.410156,4293.974121,4302.692383,4308.589844,4297.563965,4297.820313,4302.051270,4309.358887,4293.205078,4282.820313,4457.179688,4479.615234,4359.102539,4408.461426,2476.000000,4.000000,82.000000,,,,0.000000,4.000000,4.000000,4.000000,4.000000,4.000000,4.000000,4.000000,4.000000,4.000000,4.000000,4.000000,4.000000,4.000000,4.000000,100.000000,,,,,,,,,,,,,,,,,,,,,,,,,,,,,,,,,,,,,,,,,,,,,,,
1665722275.161227,1665722275.161235,103.000000,0.000000,4278.205078,4283.974121,4292.179688,4304.871582,4294.358887,4292.307617,4292.051270,4301.410156,4284.743652,4272.307617,4440.128418,4471.666504,4351.282227,4401.025879,1948.000000,4.000000,82.000000,,,,0.000000,4.000000,4.000000,4.000000,4.000000,4.000000,4.000000,4.000000,4.000000,4.000000,4.000000,4.000000,4.000000,4.000000,4.000000,100.000000,,,,,,,,,,,,,,,,,,,,,,,,,,,,,,,,,,,,,,,,,,,,,,,
1665722275.169035,1665722275.169143,104.000000,0.000000,4276.794922,4285.512695,4288.717773,4302.948730,4300.128418,4297.948730,4291.538574,4299.358887,4281.794922,4256.410156,4442.820313,4461.538574,4345.000000,4399.487305,2837.000000,4.000000,82.000000,,,,0.000000,4.000000,4.000000,4.000000,4.000000,4.000000,4.000000,4.000000,4.000000,4.000000,4.000000,4.000000,4.000000,4.000000,4.000000,100.000000,,,,,,,,,,,,,,,,,,,,,,,,,,,,,,,,,,,,,,,,,,,,,,,
1665722275.176843,1665722275.176952,105.000000,0.000000,4285.641113,4294.743652,4297.051270,4307.436035,4300.641113,4305.256348,4302.179688,4307.692383,4293.589844,4263.846191,4461.410156,4468.205078,4349.487305,4407.436035,3094.000000,4.000000,82.000000,,,,0.000000,4.000000,4.000000,4.000000,4.000000,4.000000,4.000000,4.000000,4.000000,4.000000,4.000000,4.000000,4.000000,4.000000,4.000000,100.000000,,,,,,,,,,,,,,,,,,,,,,,,,,,,,,,,,,,,,,,,,,,,,,,
1665722275.184652,1665722275.184860,106.000000,0.000000,4285.000000,4296.282227,4295.384766,4306.794922,4301.153809,4300.000000,4304.487305,4310.897461,4302.563965,4288.717773,4458.846191,4476.794922,4353.846191,4409.102539,2476.000000,4.000000,82.000000,,,,0.000000,4.000000,4.000000,4.000000,4.000000,4.000000,4.000000,4.000000,4.000000,4.000000,4.000000,4.000000,4.000000,4.000000,4.000000,100.000000,,,,,,,,,,,,,,,,,,,,,,,,,,,,,,,,,,,,,,,,,,,,,,,
1665722275.192460,1665722275.192669,107.000000,0.000000,4284.487305,4292.307617,4293.077148,4300.512695,4303.077148,4294.615234,4305.256348,4312.179688,4300.769043,4293.077148,4440.512695,4474.871582,4350.384766,4405.641113,1948.000000,4.000000,82.000000,,,,0.000000,4.000000,4.000000,4.000000,4.000000,4.000000,4.000000,4.000000,4.000000,4.000000,4.000000,4.000000,4.000000,4.000000,4.000000,100.000000,,,,,,,,,,,,,,,,,,,,,,,,,,,,,,,,,,,,,,,,,,,,,,,
1665722275.200268,1665722275.200577,108.000000,0.000000,4292.179688,4293.846191,4295.512695,4311.794922,4301.025879,4297.436035,4306.282227,4314.871582,4298.846191,4278.846191,4442.948730,4473.846191,4349.615234,4407.692383,2837.000000,4.000000,82.000000,,,,0.000000,4.000000,4.000000,4.000000,4.000000,4.000000,4.000000,4.000000,4.000000,4.000000,4.000000,4.000000,4.000000,4.000000,4.000000,100.000000,1.000000,91.666664,4.000000,4.000000,4.000000,4.000000,4.000000,4.000000,4.000000,4.000000,4.000000,3.000000,4.000000,4.000000,4.000000,4.000000,1.000000,0.946502,-0.020131,-1.182001,-0.325187,1.000000,0.203539,2.549175,1.201438,7.822943,0.180081,1.000000,0.382419,45.420223,2.598514,108.555717,1.000000,0.309932,0.111689,0.051443,0.266756,1.000000,0.504843,3.743050,-1.719208,10.437311,1.000000,0.309265,0.309265,0.000000,1.000000
1665722275.208077,1665722275.208386,109.000000,0.000000,4290.000000,4296.282227,4291.538574,4315.384766,4301.410156,4298.077148,4297.692383,4310.384766,4297.051270,4277.436035,4455.769043,4469.743652,4351.922852,4408.717773,3094.000000,4.000000,82.000000,,,,0.000000,4.000000,4.000000,4.000000,4.000000,4.000000,4.000000,4.000000,4.000000,4.000000,4.000000,4.000000,4.000000,4.000000,4.000000,100.000000,,,,,,,,,,,,,,,,,,,,,,,,,,,,,,,,,,,,,,,,,,,,,,,
1665722275.215885,1665722275.216294,110.000000,0.000000,4279.102539,4291.666504,4290.128418,4299.615234,4303.974121,4295.512695,4294.743652,4304.102539,4290.384766,4281.666504,4442.307617,4461.282227,4347.307617,4401.794922,2476.000000,4.000000,82.000000,,,,0.000000,4.000000,4.000000,4.000000,4.000000,4.000000,4.000000,4.000000,4.000000,4.000000,4.000000,4.000000,4.000000,4.000000,4.000000,100.000000,,,,,,,,,,,,,,,,,,,,,,,,,,,,,,,,,,,,,,,,,,,,,,,
1665722275.223694,1665722275.224102,111.000000,0.000000,4282.820313,4289.743652,4296.538574,4300.897461,4299.102539,4295.897461,4298.077148,4302.820313,4281.922852,4275.512695,4427.307617,4456.025879,4341.538574,4398.717773,1948.000000,4.000000,82.000000,,,,0.000000,4.000000,4.000000,4.000000,4.000000,4.000000,4.000000,4.000000,4.000000,4.000000,4.000000,4.000000,4.000000,4.000000,4.000000,100.000000,,,,,,,,,,,,,,,,,,,,,,,,,,,,,,,,,,,,,,,,,,,,,,,
1665722275.231502,1665722275.231911,112.000000,0.000000,4296.025879,4293.846191,4298.974121,4314.358887,4300.000000,4296.538574,4292.563965,4302.820313,4276.794922,4261.410156,4445.000000,4458.333496,4345.897461,4406.025879,2837.000000,4.000000,82.000000,,,,0.000000,4.000000,4.000000,4.000000,4.000000,4.000000,4.000000,4.000000,4.000000,4.000000,4.000000,4.000000,4.000000,4.000000,4.000000,100.000000,,,,,,,,,,,,,,,,,,,,,,,,,,,,,,,,,,,,,,,,,,,,,,,
1665722275.239310,1665722275.239719,113.000000,0.000000,4300.641113,4303.974121,4297.948730,4317.948730,4312.179688,4301.538574,4294.102539,4304.230957,4287.051270,4258.333496,4459.230957,4468.461426,4356.153809,4412.051270,3094.000000,4.000000,82.000000,,,,0.000000,4.000000,4.000000,4.000000,4.000000,4.000000,4.000000,4.000000,4.000000,4.000000,4.000000,4.000000,4.000000,4.000000,4.000000,100.000000,,,,,,,,,,,,,,,,,,,,,,,,,,,,,,,,,,,,,,,,,,,,,,,
1665722275.247119,1665722275.247428,114.000000,0.000000,4297.692383,4306.282227,4299.230957,4311.538574,4308.205078,4305.000000,4303.333496,4304.743652,4296.025879,4276.794922,4446.153809,4467.307617,4356.794922,4407.307617,2476.000000,4.000000,82.000000,,,,0.000000,4.000000,4.000000,4.000000,4.000000,4.000000,4.000000,4.000000,4.000000,4.000000,4.000000,4.000000,4.000000,4.000000,4.000000,100.000000,,,,,,,,,,,,,,,,,,,,,,,,,,,,,,,,,,,,,,,,,,,,,,,
1665722275.254927,1665722275.255236,115.000000,0.000000,4292.692383,4297.307617,4291.538574,4307.051270,4296.282227,4297.948730,4297.692383,4298.589844,4286.410156,4287.307617,4437.692383,4450.000000,4349.230957,4400.000000,1948.000000,4.000000,82.000000,,,,0.000000,4.000000,4.000000,4.000000,4.000000,4.000000,4.000000,4.000000,4.000000,4.000000,4.000000,4.000000,4.000000,4.000000,4.000000,100.000000,,,,,,,,,,,,,,,,,,,,,,,,,,,,,,,,,,,,,,,,,,,,,,,
1665722275.262735,1665722275.262945,116.000000,0.000000,4291.794922,4296.025879,4285.512695,4313.589844,4302.307617,4292.820313,4289.615234,4298.589844,4279.871582,4277.436035,4445.128418,4448.974121,4350.256348,4403.333496,2837.000000,4.000000,82.000000,,,,0.000000,4.000000,4.000000,4.000000,4.000000,4.000000,4.000000,4.000000,4.000000,4.000000,4.000000,4.000000,4.000000,4.000000,4.000000,100.000000,,,,,,,,,,,,,,,,,,,,,,,,,,,,,,,,,,,,,,,,,,,,,,,
1665722275.270544,1665722275.270753,117.000000,0.000000,4288.974121,4298.846191,4287.307617,4309.743652,4308.717773,4294.358887,4292.948730,4303.205078,4291.794922,4275.000000,4448.205078,4461.282227,4355.384766,4405.384766,3094.000000,4.000000,82.000000,,,,0.000000,4.000000,4.000000,4.000000,4.000000,4.000000,4.000000,4.000000,4.000000,4.000000,4.000000,4.000000,4.000000,4.000000,4.000000,100.000000,,,,,,,,,,,,,,,,,,,,,,,,,,,,,,,,,,,,,,,,,,,,,,,
1665722275.278352,1665722275.278462,118.000000,0.000000,4279.615234,4292.563965,4285.000000,4294.487305,4295.641113,4293.717773,4294.871582,4301.282227,4293.077148,4275.641113,4439.615234,4456.282227,4352.692383,4398.333496,2476.000000,4.000000,82.000000,,,,0.000000,4.000000,4.000000,4.000000,4.000000,4.000000,4.000000,4.000000,4.000000,4.000000,4.000000,4.000000,4.000000,4.000000,4.000000,100.000000,,,,,,,,,,,,,,,,,,,,,,,,,,,,,,,,,,,,,,,,,,,,,,,
1665722275.286161,1665722275.286270,119.000000,0.000000,4276.666504,4290.769043,4283.077148,4299.102539,4292.179688,4294.102539,4293.205078,4300.128418,4281.282227,4266.538574,4435.128418,4453.717773,4350.384766,4397.051270,1948.000000,4.000000,82.000000,,,,0.000000,4.000000,4.000000,4.000000,4.000000,4.000000,4.000000,4.000000,4.000000,4.000000,4.000000,4.000000,4.000000,4.000000,4.000000,100.000000,,,,,,,,,,,,,,,,,,,,,,,,,,,,,,,,,,,,,,,,,,,,,,,
1665722275.293969,1665722275.293979,120.000000,0.000000,4283.461426,4295.384766,4287.436035,4316.922852,4302.692383,4296.666504,4294.102539,4303.077148,4282.820313,4268.974121,4447.563965,4465.256348,4354.615234,4403.717773,2837.000000,4.000000,82.000000,,,,0.000000,4.000000,4.000000,4.000000,4.000000,4.000000,4.000000,4.000000,4.000000,4.000000,4.000000,4.000000,4.000000,4.000000,4.000000,100.000000,,,,,,,,,,,,,,,,,,,,,,,,,,,,,,,,,,,,,,,,,,,,,,,
1665722275.301777,1665722275.301787,121.000000,0.000000,4290.256348,4289.871582,4295.256348,4312.436035,4307.051270,4296.538574,4294.487305,4301.666504,4289.615234,4272.820313,4463.717773,4474.743652,4362.051270,4409.358887,3094.000000,4.000000,82.000000,,,,0.000000,4.000000,4.000000,4.000000,4.000000,4.000000,4.000000,4.000000,4.000000,4.000000,4.000000,4.000000,4.000000,4.000000,4.000000,100.000000,,,,,,,,,,,,,,,,,,,,,,,,,,,,,,,,,,,,,,,,,,,,,,,
1665722275.309586,1665722275.309496,122.000000,0.000000,4295.000000,4286.538574,4302.179688,4304.102539,4304.871582,4295.897461,4297.051270,4303.461426,4291.538574,4268.461426,4461.282227,4481.666504,4364.743652,4411.794922,2476.000000,4.000000,82.000000,,,,0.000000,4.000000,4.000000,4.000000,4.000000,4.000000,4.000000,4.000000,4.000000,4.000000,4.000000,4.000000,4.000000,4.000000,4.000000,100.000000,,,,,,,,,,,,,,,,,,,,,,,,,,,,,,,,,,,,,,,,,,,,,,,
1665722275.317394,1665722275.317304,123.000000,0.000000,4296.666504,4293.717773,4300.256348,4311.410156,4299.743652,4299.102539,4298.205078,4307.436035,4294.487305,4278.846191,4451.025879,4483.717773,4359.487305,4409.230957,1948.000000,4.000000,82.000000,,,,0.000000,4.000000,4.000000,4.000000,4.000000,4.000000,4.000000,4.000000,4.000000,4.000000,4.000000,4.000000,4.000000,4.000000,4.000000,100.000000,,,,,,,,,,,,,,,,,,,,,,,,,,,,,,,,,,,,,,,,,,,,,,,
1665722275.325203,1665722275.325013,124.000000,0.000000,4295.128418,4297.051270,4296.282227,4313.333496,4296.794922,4303.333496,4295.256348,4306.666504,4297.436035,4289.230957,4455.641113,4482.563965,4354.230957,4408.717773,2837.000000,4.000000,82.000000,,,,0.000000,4.000000,4.000000,4.000000,4.000000,4.000000,4.000000,4.000000,4.000000,4.000000,4.000000,4.000000,4.000000,4.000000,4.000000,100.000000,,,,,,,,,,,,,,,,,,,,,,,,,,,,,,,,,,,,,,,,,,,,,,,
1665722275.333011,1665722275.332821,125.000000,0.000000,4296.282227,4294.230957,4302.051270,4310.128418,4297.436035,4303.846191,4296.922852,4306.282227,4296.538574,4282.563965,4458.333496,4487.051270,4354.743652,4413.461426,3094.000000,4.000000,82.000000,,,,0.000000,4.000000,4.000000,4.000000,4.000000,4.000000,4.000000,4.000000,4.000000,4.000000,4.000000,4.000000,4.000000,4.000000,4.000000,100.000000,,,,,,,,,,,,,,,,,,,,,,,,,,,,,,,,,,,,,,,,,,,,,,,
1665722275.340819,1665722275.340530,126.000000,0.000000,4298.461426,4295.128418,4307.307617,4312.179688,4295.641113,4303.974121,4299.615234,4309.743652,4295.128418,4274.743652,4448.333496,4492.820313,4357.179688,4416.282227,2476.000000,4.000000,82.000000,,,,0.000000,4.000000,4.000000,4.000000,4.000000,4.000000,4.000000,4.000000,4.000000,4.000000,4.000000,4.000000,4.000000,4.000000,4.000000,100.000000,,,,,,,,,,,,,,,,,,,,,,,,,,,,,,,,,,,,,,,,,,,,,,,
1665722275.348628,1665722275.348438,127.000000,0.000000,4300.641113,4294.487305,4303.846191,4312.820313,4297.563965,4302.051270,4297.948730,4309.358887,4294.358887,4273.205078,4445.128418,4487.051270,4351.282227,4411.153809,82.000000,4.000000,82.000000,,,,0.000000,4.000000,4.000000,4.000000,4.000000,4.000000,4.000000,4.000000,4.000000,4.000000,4.000000,4.000000,4.000000,4.000000,4.000000,100.000000,,,,,,,,,,,,,,,,,,,,,,,,,,,,,,,,,,,,,,,,,,,,,,,
1665722275.356436,1665722275.356247,0.000000,0.000000,4304.102539,4291.922852,4304.102539,4315.000000,4304.230957,4297.436035,4300.128418,4310.641113,4294.871582,4274.743652,4452.820313,4482.307617,4342.051270,4407.948730,1728.000000,4.000000,82.000000,,,,0.000000,4.000000,4.000000,4.000000,4.000000,4.000000,4.000000,4.000000,4.000000,4.000000,4.000000,4.000000,4.000000,4.000000,4.000000,100.000000,,,,,,,,,,,,,,,,,,,,,,,,,,,,,,,,,,,,,,,,,,,,,,,
1665722275.364245,1665722275.364155,1.000000,0.000000,4304.102539,4296.153809,4310.128418,4318.077148,4302.563965,4297.051270,4305.641113,4315.897461,4296.666504,4268.717773,4458.717773,4490.512695,4342.948730,4409.230957,1937.000000,4.000000,82.000000,,,,0.000000,4.000000,4.000000,4.000000,4.000000,4.000000,4.000000,4.000000,4.000000,4.000000,4.000000,4.000000,4.000000,4.000000,4.000000,100.000000,,,,,,,,,,,,,,,,,,,,,,,,,,,,,,,,,,,,,,,,,,,,,,,
1665722275.372053,1665722275.371963,2.000000,0.000000,4301.282227,4297.948730,4312.307617,4312.307617,4301.794922,4301.153809,4306.153809,4315.000000,4295.769043,4257.948730,4451.025879,4494.871582,4349.230957,4407.820313,2349.000000,4.000000,82.000000,,,,0.000000,4.000000,4.000000,4.000000,4.000000,4.000000,4.000000,4.000000,4.000000,4.000000,4.000000,4.000000,4.000000,4.000000,4.000000,100.000000,,,,,,,,,,,,,,,,,,,,,,,,,,,,,,,,,,,,,,,,,,,,,,,
1665722275.379861,1665722275.379872,3.000000,0.000000,4306.025879,4291.282227,4311.410156,4310.256348,4305.512695,4303.717773,4304.743652,4312.179688,4295.897461,4268.333496,4444.743652,4492.692383,4350.256348,4407.436035,2052.000000,4.000000,82.000000,,,,0.000000,4.000000,4.000000,4.000000,4.000000,4.000000,4.000000,4.000000,4.000000,4.000000,4.000000,4.000000,4.000000,4.000000,4.000000,100.000000,,,,,,,,,,,,,,,,,,,,,,,,,,,,,,,,,,,,,,,,,,,,,,,
1665722275.387670,1665722275.387680,4.000000,0.000000,4313.205078,4293.974121,4309.230957,4318.717773,4298.846191,4306.666504,4304.615234,4313.974121,4296.666504,4292.436035,4453.077148,4493.077148,4351.025879,4410.641113,1670.000000,4.000000,82.000000,,,,0.000000,4.000000,4.000000,4.000000,4.000000,4.000000,4.000000,4.000000,4.000000,4.000000,4.000000,4.000000,4.000000,4.000000,4.000000,100.000000,,,,,,,,,,,,,,,,,,,,,,,,,,,,,,,,,,,,,,,,,,,,,,,
1665722275.395478,1665722275.395588,5.000000,0.000000,4308.589844,4299.743652,4310.897461,4318.205078,4296.410156,4310.897461,4307.179688,4316.025879,4296.922852,4291.025879,4463.077148,4492.051270,4353.974121,4412.948730,2237.000000,4.000000,82.000000,,,,0.000000,4.000000,4.000000,4.000000,4.000000,4.000000,4.000000,4.000000,4.000000,4.000000,4.000000,4.000000,4.000000,4.000000,4.000000,100.000000,,,,,,,,,,,,,,,,,,,,,,,,,,,,,,,,,,,,,,,,,,,,,,,
1665722275.403286,1665722275.403397,6.000000,0.000000,4294.615234,4286.666504,4309.615234,4306.410156,4310.641113,4310.641113,4311.282227,4312.179688,4296.282227,4280.256348,4451.538574,4481.538574,4346.153809,4406.538574,2314.000000,4.000000,82.000000,,,,0.000000,4.000000,4.000000,4.000000,4.000000,4.000000,4.000000,4.000000,4.000000,4.000000,4.000000,4.000000,4.000000,4.000000,4.000000,100.000000,,,,,,,,,,,,,,,,,,,,,,,,,,,,,,,,,,,,,,,,,,,,,,,
1665722275.411095,1665722275.411305,7.000000,0.000000,4290.512695,4281.410156,4305.128418,4307.563965,4318.333496,4309.230957,4308.205078,4307.820313,4297.179688,4274.743652,4430.128418,4475.641113,4331.025879,4402.307617,1750.000000,4.000000,82.000000,,,,0.000000,4.000000,4.000000,4.000000,4.000000,4.000000,4.000000,4.000000,4.000000,4.000000,4.000000,4.000000,4.000000,4.000000,4.000000,100.000000,,,,,,,,,,,,,,,,,,,,,,,,,,,,,,,,,,,,,,,,,,,,,,,
1665722275.418903,1665722275.419114,8.000000,0.000000,4299.230957,4304.743652,4301.922852,4320.769043,4311.153809,4308.589844,4301.153809,4306.922852,4295.769043,4266.282227,4430.769043,4474.358887,4328.461426,4403.846191,1993.000000,4.000000,82.000000,,,,0.000000,4.000000,4.000000,4.000000,4.000000,4.000000,4.000000,4.000000,4.000000,4.000000,4.000000,4.000000,4.000000,4.000000,4.000000,100.000000,,,,,,,,,,,,,,,,,,,,,,,,,,,,,,,,,,,,,,,,,,,,,,,
1665722275.426711,1665722275.427022,9.000000,0.000000,4296.025879,4310.000000,4292.948730,4319.230957,4306.410156,4300.769043,4293.846191,4300.769043,4287.948730,4267.692383,4427.820313,4454.871582,4325.769043,4397.563965,2219.000000,4.000000,82.000000,,,,0.000000,4.000000,4.000000,4.000000,4.000000,4.000000,4.000000,4.000000,4.000000,4.000000,4.000000,4.000000,4.000000,4.000000,4.000000,100.000000,,,,,,,,,,,,,,,,,,,,,,,,,,,,,,,,,,,,,,,,,,,,,,,
1665722275.434520,1665722275.434830,10.000000,0.000000,4276.025879,4284.743652,4279.358887,4297.948730,4299.615234,4292.436035,4282.692383,4289.102539,4276.922852,4253.205078,4399.871582,4428.974121,4306.410156,4384.615234,2479.000000,4.000000,82.000000,,,,0.000000,4.000000,4.000000,4.000000,4.000000,4.000000,4.000000,4.000000,4.000000,4.000000,4.000000,4.000000,4.000000,4.000000,4.000000,100.000000,,,,,,,,,,,,,,,,,,,,,,,,,,,,,,,,,,,,,,,,,,,,,,,
1665722275.442328,1665722275.442539,11.000000,0.000000,4258.205078,4271.922852,4275.128418,4285.128418,4285.000000,4291.922852,4278.333496,4286.794922,4267.179688,4221.538574,4384.743652,4417.307617,4283.717773,4376.153809,1947.000000,4.000000,82.000000,,,,0.000000,4.000000,4.000000,4.000000,4.000000,4.000000,4.000000,4.000000,4.000000,4.000000,4.000000,4.000000,4.000000,4.000000,4.000000,100.000000,,,,,,,,,,,,,,,,,,,,,,,,,,,,,,,,,,,,,,,,,,,,,,,
1665722275.450137,1665722275.450347,12.000000,0.000000,4255.128418,4275.512695,4275.384766,4293.717773,4284.102539,4290.897461,4279.487305,4290.000000,4264.358887,4230.897461,4390.256348,4413.846191,4277.820313,4373.589844,2845.000000,4.000000,82.000000,,,,0.000000,4.000000,4.000000,4.000000,4.000000,4.000000,4.000000,4.000000,4.000000,4.000000,4.000000,4.000000,4.000000,4.000000,4.000000,100.000000,,,,,,,,,,,,,,,,,,,,,,,,,,,,,,,,,,,,,,,,,,,,,,,
1665722275.457945,1665722275.458056,13.000000,0.000000,4264.871582,4277.307617,4277.563965,4299.102539,4297.051270,4287.692383,4277.820313,4290.769043,4271.794922,4261.153809,4399.102539,4420.384766,4290.384766,4382.179688,3097.000000,4.000000,82.000000,,,,0.000000,4.000000,4.000000,4.000000,4.000000,4.000000,4.000000,4.000000,4.000000,4.000000,4.000000,4.000000,4.000000,4.000000,4.000000,100.000000,,,,,,,,,,,,,,,,,,,,,,,,,,,,,,,,,,,,,,,,,,,,,,,
1665722275.465753,1665722275.465864,14.000000,0.000000,4280.512695,4286.538574,4288.077148,4298.974121,4300.897461,4294.487305,4289.230957,4298.205078,4283.589844,4265.000000,4415.769043,4442.051270,4312.820313,4397.179688,2479.000000,4.000000,82.000000,,,,0.000000,4.000000,4.000000,4.000000,4.000000,4.000000,4.000000,4.000000,4.000000,4.000000,4.000000,4.000000,4.000000,4.000000,4.000000,100.000000,,,,,,,,,,,,,,,,,,,,,,,,,,,,,,,,,,,,,,,,,,,,,,,
1665722275.473562,1665722275.473773,15.000000,0.000000,4287.307617,4295.128418,4296.794922,4306.922852,4296.794922,4302.692383,4304.615234,4308.974121,4291.794922,4267.307617,4430.384766,4457.948730,4325.512695,4399.230957,1947.000000,4.000000,82.000000,,,,0.000000,4.000000,4.000000,4.000000,4.000000,4.000000,4.000000,4.000000,4.000000,4.000000,4.000000,4.000000,4.000000,4.000000,4.000000,100.000000,,,,,,,,,,,,,,,,,,,,,,,,,,,,,,,,,,,,,,,,,,,,,,,
1665722275.481370,1665722275.481581,16.000000,0.000000,4282.436035,4289.358887,4295.769043,4303.205078,4294.487305,4298.461426,4300.256348,4309.102539,4293.589844,4272.307617,4421.666504,4457.820313,4319.743652,4391.282227,0.000000,4.000000,82.000000,,,,0.000000,4.000000,4.000000,4.000000,4.000000,4.000000,4.000000,4.000000,4.000000,4.000000,4.000000,4.000000,4.000000,4.000000,4.000000,100.000000,,,,,,,,,,,,,,,,,,,,,,,,,,,,,,,,,,,,,,,,,,,,,,,
1665722275.489179,1665722275.489290,17.000000,0.000000,4286.410156,4285.769043,4296.025879,4291.666504,4290.641113,4292.436035,4292.563965,4304.358887,4292.948730,4260.384766,4420.128418,4465.641113,4320.000000,4394.871582,0.000000,4.000000,82.000000,,,,0.000000,4.000000,4.000000,4.000000,4.000000,4.000000,4.000000,4.000000,4.000000,4.000000,4.000000,4.000000,4.000000,4.000000,4.000000,100.000000,,,,,,,,,,,,,,,,,,,,,,,,,,,,,,,,,,,,,,,,,,,,,,,
1665722275.496987,1665722275.497098,18.000000,0.000000,4297.692383,4291.794922,4299.358887,4299.871582,4293.077148,4300.384766,4300.897461,4308.461426,4294.615234,4268.846191,4435.897461,4473.846191,4328.717773,4402.436035,0.000000,4.000000,82.000000,1,1,1,0.000000,4.000000,4.000000,4.000000,4.000000,4.000000,4.000000,4.000000,4.000000,4.000000,4.000000,4.000000,4.000000,4.000000,4.000000,100.000000,,,,,,,,,,,,,,,,,,,,,,,,,,,,,,,,,,,,,,,,,,,,,,,
1665722275.504795,1665722275.504807,19.000000,0.000000,4297.436035,4292.307617,4295.256348,4316.282227,4306.666504,4308.974121,4308.846191,4314.358887,4296.794922,4280.641113,4437.948730,4469.487305,4328.205078,4401.922852,0.000000,4.000000,82.000000,,,,0.000000,4.000000,4.000000,4.000000,4.000000,4.000000,4.000000,4.000000,4.000000,4.000000,4.000000,4.000000,4.000000,4.000000,4.000000,100.000000,,,,,,,,,,,,,,,,,,,,,,,,,,,,,,,,,,,,,,,,,,,,,,,
1665722275.512604,1665722275.512715,20.000000,0.000000,4296.153809,4294.743652,4296.153809,4314.743652,4307.436035,4305.128418,4311.282227,4315.512695,4295.897461,4256.410156,4433.846191,4474.358887,4326.538574,4403.717773,0.000000,4.000000,82.000000,,,,0.000000,4.000000,4.000000,4.000000,4.000000,4.000000,4.000000,4.000000,4.000000,4.000000,4.000000,4.000000,4.000000,4.000000,4.000000,100.000000,,,,,,,,,,,,,,,,,,,,,,,,,,,,,,,,,,,,,,,,,,,,,,,
1665722275.520412,1665722275.520524,21.000000,0.000000,4297.692383,4294.615234,4302.307617,4301.025879,4298.205078,4299.615234,4310.384766,4312.051270,4292.820313,4250.256348,4434.358887,4478.333496,4327.820313,4402.307617,0.000000,4.000000,82.000000,,,,0.000000,4.000000,4.000000,4.000000,4.000000,4.000000,4.000000,4.000000,4.000000,4.000000,4.000000,4.000000,4.000000,4.000000,4.000000,100.000000,,,,,,,,,,,,,,,,,,,,,,,,,,,,,,,,,,,,,,,,,,,,,,,
1665722275.528221,1665722275.528432,22.000000,0.000000,4291.410156,4283.077148,4300.000000,4294.743652,4296.538574,4298.717773,4303.205078,4310.384766,4286.666504,4273.717773,4431.410156,4470.769043,4322.692383,4395.512695,0.000000,4.000000,82.000000,,,,0.000000,4.000000,4.000000,4.000000,4.000000,4.000000,4.000000,4.000000,4.000000,4.000000,4.000000,4.000000,4.000000,4.000000,4.000000,100.000000,,,,,,,,,,,,,,,,,,,,,,,,,,,,,,,,,,,,,,,,,,,,,,,
1665722275.536029,1665722275.536240,23.000000,0.000000,4289.871582,4286.538574,4294.615234,4305.384766,4295.897461,4297.948730,4302.563965,4314.102539,4287.692383,4278.205078,4427.820313,4472.820313,4320.897461,4397.051270,0.000000,4.000000,82.000000,,,,0.000000,4.000000,4.000000,4.000000,4.000000,4.000000,4.000000,4.000000,4.000000,4.000000,4.000000,4.000000,4.000000,4.000000,4.000000,100.000000,,,,,,,,,,,,,,,,,,,,,,,,,,,,,,,,,,,,,,,,,,,,,,,
1665722275.543837,1665722275.544149,24.000000,0.000000,4294.871582,4301.666504,4294.487305,4312.692383,4295.128418,4296.794922,4306.025879,4314.743652,4295.769043,4267.307617,4427.820313,4476.410156,4329.230957,4401.282227,0.000000,4.000000,82.000000,,,,0.000000,4.000000,4.000000,4.000000,4.000000,4.000000,4.000000,4.000000,4.000000,4.000000,4.000000,4.000000,4.000000,4.000000,4.000000,100.000000,,,,,,,,,,,,,,,,,,,,,,,,,,,,,,,,,,,,,,,,,,,,,,,
1665722275.551646,1665722275.551957,25.000000,0.000000,4290.897461,4297.436035,4291.666504,4302.307617,4292.820313,4296.666504,4298.717773,4306.025879,4295.000000,4263.589844,4433.461426,4463.846191,4332.948730,4396.153809,0.000000,4.000000,82.000000,,,,0.000000,4.000000,4.000000,4.000000,4.000000,4.000000,4.000000,4.000000,4.000000,4.000000,4.000000,4.000000,4.000000,4.000000,4.000000,100.000000,,,,,,,,,,,,,,,,,,,,,,,,,,,,,,,,,,,,,,,,,,,,,,,
1665722275.559454,1665722275.559866,26.000000,0.000000,4292.051270,4289.743652,4291.153809,4296.922852,4291.538574,4297.179688,4296.666504,4302.051270,4291.538574,4266.025879,4440.769043,4462.948730,4329.358887,4396.025879,0.000000,4.000000,82.000000,,,,0.000000,4.000000,4.000000,4.000000,4.000000,4.000000,4.000000,4.000000,4.000000,4.000000,4.000000,4.000000,4.000000,4.000000,4.000000,100.000000,,,,,,,,,,,,,,,,,,,,,,,,,,,,,,,,,,,,,,,,,,,,,,,
1665722275.567262,1665722275.567674,27.000000,0.000000,4300.256348,4297.563965,4295.897461,4305.769043,4304.102539,4298.077148,4306.666504,4307.692383,4293.205078,4270.384766,4441.794922,4474.230957,4330.128418,4402.948730,0.000000,4.000000,82.000000,,,,0.000000,4.000000,4.000000,4.000000,4.000000,4.000000,4.000000,4.000000,4.000000,4.000000,4.000000,4.000000,4.000000,4.000000,4.000000,100.000000,,,,,,,,,,,,,,,,,,,,,,,,,,,,,,,,,,,,,,,,,,,,,,,
1665722275.575071,1665722275.575582,28.000000,0.000000,4297.563965,4299.358887,4294.871582,4310.128418,4311.282227,4297.179688,4304.615234,4310.897461,4287.436035,4258.205078,4433.205078,4471.922852,4332.692383,4404.487305,0.000000,4.000000,82.000000,,,,0.000000,4.000000,4.000000,4.000000,4.000000,4.000000,4.000000,4.000000,4.000000,4.000000,4.000000,4.000000,4.000000,4.000000,4.000000,100.000000,,,,,,,,,,,,,,,,,,,,,,,,,,,,,,,,,,,,,,,,,,,,,,,
1665722275.582879,1665722275.583391,29.000000,0.000000,4289.743652,4292.436035,4294.230957,4307.179688,4299.871582,4294.871582,4294.102539,4307.948730,4285.384766,4245.897461,4427.051270,4468.717773,4331.282227,4403.974121,0.000000,4.000000,82.000000,,,,0.000000,4.000000,4.000000,4.000000,4.000000,4.000000,4.000000,4.000000,4.000000,4.000000,4.000000,4.000000,4.000000,4.000000,4.000000,100.000000,,,,,,,,,,,,,,,,,,,,,,,,,,,,,,,,,,,,,,,,,,,,,,,
1665722275.590688,1665722275.591299,30.000000,0.000000,4294.743652,4296.282227,4302.820313,4311.794922,4296.794922,4296.538574,4296.666504,4308.333496,4295.897461,4273.333496,4439.487305,4476.666504,4336.794922,4407.307617,0.000000,4.000000,82.000000,,,,0.000000,4.000000,4.000000,4.000000,4.000000,4.000000,4.000000,4.000000,4.000000,4.000000,4.000000,4.000000,4.000000,4.000000,4.000000,100.000000,,,,,,,,,,,,,,,,,,,,,,,,,,,,,,,,,,,,,,,,,,,,,,,
1665722275.598496,1665722275.599108,31.000000,0.000000,4298.589844,4298.846191,4302.820313,4312.307617,4303.846191,4297.820313,4300.512695,4308.717773,4292.692383,4293.717773,4449.358887,4475.512695,4343.846191,4408.205078,0.000000,4.000000,82.000000,,,,0.000000,4.000000,4.000000,4.000000,4.000000,4.000000,4.000000,4.000000,4.000000,4.000000,4.000000,4.000000,4.000000,4.000000,4.000000,100.000000,,,,,,,,,,,,,,,,,,,,,,,,,,,,,,,,,,,,,,,,,,,,,,,
1665722275.606304,1665722275.606816,32.000000,0.000000,4290.897461,4294.102539,4292.051270,4303.205078,4296.666504,4295.641113,4296.025879,4303.205078,4278.717773,4269.871582,4433.717773,4466.538574,4335.897461,4405.128418,0.000000,4.000000,82.000000,,,,0.000000,4.000000,4.000000,4.000000,4.000000,4.000000,4.000000,4.000000,4.000000,4.000000,4.000000,4.000000,4.000000,4.000000,4.000000,100.000000,,,,,,,,,,,,,,,,,,,,,,,,,,,,,,,,,,,,,,,,,,,,,,,
1665722275.614113,1665722275.614625,33.000000,0.000000,4287.051270,4293.205078,4293.077148,4302.692383,4293.077148,4293.461426,4291.922852,4300.256348,4280.000000,4255.512695,4426.666504,4468.717773,4327.179688,4404.743652,0.000000,4.000000,82.000000,,,,0.000000,4.000000,4.000000,4.000000,4.000000,4.000000,4.000000,4.000000,4.000000,4.000000,4.000000,4.000000,4.000000,4.000000,4.000000,100.000000,,,,,,,,,,,,,,,,,,,,,,,,,,,,,,,,,,,,,,,,,,,,,,,
1665722275.621921,1665722275.622333,34.000000,0.000000,4295.769043,4297.563965,4304.871582,4309.871582,4305.384766,4293.077148,4294.102539,4305.641113,4292.051270,4276.666504,4451.153809,4481.410156,4339.102539,4407.179688,0.000000,4.000000,82.000000,,,,0.000000,4.000000,4.000000,4.000000,4.000000,4.000000,4.000000,4.000000,4.000000,4.000000,4.000000,4.000000,4.000000,4.000000,4.000000,100.000000,,,,,,,,,,,,,,,,,,,,,,,,,,,,,,,,,,,,,,,,,,,,,,,
1665722275.629729,1665722275.630142,35.000000,0.000000,4302.820313,4298.589844,4311.538574,4312.948730,4303.077148,4294.871582,4300.512695,4314.487305,4297.563965,4283.717773,4461.153809,4488.974121,4350.384766,4409.743652,0.000000,4.000000,82.000000,,,,0.000000,4.000000,4.000000,4.000000,4.000000,4.000000,4.000000,4.000000,4.000000,4.000000,4.000000,4.000000,4.000000,4.000000,4.000000,100.000000,,,,,,,,,,,,,,,,,,,,,,,,,,,,,,,,,,,,,,,,,,,,,,,
1665722275.637538,1665722275.637850,36.000000,0.000000,4298.205078,4297.051270,4306.410156,4310.769043,4291.666504,4297.051270,4300.897461,4316.794922,4295.897461,4262.051270,4446.794922,4486.666504,4343.974121,4408.974121,0.000000,4.000000,82.000000,,,,0.000000,4.000000,4.000000,4.000000,4.000000,4.000000,4.000000,4.000000,4.000000,4.000000,4.000000,4.000000,4.000000,4.000000,4.000000,100.000000,,,,,,,,,,,,,,,,,,,,,,,,,,,,,,,,,,,,,,,,,,,,,,,
1665722275.645346,1665722275.645758,37.000000,0.000000,4294.102539,4297.307617,4299.487305,4309.487305,4295.897461,4294.230957,4293.589844,4312.307617,4291.538574,4256.538574,4443.461426,4480.128418,4340.256348,4404.743652,0.000000,4.000000,82.000000,,,,0.000000,4.000000,4.000000,4.000000,4.000000,4.000000,4.000000,4.000000,4.000000,4.000000,4.000000,4.000000,4.000000,4.000000,4.000000,100.000000,,,,,,,,,,,,,,,,,,,,,,,,,,,,,,,,,,,,,,,,,,,,,,,
1665722275.653154,1665722275.653567,38.000000,0.000000,4296.282227,4296.538574,4296.666504,4308.461426,4299.615234,4293.205078,4293.205078,4308.333496,4291.538574,4277.692383,4452.692383,4479.871582,4346.282227,4401.922852,0.000000,4.000000,82.000000,,,,0.000000,4.000000,4.000000,4.000000,4.000000,4.000000,4.000000,4.000000,4.000000,4.000000,4.000000,4.000000,4.000000,4.000000,4.000000,100.000000,,,,,,,,,,,,,,,,,,,,,,,,,,,,,,,,,,,,,,,,,,,,,,,
1665722275.660963,1665722275.661375,39.000000,0.000000,4302.179688,4297.051270,4298.974121,4308.846191,4296.922852,4296.282227,4297.051270,4307.436035,4293.846191,4289.743652,4459.358887,4483.846191,4349.871582,4403.846191,0.000000,4.000000,82.000000,,,,0.000000,4.000000,4.000000,4.000000,4.000000,4.000000,4.000000,4.000000,4.000000,4.000000,4.000000,4.000000,4.000000,4.000000,4.000000,100.000000,,,,,,,,,,,,,,,,,,,,,,,,,,,,,,,,,,,,,,,,,,,,,,,
1665722275.668771,1665722275.669084,40.000000,0.000000,4303.974121,4299.358887,4301.922852,4314.871582,4303.205078,4297.563965,4295.641113,4305.256348,4291.025879,4281.922852,4453.461426,4482.692383,4346.538574,4402.436035,0.000000,4.000000,82.000000,,,,0.000000,4.000000,4.000000,4.000000,4.000000,4.000000,4.000000,4.000000,4.000000,4.000000,4.000000,4.000000,4.000000,4.000000,4.000000,100.000000,,,,,,,,,,,,,,,,,,,,,,,,,,,,,,,,,,,,,,,,,,,,,,,
1665722275.676580,1665722275.676892,41.000000,0.000000,4297.179688,4296.538574,4302.307617,4311.666504,4306.794922,4295.000000,4295.512695,4304.743652,4290.384766,4271.794922,4437.051270,4479.743652,4340.897461,4398.717773,0.000000,4.000000,82.000000,,,,0.000000,4.000000,4.000000,4.000000,4.000000,4.000000,4.000000,4.000000,4.000000,4.000000,4.000000,4.000000,4.000000,4.000000,4.000000,100.000000,,,,,,,,,,,,,,,,,,,,,,,,,,,,,,,,,,,,,,,,,,,,,,,
1665722275.684388,1665722275.684601,42.000000,0.000000,4292.692383,4295.384766,4301.794922,4299.743652,4295.897461,4293.717773,4297.051270,4309.487305,4294.230957,4271.153809,4441.410156,4480.512695,4342.563965,4401.666504,0.000000,4.000000,82.000000,,,,0.000000,4.000000,4.000000,4.000000,4.000000,4.000000,4.000000,4.000000,4.000000,4.000000,4.000000,4.000000,4.000000,4.000000,4.000000,100.000000,,,,,,,,,,,,,,,,,,,,,,,,,,,,,,,,,,,,,,,,,,,,,,,
1665722275.692196,1665722275.692409,43.000000,0.000000,4297.563965,4299.487305,4300.512695,4302.051270,4293.717773,4295.641113,4298.846191,4314.615234,4296.025879,4285.897461,4461.410156,4480.128418,4350.769043,4405.897461,0.000000,4.000000,82.000000,,,,0.000000,4.000000,4.000000,4.000000,4.000000,4.000000,4.000000,4.000000,4.000000,4.000000,4.000000,4.000000,4.000000,4.000000,4.000000,100.000000,,,,,,,,,,,,,,,,,,,,,,,,,,,,,,,,,,,,,,,,,,,,,,,
1665722275.700005,1665722275.700118,44.000000,0.000000,4297.307617,4300.256348,4295.769043,4311.025879,4299.102539,4296.153809,4300.897461,4311.922852,4294.487305,4284.871582,4454.102539,4475.641113,4346.538574,4400.128418,0.000000,4.000000,82.000000,,,,0.000000,4.000000,4.000000,4.000000,4.000000,4.000000,4.000000,4.000000,4.000000,4.000000,4.000000,4.000000,4.000000,4.000000,4.000000,100.000000,1.000000,100.000000,4.000000,4.000000,4.000000,4.000000,4.000000,4.000000,4.000000,4.000000,4.000000,4.000000,4.000000,4.000000,4.000000,4.000000,1.000000,0.946502,0.117133,-1.182001,-0.325187,1.000000,0.196278,2.501091,1.201438,7.822943,0.180272,1.000000,0.372989,44.565815,2.605460,108.534767,1.000000,0.304309,0.114813,0.051463,0.266715,1.000000,0.482656,3.685865,-1.717824,10.435342,1.000000,0.308451,0.308451,0.000000,1.000000
1665722275.707813,1665722275.707926,45.000000,0.000000,4286.922852,4293.589844,4295.000000,4306.282227,4295.000000,4293.589844,4300.000000,4311.282227,4293.846191,4258.077148,4436.153809,4471.538574,4332.692383,4398.461426,0.000000,4.000000,82.000000,,,,0.000000,4.000000,4.000000,4.000000,4.000000,4.000000,4.000000,4.000000,4.000000,4.000000,4.000000,4.000000,4.000000,4.000000,4.000000,100.000000,,,,,,,,,,,,,,,,,,,,,,,,,,,,,,,,,,,,,,,,,,,,,,,
1665722275.715622,1665722275.715635,46.000000,0.000000,4286.922852,4291.794922,4300.512695,4306.410156,4296.666504,4297.436035,4303.205078,4316.282227,4296.025879,4261.922852,4446.410156,4474.615234,4337.179688,4405.769043,0.000000,4.000000,82.000000,,,,0.000000,4.000000,4.000000,4.000000,4.000000,4.000000,4.000000,4.000000,4.000000,4.000000,4.000000,4.000000,4.000000,4.000000,4.000000,100.000000,,,,,,,,,,,,,,,,,,,,,,,,,,,,,,,,,,,,,,,,,,,,,,,
1665722275.723430,1665722275.723543,47.000000,0.000000,4299.102539,4298.205078,4302.692383,4312.051270,4303.589844,4303.461426,4312.179688,4313.077148,4296.922852,4290.384766,4461.794922,4484.615234,4355.384766,4410.384766,0.000000,4.000000,82.000000,,,,0.000000,4.000000,4.000000,4.000000,4.000000,4.000000,4.000000,4.000000,4.000000,4.000000,4.000000,4.000000,4.000000,4.000000,4.000000,100.000000,,,,,,,,,,,,,,,,,,,,,,,,,,,,,,,,,,,,,,,,,,,,,,,
1665722275.731238,1665722275.731352,48.000000,0.000000,4305.641113,4305.000000,4299.102539,4308.589844,4306.922852,4301.410156,4311.922852,4308.077148,4295.128418,4287.820313,4458.846191,4487.051270,4361.538574,4410.000000,0.000000,4.000000,82.000000,,,,0.000000,4.000000,4.000000,4.000000,4.000000,4.000000,4.000000,4.000000,4.000000,4.000000,4.000000,4.000000,4.000000,4.000000,4.000000,100.000000,,,,,,,,,,,,,,,,,,,,,,,,,,,,,,,,,,,,,,,,,,,,,,,
1665722275.739047,1665722275.739260,49.000000,0.000000,4303.589844,4309.487305,4301.282227,4310.512695,4304.230957,4300.641113,4300.641113,4311.282227,4295.897461,4274.487305,4456.282227,4482.436035,4357.051270,4408.589844,0.000000,4.000000,82.000000,,,,0.000000,4.000000,4.000000,4.000000,4.000000,4.000000,4.000000,4.000000,4.000000,4.000000,4.000000,4.000000,4.000000,4.000000,4.000000,100.000000,,,,,,,,,,,,,,,,,,,,,,,,,,,,,,,,,,,,,,,,,,,,,,,
1665722275.746855,1665722275.747068,50.000000,0.000000,4303.205078,4312.948730,4308.205078,4318.461426,4302.820313,4304.743652,4298.205078,4314.743652,4298.589844,4280.256348,4461.666504,4482.436035,4355.128418,4407.307617,0.000000,4.000000,82.000000,,,,0.000000,4.000000,4.000000,4.000000,4.000000,4.000000,4.000000,4.000000,4.000000,4.000000,4.000000,4.000000,4.000000,4.000000,4.000000,100.000000,,,,,,,,,,,,,,,,,,,,,,,,,,,,,,,,,,,,,,,,,,,,,,,
1665722275.754664,1665722275.754977,51.000000,0.000000,4303.461426,4305.512695,4307.692383,4313.333496,4305.256348,4298.589844,4302.563965,4313.333496,4295.641113,4277.563965,4455.897461,4483.077148,4353.846191,4408.077148,0.000000,4.000000,82.000000,,,,0.000000,4.000000,4.000000,4.000000,4.000000,4.000000,4.000000,4.000000,4.000000,4.000000,4.000000,4.000000,4.000000,4.000000,4.000000,100.000000,,,,,,,,,,,,,,,,,,,,,,,,,,,,,,,,,,,,,,,,,,,,,,,
1665722275.762472,1665722275.762785,52.000000,0.000000,4303.205078,4298.205078,4303.974121,4312.563965,4301.794922,4292.948730,4306.025879,4312.820313,4291.538574,4269.743652,4441.410156,4481.025879,4351.794922,4411.153809,0.000000,4.000000,82.000000,,,,0.000000,4.000000,4.000000,4.000000,4.000000,4.000000,4.000000,4.000000,4.000000,4.000000,4.000000,4.000000,4.000000,4.000000,4.000000,100.000000,,,,,,,,,,,,,,,,,,,,,,,,,,,,,,,,,,,,,,,,,,,,,,,
1665722275.770280,1665722275.770694,53.000000,0.000000,4306.410156,4304.487305,4304.487305,4316.666504,4300.512695,4301.922852,4310.384766,4312.948730,4293.589844,4271.538574,4447.563965,4483.461426,4355.512695,4411.794922,0.000000,4.000000,82.000000,,,,0.000000,4.000000,4.000000,4.000000,4.000000,4.000000,4.000000,4.000000,4.000000,4.000000,4.000000,4.000000,4.000000,4.000000,4.000000,100.000000,,,,,,,,,,,,,,,,,,,,,,,,,,,,,,,,,,,,,,,,,,,,,,,
1665722275.778089,1665722275.778502,54.000000,0.000000,4304.615234,4305.128418,4307.563965,4308.333496,4307.051270,4304.358887,4308.461426,4311.794922,4293.589844,4269.743652,4464.230957,4488.461426,4358.077148,4412.307617,0.000000,4.000000,82.000000,,,,0.000000,4.000000,4.000000,4.000000,4.000000,4.000000,4.000000,4.000000,4.000000,4.000000,4.000000,4.000000,4.000000,4.000000,4.000000,100.000000,,,,,,,,,,,,,,,,,,,,,,,,,,,,,,,,,,,,,,,,,,,,,,,
1665722275.785897,1665722275.786410,55.000000,0.000000,4301.922852,4302.179688,4308.717773,4310.000000,4308.717773,4298.589844,4307.436035,4314.871582,4296.282227,4284.743652,4469.230957,4493.974121,4359.615234,4415.128418,0.000000,4.000000,82.000000,,,,0.000000,4.000000,4.000000,4.000000,4.000000,4.000000,4.000000,4.000000,4.000000,4.000000,4.000000,4.000000,4.000000,4.000000,4.000000,100.000000,,,,,,,,,,,,,,,,,,,,,,,,,,,,,,,,,,,,,,,,,,,,,,,
1665722275.793706,1665722275.794219,56.000000,0.000000,4306.153809,4308.077148,4309.487305,4321.025879,4302.692383,4300.769043,4312.948730,4320.769043,4304.871582,4306.794922,4466.666504,4505.769043,4366.922852,4417.051270,0.000000,4.000000,82.000000,,,,0.000000,4.000000,4.000000,4.000000,4.000000,4.000000,4.000000,4.000000,4.000000,4.000000,4.000000,4.000000,4.000000,4.000000,4.000000,100.000000,,,,,,,,,,,,,,,,,,,,,,,,,,,,,,,,,,,,,,,,,,,,,,,
1665722275.801514,1665722275.802027,57.000000,0.000000,4309.230957,4306.538574,4308.461426,4316.666504,4305.128418,4302.948730,4309.743652,4317.948730,4302.820313,4295.641113,4463.077148,4510.128418,4367.307617,4414.743652,0.000000,4.000000,82.000000,,,,0.000000,4.000000,4.000000,4.000000,4.000000,4.000000,4.000000,4.000000,4.000000,4.000000,4.000000,4.000000,4.000000,4.000000,4.000000,100.000000,,,,,,,,,,,,,,,,,,,,,,,,,,,,,,,,,,,,,,,,,,,,,,,
1665722275.809322,1665722275.809836,58.000000,0.000000,4310.897461,4303.846191,4312.307617,4310.897461,4309.102539,4304.615234,4304.871582,4315.897461,4295.256348,4275.128418,4461.666504,4504.871582,4358.205078,4414.871582,0.000000,4.000000,82.000000,,,,0.000000,4.000000,4.000000,4.000000,4.000000,4.000000,4.000000,4.000000,4.000000,4.000000,4.000000,4.000000,4.000000,4.000000,4.000000,100.000000,,,,,,,,,,,,,,,,,,,,,,,,,,,,,,,,,,,,,,,,,,,,,,,
1665722275.817131,1665722275.817544,59.000000,0.000000,4312.948730,4311.025879,4315.512695,4318.589844,4306.153809,4311.282227,4315.000000,4321.153809,4297.436035,4279.487305,4464.871582,4505.128418,4359.743652,4415.000000,0.000000,4.000000,82.000000,,,,0.000000,4.000000,4.000000,4.000000,4.000000,4.000000,4.000000,4.000000,4.000000,4.000000,4.000000,4.000000,4.000000,4.000000,4.000000,100.000000,,,,,,,,,,,,,,,,,,,,,,,,,,,,,,,,,,,,,,,,,,,,,,,
1665722275.824939,1665722275.825353,60.000000,0.000000,4305.769043,4306.922852,4307.051270,4321.153809,4309.871582,4312.948730,4318.846191,4321.153809,4300.256348,4289.358887,4464.358887,4508.461426,4368.589844,4411.025879,0.000000,4.000000,82.000000,,,,0.000000,4.000000,4.000000,4.000000,4.000000,4.000000,4.000000,4.000000,4.000000,4.000000,4.000000,4.000000,4.000000,4.000000,4.000000,100.000000,,,,,,,,,,,,,,,,,,,,,,,,,,,,,,,,,,,,,,,,,,,,,,,
1665722275.832747,1665722275.833061,61.000000,0.000000,4296.282227,4293.205078,4298.974121,4314.487305,4311.922852,4308.974121,4307.563965,4314.871582,4296.410156,4277.179688,4458.077148,4502.436035,4363.205078,4409.358887,0.000000,4.000000,82.000000,,,,0.000000,4.000000,4.000000,4.000000,4.000000,4.000000,4.000000,4.000000,4.000000,4.000000,4.000000,4.000000,4.000000,4.000000,4.000000,100.000000,,,,,,,,,,,,,,,,,,,,,,,,,,,,,,,,,,,,,,,,,,,,,,,
1665722275.840556,1665722275.840870,62.000000,0.000000,4296.538574,4296.538574,4302.179688,4312.820313,4306.538574,4307.179688,4305.512695,4318.461426,4294.871582,4261.153809,4461.282227,4491.538574,4356.282227,4412.179688,0.000000,4.000000,82.000000,,,,0.000000,4.000000,4.000000,4.000000,4.000000,4.000000,4.000000,4.000000,4.000000,4.000000,4.000000,4.000000,4.000000,4.000000,4.000000,100.000000,,,,,,,,,,,,,,,,,,,,,,,,,,,,,,,,,,,,,,,,,,,,,,,
1665722275.848364,1665722275.848578,63.000000,0.000000,4297.307617,4299.102539,4310.000000,4309.358887,4299.358887,4301.153809,4308.333496,4321.025879,4296.666504,4269.871582,4460.512695,4488.846191,4357.820313,4409.615234,0.000000,4.000000,82.000000,,,,0.000000,4.000000,4.000000,4.000000,4.000000,4.000000,4.000000,4.000000,4.000000,4.000000,4.000000,4.000000,4.000000,4.000000,4.000000,100.000000,,,,,,,,,,,,,,,,,,,,,,,,,,,,,,,,,,,,,,,,,,,,,,,
1665722275.856172,1665722275.856387,64.000000,0.000000,4297.948730,4296.025879,4309.487305,4308.205078,4295.769043,4299.358887,4308.846191,4315.256348,4295.256348,4286.922852,4447.179688,4492.051270,4355.128418,4403.461426,1740.000000,4.000000,82.000000,,,,0.000000,4.000000,4.000000,4.000000,4.000000,4.000000,4.000000,4.000000,4.000000,4.000000,4.000000,4.000000,4.000000,4.000000,4.000000,100.000000,,,,,,,,,,,,,,,,,,,,,,,,,,,,,,,,,,,,,,,,,,,,,,,
1665722275.863981,1665722275.864095,65.000000,0.000000,4302.051270,4303.077148,4303.846191,4313.974121,4301.282227,4306.538574,4311.025879,4313.974121,4292.051270,4282.692383,4448.974121,4490.000000,4351.794922,4404.230957,1947.000000,4.000000,82.000000,,,,0.000000,4.000000,4.000000,4.000000,4.000000,4.000000,4.000000,4.000000,4.000000,4.000000,4.000000,4.000000,4.000000,4.000000,4.000000,100.000000,,,,,,,,,,,,,,,,,,,,,,,,,,,,,,,,,,,,,,,,,,,,,,,
1665722275.871789,1665722275.871904,66.000000,0.000000,4300.641113,4305.256348,4301.153809,4310.128418,4308.846191,4304.871582,4304.102539,4309.487305,4289.230957,4282.692383,4459.358887,4480.512695,4352.436035,4402.820313,2354.000000,4.000000,82.000000,,,,0.000000,4.000000,4.000000,4.000000,4.000000,4.000000,4.000000,4.000000,4.000000,4.000000,4.000000,4.000000,4.000000,4.000000,4.000000,100.000000,,,,,,,,,,,,,,,,,,,,,,,,,,,,,,,,,,,,,,,,,,,,,,,
1665722275.879598,1665722275.879612,67.000000,0.000000,4294.871582,4295.769043,4299.358887,4302.436035,4305.384766,4294.230957,4292.179688,4301.922852,4286.410156,4285.128418,4450.000000,4468.461426,4349.871582,4396.282227,2065.000000,4.000000,82.000000,,,,0.000000,4.000000,4.000000,4.000000,4.000000,4.000000,4.000000,4.000000,4.000000,4.000000,4.000000,4.000000,4.000000,4.000000,4.000000,100.000000,,,,,,,,,,,,,,,,,,,,,,,,,,,,,,,,,,,,,,,,,,,,,,,
1665722275.887406,1665722275.887421,68.000000,0.000000,4291.794922,4291.666504,4293.077148,4306.538574,4300.641113,4292.563965,4291.922852,4304.230957,4282.436035,4262.692383,4435.384766,4462.820313,4344.102539,4393.974121,1658.000000,4.000000,82.000000,,,,0.000000,4.000000,4.000000,4.000000,4.000000,4.000000,4.000000,4.000000,4.000000,4.000000,4.000000,4.000000,4.000000,4.000000,4.000000,100.000000,,,,,,,,,,,,,,,,,,,,,,,,,,,,,,,,,,,,,,,,,,,,,,,
1665722275.895214,1665722275.895129,69.000000,0.000000,4292.179688,4297.179688,4288.846191,4311.153809,4303.077148,4297.948730,4297.051270,4307.820313,4281.922852,4260.512695,4440.512695,4462.051270,4342.692383,4400.512695,2242.000000,4.000000,82.000000,,,,0.000000,4.000000,4.000000,4.000000,4.000000,4.000000,4.000000,4.000000,4.000000,4.000000,4.000000,4.000000,4.000000,4.000000,4.000000,100.000000,,,,,,,,,,,,,,,,,,,,,,,,,,,,,,,,,,,,,,,,,,,,,,,
1665722275.903023,1665722275.902938,70.000000,0.000000,4296.025879,4299.102539,4291.282227,4308.974121,4302.179688,4296.666504,4296.666504,4303.333496,4289.358887,4283.846191,4445.128418,4463.846191,4346.282227,4405.641113,2314.000000,4.000000,82.000000,,,,0.000000,4.000000,4.000000,4.000000,4.000000,4.000000,4.000000,4.000000,4.000000,4.000000,4.000000,4.000000,4.000000,4.000000,4.000000,100.000000,,,,,,,,,,,,,,,,,,,,,,,,,,,,,,,,,,,,,,,,,,,,,,,
1665722275.910831,1665722275.910646,71.000000,0.000000,4297.948730,4296.282227,4297.436035,4307.179688,4298.461426,4296.794922,4298.974121,4303.333496,4294.487305,4278.205078,4440.641113,4466.794922,4348.461426,4405.128418,1761.000000,4.000000,82.000000,,,,0.000000,4.000000,4.000000,4.000000,4.000000,4.000000,4.000000,4.000000,4.000000,4.000000,4.000000,4.000000,4.000000,4.000000,4.000000,100.000000,,,,,,,,,,,,,,,,,,,,,,,,,,,,,,,,,,,,,,,,,,,,,,,
1665722275.918640,1665722275.918555,72.000000,0.000000,4295.000000,4295.000000,4297.307617,4304.230957,4297.692383,4302.820313,4303.077148,4305.384766,4291.794922,4266.153809,4441.025879,4464.230957,4344.743652,4402.051270,1998.000000,4.000000,82.000000,,,,0.000000,4.000000,4.000000,4.000000,4.000000,4.000000,4.000000,4.000000,4.000000,4.000000,4.000000,4.000000,4.000000,4.000000,4.000000,100.000000,,,,,,,,,,,,,,,,,,,,,,,,,,,,,,,,,,,,,,,,,,,,,,,
1665722275.926448,1665722275.926363,73.000000,0.000000,4294.871582,4294.358887,4293.077148,4301.282227,4302.692383,4303.333496,4300.256348,4305.769043,4290.384766,4275.256348,4442.820313,4462.692383,4341.153809,4402.436035,2254.000000,4.000000,82.000000,,,,0.000000,4.000000,4.000000,4.000000,4.000000,4.000000,4.000000,4.000000,4.000000,4.000000,4.000000,4.000000,4.000000,4.000000,4.000000,100.000000,,,,,,,,,,,,,,,,,,,,,,,,,,,,,,,,,,,,,,,,,,,,,,,
1665722275.934256,1665722275.934271,74.000000,0.000000,4298.077148,4296.794922,4294.358887,4307.820313,4308.077148,4297.820313,4297.307617,4310.384766,4294.615234,4286.282227,4446.410156,4469.743652,4345.641113,4406.282227,2491.000000,4.000000,82.000000,,,,0.000000,4.000000,4.000000,4.000000,4.000000,4.000000,4.000000,4.000000,4.000000,4.000000,4.000000,4.000000,4.000000,4.000000,4.000000,100.000000,,,,,,,,,,,,,,,,,,,,,,,,,,,,,,,,,,,,,,,,,,,,,,,
1665722275.942065,1665722275.942080,75.000000,0.000000,4297.051270,4297.692383,4299.871582,4312.051270,4304.615234,4296.025879,4296.538574,4311.153809,4294.871582,4276.922852,4447.692383,4475.128418,4347.820313,4406.410156,1950.000000,4.000000,82.000000,,,,0.000000,4.000000,4.000000,4.000000,4.000000,4.000000,4.000000,4.000000,4.000000,4.000000,4.000000,4.000000,4.000000,4.000000,4.000000,100.000000,,,,,,,,,,,,,,,,,,,,,,,,,,,,,,,,,,,,,,,,,,,,,,,
1665722275.949873,1665722275.949988,76.000000,0.000000,4291.025879,4291.410156,4294.743652,4303.846191,4301.282227,4295.000000,4294.487305,4303.974121,4289.615234,4259.871582,4438.846191,4469.102539,4343.717773,4401.922852,2845.000000,4.000000,82.000000,,,,0.000000,4.000000,4.000000,4.000000,4.000000,4.000000,4.000000,4.000000,4.000000,4.000000,4.000000,4.000000,4.000000,4.000000,4.000000,100.000000,,,,,,,,,,,,,,,,,,,,,,,,,,,,,,,,,,,,,,,,,,,,,,,
1665722275.957682,1665722275.957797,77.000000,0.000000,4293.717773,4291.922852,4293.205078,4306.538574,4308.461426,4298.333496,4297.307617,4306.538574,4292.436035,4268.333496,4441.794922,4473.717773,4347.436035,4403.205078,3102.000000,4.000000,82.000000,,,,0.000000,4.000000,4.000000,4.000000,4.000000,4.000000,4.000000,4.000000,4.000000,4.000000,4.000000,4.000000,4.000000,4.000000,4.000000,100.000000,,,,,,,,,,,,,,,,,,,,,,,,,,,,,,,,,,,,,,,,,,,,,,,
1665722275.965490,1665722275.965705,78.000000,0.000000,4307.563965,4303.974121,4306.794922,4317.948730,4310.769043,4308.077148,4307.563965,4314.487305,4299.358887,4294.358887,4461.922852,4488.589844,4355.000000,4409.871582,2491.000000,4.000000,82.000000,,,,0.000000,4.000000,4.000000,4.000000,4.000000,4.000000,4.000000,4.000000,4.000000,4.000000,4.000000,4.000000,4.000000,4.000000,4.000000,100.000000,,,,,,,,,,,,,,,,,,,,,,,,,,,,,,,,,,,,,,,,,,,,,,,
1665722275.973298,1665722275.973513,79.000000,0.000000,4307.179688,4305.897461,4308.333496,4314.487305,4305.769043,4304.230957,4306.153809,4308.205078,4296.922852,4293.205078,4462.051270,4483.077148,4352.563965,4409.358887,1950.000000,4.000000,82.000000,,,,0.000000,4.000000,4.000000,4.000000,4.000000,4.000000,4.000000,4.000000,4.000000,4.000000,4.000000,4.000000,4.000000,4.000000,4.000000,100.000000,,,,,,,,,,,,,,,,,,,,,,,,,,,,,,,,,,,,,,,,,,,,,,,
1665722275.981107,1665722275.981422,80.000000,0.000000,4293.461426,4296.410156,4300.641113,4306.666504,4305.256348,4293.333496,4295.641113,4301.538574,4291.538574,4273.461426,4443.205078,4472.051270,4346.538574,4406.538574,2845.000000,4.000000,82.000000,,,,0.000000,4.000000,4.000000,4.000000,4.000000,4.000000,4.000000,4.000000,4.000000,4.000000,4.000000,4.000000,4.000000,4.000000,4.000000,100.000000,,,,,,,,,,,,,,,,,,,,,,,,,,,,,,,,,,,,,,,,,,,,,,,
1665722275.988915,1665722275.989230,81.000000,0.000000,4291.922852,4293.077148,4301.410156,4308.589844,4303.974121,4295.128418,4294.871582,4305.384766,4290.512695,4270.512695,4441.153809,4476.410156,4344.358887,4405.384766,3102.000000,4.000000,82.000000,,,,0.000000,4.000000,4.000000,4.000000,4.000000,4.000000,4.000000,4.000000,4.000000,4.000000,4.000000,4.000000,4.000000,4.000000,4.000000,100.000000,,,,,,,,,,,,,,,,,,,,,,,,,,,,,,,,,,,,,,,,,,,,,,,
1665722275.996723,1665722275.997039,82.000000,0.000000,4297.563965,4297.307617,4304.102539,4312.436035,4306.282227,4298.205078,4299.487305,4308.846191,4286.666504,4275.000000,4448.205078,4481.282227,4343.205078,4404.358887,2491.000000,4.000000,82.000000,,,,0.000000,4.000000,4.000000,4.000000,4.000000,4.000000,4.000000,4.000000,4.000000,4.000000,4.000000,4.000000,4.000000,4.000000,4.000000,100.000000,,,,,,,,,,,,,,,,,,,,,,,,,,,,,,,,,,,,,,,,,,,,,,,
1665722276.004532,1665722276.004847,83.000000,0.000000,4297.820313,4299.230957,4306.666504,4310.512695,4308.205078,4293.461426,4299.487305,4304.615234,4280.769043,4266.410156,4444.487305,4483.589844,4343.333496,4407.563965,1950.000000,4.000000,82.000000,,,,0.000000,4.000000,4.000000,4.000000,4.000000,4.000000,4.000000,4.000000,4.000000,4.000000,4.000000,4.000000,4.000000,4.000000,4.000000,100.000000,,,,,,,,,,,,,,,,,,,,,,,,,,,,,,,,,,,,,,,,,,,,,,,
1665722276.012340,1665722276.012556,84.000000,0.000000,4296.282227,4293.333496,4310.000000,4308.846191,4300.384766,4296.794922,4298.717773,4300.897461,4279.358887,4250.256348,4442.563965,4485.256348,4341.153809,4408.589844,2845.000000,4.000000,82.000000,,,,0.000000,4.000000,4.000000,4.000000,4.000000,4.000000,4.000000,4.000000,4.000000,4.000000,4.000000,4.000000,4.000000,4.000000,4.000000,100.000000,,,,,,,,,,,,,,,,,,,,,,,,,,,,,,,,,,,,,,,,,,,,,,,
1665722276.020149,1665722276.020364,85.000000,0.000000,4293.589844,4292.051270,4305.000000,4310.769043,4300.384766,4305.641113,4301.282227,4299.743652,4279.743652,4259.230957,4446.922852,4479.871582,4338.589844,4400.256348,3102.000000,4.000000,82.000000,,,,0.000000,4.000000,4.000000,4.000000,4.000000,4.000000,4.000000,4.000000,4.000000,4.000000,4.000000,4.000000,4.000000,4.000000,4.000000,100.000000,,,,,,,,,,,,,,,,,,,,,,,,,,,,,,,,,,,,,,,,,,,,,,,
1665722276.027957,1665722276.028073,86.000000,0.000000,4292.436035,4298.077148,4301.153809,4314.230957,4307.307617,4303.077148,4299.743652,4303.205078,4282.948730,4285.897461,4446.666504,4477.563965,4338.077148,4396.153809,2491.000000,4.000000,82.000000,,,,0.000000,4.000000,4.000000,4.000000,4.000000,4.000000,4.000000,4.000000,4.000000,4.000000,4.000000,4.000000,4.000000,4.000000,4.000000,100.000000,,,,,,,,,,,,,,,,,,,,,,,,,,,,,,,,,,,,,,,,,,,,,,,
1665722276.035765,1665722276.035881,87.000000,0.000000,4297.179688,4299.230957,4306.025879,4313.589844,4305.512695,4295.000000,4294.871582,4311.153809,4291.282227,4288.974121,4447.051270,4482.692383,4337.948730,4401.025879,1950.000000,4.000000,82.000000,,,,0.000000,4.000000,4.000000,4.000000,4.000000,4.000000,4.000000,4.000000,4.000000,4.000000,4.000000,4.000000,4.000000,4.000000,4.000000,100.000000,,,,,,,,,,,,,,,,,,,,,,,,,,,,,,,,,,,,,,,,,,,,,,,
1665722276.043574,1665722276.043590,88.000000,0.000000,4297.820313,4295.512695,4305.769043,4310.256348,4304.487305,4296.538574,4295.128418,4315.897461,4295.897461,4273.974121,4443.717773,4486.410156,4335.128418,4405.512695,2845.000000,4.000000,82.000000,,,,0.000000,4.000000,4.000000,4.000000,4.000000,4.000000,4.000000,4.000000,4.000000,4.000000,4.000000,4.000000,4.000000,4.000000,4.000000,100.000000,,,,,,,,,,,,,,,,,,,,,,,,,,,,,,,,,,,,,,,,,,,,,,,
1665722276.051382,1665722276.051398,89.000000,0.000000,4296.794922,4302.436035,4304.358887,4311.922852,4308.461426,4304.230957,4301.922852,4312.436035,4295.512695,4265.256348,4438.077148,4490.769043,4332.307617,4408.589844,3102.000000,4.000000,82.000000,,,,0.000000,4.000000,4.000000,4.000000,4.000000,4.000000,4.000000,4.000000,4.000000,4.000000,4.000000,4.000000,4.000000,4.000000,4.000000,100.000000,,,,,,,,,,,,,,,,,,,,,,,,,,,,,,,,,,,,,,,,,,,,,,,
1665722276.059190,1665722276.059107,90.000000,0.000000,4303.589844,4310.000000,4312.563965,4316.922852,4306.282227,4303.974121,4307.436035,4310.769043,4295.384766,4268.846191,4447.179688,4495.000000,4337.563965,4412.436035,2491.000000,4.000000,82.000000,,,,0.000000,4.000000,4.000000,4.000000,4.000000,4.000000,4.000000,4.000000,4.000000,4.000000,4.000000,4.000000,4.000000,4.000000,4.000000,100.000000,,,,,,,,,,,,,,,,,,,,,,,,,,,,,,,,,,,,,,,,,,,,,,,
1665722276.066999,1665722276.067015,91.000000,0.000000,4304.487305,4304.102539,4310.000000,4318.846191,4306.153809,4298.333496,4303.717773,4307.563965,4289.743652,4266.794922,4456.794922,4489.358887,4344.615234,4409.102539,1950.000000,4.000000,82.000000,,,,0.000000,4.000000,4.000000,4.000000,4.000000,4.000000,4.000000,4.000000,4.000000,4.000000,4.000000,4.000000,4.000000,4.000000,4.000000,100.000000,,,,,,,,,,,,,,,,,,,,,,,,,,,,,,,,,,,,,,,,,,,,,,,
1665722276.074807,1665722276.074823,92.000000,0.000000,4298.974121,4298.717773,4302.179688,4317.436035,4307.948730,4296.410156,4298.846191,4299.871582,4278.077148,4251.153809,4446.410156,4485.897461,4345.256348,4405.256348,2845.000000,4.000000,82.000000,,,,0.000000,4.000000,4.000000,4.000000,4.000000,4.000000,4.000000,4.000000,4.000000,4.000000,4.000000,4.000000,4.000000,4.000000,4.000000,100.000000,,,,,,,,,,,,,,,,,,,,,,,,,,,,,,,,,,,,,,,,,,,,,,,
1665722276.082616,1665722276.082732,93.000000,0.000000,4304.487305,4302.307617,4306.025879,4315.128418,4307.179688,4299.230957,4300.256348,4299.487305,4274.615234,4255.128418,4437.820313,4490.256348,4341.538574,4407.051270,3102.000000,4.000000,82.000000,,,,0.000000,4.000000,4.000000,4.000000,4.000000,4.000000,4.000000,4.000000,4.000000,4.000000,4.000000,4.000000,4.000000,4.000000,4.000000,100.000000,,,,,,,,,,,,,,,,,,,,,,,,,,,,,,,,,,,,,,,,,,,,,,,
1665722276.090424,1665722276.090540,94.000000,0.000000,4311.794922,4304.615234,4312.820313,4313.333496,4312.563965,4303.461426,4303.974121,4305.769043,4285.512695,4285.256348,4451.153809,4491.794922,4341.025879,4408.846191,2491.000000,4.000000,82.000000,,,,0.000000,4.000000,4.000000,4.000000,4.000000,4.000000,4.000000,4.000000,4.000000,4.000000,4.000000,4.000000,4.000000,4.000000,4.000000,100.000000,,,,,,,,,,,,,,,,,,,,,,,,,,,,,,,,,,,,,,,,,,,,,,,
1665722276.098232,1665722276.098449,95.000000,0.000000,4310.384766,4300.384766,4312.436035,4312.436035,4312.436035,4305.256348,4304.230957,4310.512695,4296.794922,4295.769043,4461.410156,4492.436035,4346.153809,4407.179688,1950.000000,4.000000,82.000000,,,,0.000000,4.000000,4.000000,4.000000,4.000000,4.000000,4.000000,4.000000,4.000000,4.000000,4.000000,4.000000,4.000000,4.000000,4.000000,100.000000,,,,,,,,,,,,,,,,,,,,,,,,,,,,,,,,,,,,,,,,,,,,,,,
1665722276.106041,1665722276.106257,96.000000,0.000000,4306.410156,4295.641113,4306.922852,4311.025879,4300.256348,4302.436035,4301.666504,4316.922852,4299.230957,4286.153809,4453.974121,4491.794922,4348.333496,4405.128418,2845.000000,4.000000,82.000000,,,,0.000000,4.000000,4.000000,4.000000,4.000000,4.000000,4.000000,4.000000,4.000000,4.000000,4.000000,4.000000,4.000000,4.000000,4.000000,100.000000,,,,,,,,,,,,,,,,,,,,,,,,,,,,,,,,,,,,,,,,,,,,,,,
1665722276.113849,1665722276.114165,97.000000,0.000000,4303.974121,4293.077148,4303.717773,4307.820313,4294.615234,4296.153809,4300.769043,4318.205078,4296.538574,4286.025879,4452.307617,4490.256348,4344.871582,4406.025879,3102.000000,4.000000,82.000000,,,,0.000000,4.000000,4.000000,4.000000,4.000000,4.000000,4.000000,4.000000,4.000000,4.000000,4.000000,4.000000,4.000000,4.000000,4.000000,100.000000,,,,,,,,,,,,,,,,,,,,,,,,,,,,,,,,,,,,,,,,,,,,,,,
1665722276.121657,1665722276.121974,98.000000,0.000000,4308.333496,4293.461426,4303.461426,4308.717773,4300.384766,4295.512695,4303.205078,4311.922852,4296.666504,4287.436035,4462.692383,4493.205078,4346.410156,4408.717773,2491.000000,4.000000,82.000000,,,,0.000000,4.000000,4.000000,4.000000,4.000000,4.000000,4.000000,4.000000,4.000000,4.000000,4.000000,4.000000,4.000000,4.000000,4.000000,100.000000,,,,,,,,,,,,,,,,,,,,,,,,,,,,,,,,,,,,,,,,,,,,,,,
1665722276.129466,1665722276.129882,99.000000,0.000000,4311.282227,4298.589844,4301.538574,4311.794922,4300.000000,4298.333496,4305.256348,4312.436035,4299.358887,4290.897461,4461.922852,4493.589844,4352.563965,4406.410156,1950.000000,4.000000,82.000000,,,,0.000000,4.000000,4.000000,4.000000,4.000000,4.000000,4.000000,4.000000,4.000000,4.000000,4.000000,4.000000,4.000000,4.000000,4.000000,100.000000,,,,,,,,,,,,,,,,,,,,,,,,,,,,,,,,,,,,,,,,,,,,,,,
1665722276.137274,1665722276.137691,100.000000,0.000000,4300.769043,4296.025879,4296.794922,4306.922852,4297.692383,4296.410156,4302.307617,4313.589844,4295.512695,4279.230957,4453.461426,4486.538574,4351.538574,4400.384766,2845.000000,4.000000,82.000000,,,,0.000000,4.000000,4.000000,4.000000,4.000000,4.000000,4.000000,4.000000,4.000000,4.000000,4.000000,4.000000,4.000000,4.000000,4.000000,100.000000,,,,,,,,,,,,,,,,,,,,,,,,,,,,,,,,,,,,,,,,,,,,,,,
1665722276.145083,1665722276.145599,101.000000,0.000000,4295.769043,4291.410156,4297.179688,4309.743652,4303.589844,4298.205078,4303.461426,4310.641113,4291.282227,4256.794922,4457.563965,4485.128418,4351.153809,4401.282227,3102.000000,4.000000,82.000000,,,,0.000000,4.000000,4.000000,4.000000,4.000000,4.000000,4.000000,4.000000,4.000000,4.000000,4.000000,4.000000,4.000000,4.000000,4.000000,100.000000,,,,,,,,,,,,,,,,,,,,,,,,,,,,,,,,,,,,,,,,,,,,,,,
1665722276.152891,1665722276.153407,102.000000,0.000000,4300.000000,4293.461426,4297.179688,4313.461426,4305.641113,4302.820313,4303.589844,4308.589844,4292.307617,4272.307617,4453.974121,4482.692383,4350.384766,4402.179688,2491.000000,4.000000,82.000000,,,,0.000000,4.000000,4.000000,4.000000,4.000000,4.000000,4.000000,4.000000,4.000000,4.000000,4.000000,4.000000,4.000000,4.000000,4.000000,100.000000,,,,,,,,,,,,,,,,,,,,,,,,,,,,,,,,,,,,,,,,,,,,,,,
1665722276.160699,1665722276.161316,103.000000,0.000000,4295.384766,4292.948730,4295.000000,4299.743652,4302.307617,4299.102539,4296.538574,4307.948730,4294.743652,4295.000000,4440.897461,4473.461426,4341.922852,4400.000000,1950.000000,4.000000,82.000000,,,,0.000000,4.000000,4.000000,4.000000,4.000000,4.000000,4.000000,4.000000,4.000000,4.000000,4.000000,4.000000,4.000000,4.000000,4.000000,100.000000,,,,,,,,,,,,,,,,,,,,,,,,,,,,,,,,,,,,,,,,,,,,,,,
1665722276.168508,1665722276.169124,104.000000,0.000000,4291.538574,4291.794922,4295.769043,4292.820313,4301.794922,4297.051270,4299.358887,4309.743652,4296.025879,4284.102539,4444.102539,4475.000000,4341.153809,4400.897461,2845.000000,4.000000,82.000000,,,,0.000000,4.000000,4.000000,4.000000,4.000000,4.000000,4.000000,4.000000,4.000000,4.000000,4.000000,4.000000,4.000000,4.000000,4.000000,100.000000,,,,,,,,,,,,,,,,,,,,,,,,,,,,,,,,,,,,,,,,,,,,,,,
1665722276.176316,1665722276.177033,105.000000,0.000000,4296.153809,4295.384766,4294.358887,4306.153809,4300.641113,4300.128418,4304.487305,4312.948730,4297.051270,4273.461426,4446.538574,4478.589844,4344.230957,4398.717773,3102.000000,4.000000,82.000000,,,,0.000000,4.000000,4.000000,4.000000,4.000000,4.000000,4.000000,4.000000,4.000000,4.000000,4.000000,4.000000,4.000000,4.000000,4.000000,100.000000,,,,,,,,,,,,,,,,,,,,,,,,,,,,,,,,,,,,,,,,,,,,,,,
1665722276.184125,1665722276.184841,106.000000,0.000000,4292.563965,4294.487305,4288.205078,4312.179688,4296.666504,4297.820313,4300.128418,4312.179688,4296.282227,4277.820313,4442.307617,4471.282227,4339.743652,4395.256348,2491.000000,4.000000,82.000000,,,,0.000000,4.000000,4.000000,4.000000,4.000000,4.000000,4.000000,4.000000,4.000000,4.000000,4.000000,4.000000,4.000000,4.000000,4.000000,100.000000,,,,,,,,,,,,,,,,,,,,,,,,,,,,,,,,,,,,,,,,,,,,,,,
1665722276.191933,1665722276.192550,107.000000,0.000000,4291.922852,4293.846191,4294.102539,4306.666504,4300.256348,4295.128418,4300.897461,4313.846191,4295.769043,4285.128418,4450.384766,4478.077148,4346.025879,4402.820313,1950.000000,4.000000,82.000000,,,,0.000000,4.000000,4.000000,4.000000,4.000000,4.000000,4.000000,4.000000,4.000000,4.000000,4.000000,4.000000,4.000000,4.000000,4.000000,100.000000,,,,,,,,,,,,,,,,,,,,,,,,,,,,,,,,,,,,,,,,,,,,,,,
1665722276.199741,1665722276.200358,108.000000,0.000000,4301.538574,4299.230957,4305.384766,4307.436035,4305.256348,4297.051270,4305.769043,4315.256348,4295.897461,4282.563965,4453.974121,4490.769043,4358.077148,4406.922852,2845.000000,4.000000,82.000000,,,,0.000000,4.000000,4.000000,4.000000,4.000000,4.000000,4.000000,4.000000,4.000000,4.000000,4.000000,4.000000,4.000000,4.000000,4.000000,100.000000,1.000000,91.666664,4.000000,4.000000,4.000000,4.000000,4.000000,4.000000,4.000000,4.000000,4.000000,3.000000,4.000000,4.000000,4.000000,4.000000,1.000000,0.946502,-0.263261,-1.182001,-0.325187,1.000000,0.191573,2.469936,1.201438,7.822943,0.180379,1.000000,0.355077,42.921577,2.610427,108.513718,1.000000,0.299297,0.085785,0.051483,0.266675,1.000000,0.467849,3.707959,-1.716627,10.433365,1.000000,0.304329,0.304329,0.000000,1.000000
1665722276.207550,1665722276.208067,109.000000,0.000000,4301.153809,4299.871582,4300.897461,4310.769043,4300.256348,4297.179688,4301.538574,4309.743652,4288.461426,4260.384766,4444.102539,4483.589844,4350.897461,4400.641113,3102.000000,4.000000,82.000000,,,,0.000000,4.000000,4.000000,4.000000,4.000000,4.000000,4.000000,4.000000,4.000000,4.000000,4.000000,4.000000,4.000000,4.000000,4.000000,100.000000,,,,,,,,,,,,,,,,,,,,,,,,,,,,,,,,,,,,,,,,,,,,,,,
1665722276.215358,1665722276.215975,110.000000,0.000000,4288.461426,4295.641113,4286.538574,4305.128418,4297.307617,4295.769043,4295.769043,4302.051270,4281.153809,4252.051270,4439.743652,4469.358887,4339.230957,4395.384766,2491.000000,4.000000,82.000000,,,,0.000000,4.000000,4.000000,4.000000,4.000000,4.000000,4.000000,4.000000,4.000000,4.000000,4.000000,4.000000,4.000000,4.000000,4.000000,100.000000,,,,,,,,,,,,,,,,,,,,,,,,,,,,,,,,,,,,,,,,,,,,,,,
1665722276.223167,1665722276.223783,111.000000,0.000000,4280.897461,4291.153809,4281.922852,4299.102539,4293.333496,4289.487305,4290.384766,4297.692383,4280.000000,4273.205078,4438.333496,4461.666504,4339.230957,4391.410156,1950.000000,4.000000,82.000000,,,,0.000000,4.000000,4.000000,4.000000,4.000000,4.000000,4.000000,4.000000,4.000000,4.000000,4.000000,4.000000,4.000000,4.000000,4.000000,100.000000,,,,,,,,,,,,,,,,,,,,,,,,,,,,,,,,,,,,,,,,,,,,,,,
1665722276.230975,1665722276.231592,112.000000,0.000000,4278.461426,4282.820313,4282.948730,4291.922852,4284.871582,4279.487305,4281.922852,4295.000000,4273.846191,4268.205078,4425.000000,4455.641113,4333.461426,4388.589844,2845.000000,4.000000,82.000000,,,,0.000000,4.000000,4.000000,4.000000,4.000000,4.000000,4.000000,4.000000,4.000000,4.000000,4.000000,4.000000,4.000000,4.000000,4.000000,100.000000,,,,,,,,,,,,,,,,,,,,,,,,,,,,,,,,,,,,,,,,,,,,,,,
1665722276.238783,1665722276.239300,113.000000,0.000000,4269.230957,4274.743652,4281.410156,4280.897461,4283.974121,4275.256348,4275.256348,4289.358887,4262.820313,4242.948730,4411.794922,4449.358887,4315.128418,4389.102539,3102.000000,4.000000,82.000000,,,,0.000000,4.000000,4.000000,4.000000,4.000000,4.000000,4.000000,4.000000,4.000000,4.000000,4.000000,4.000000,4.000000,4.000000,4.000000,100.000000,,,,,,,,,,,,,,,,,,,,,,,,,,,,,,,,,,,,,,,,,,,,,,,
1665722276.246592,1665722276.247209,114.000000,0.000000,4264.230957,4273.717773,4279.102539,4284.230957,4285.384766,4274.487305,4271.410156,4284.102539,4256.794922,4239.487305,4410.000000,4443.205078,4304.102539,4387.692383,2491.000000,4.000000,82.000000,,,,0.000000,4.000000,4.000000,4.000000,4.000000,4.000000,4.000000,4.000000,4.000000,4.000000,4.000000,4.000000,4.000000,4.000000,4.000000,100.000000,,,,,,,,,,,,,,,,,,,,,,,,,,,,,,,,,,,,,,,,,,,,,,,
1665722276.254400,1665722276.255017,115.000000,0.000000,4272.051270,4275.897461,4281.282227,4299.358887,4285.897461,4279.358887,4273.717773,4289.230957,4264.615234,4242.051270,4414.230957,4446.794922,4311.794922,4388.589844,1950.000000,4.000000,82.000000,,,,0.000000,4.000000,4.000000,4.000000,4.000000,4.000000,4.000000,4.000000,4.000000,4.000000,4.000000,4.000000,4.000000,4.000000,4.000000,100.000000,,,,,,,,,,,,,,,,,,,,,,,,,,,,,,,,,,,,,,,,,,,,,,,
1665722276.262208,1665722276.262826,116.000000,0.000000,4282.563965,4281.410156,4288.846191,4307.820313,4293.205078,4287.436035,4284.487305,4300.641113,4278.205078,4255.769043,4423.846191,4463.205078,4328.974121,4397.051270,2845.000000,4.000000,82.000000,,,,0.000000,4.000000,4.000000,4.000000,4.000000,4.000000,4.000000,4.000000,4.000000,4.000000,4.000000,4.000000,4.000000,4.000000,4.000000,100.000000,,,,,,,,,,,,,,,,,,,,,,,,,,,,,,,,,,,,,,,,,,,,,,,
1665722276.270017,1665722276.270534,117.000000,0.000000,4291.025879,4290.897461,4295.641113,4304.102539,4298.846191,4291.282227,4292.436035,4305.897461,4283.333496,4267.051270,4438.717773,4476.282227,4342.948730,4401.538574,3102.000000,4.000000,82.000000,,,,0.000000,4.000000,4.000000,4.000000,4.000000,4.000000,4.000000,4.000000,4.000000,4.000000,4.000000,4.000000,4.000000,4.000000,4.000000,100.000000,,,,,,,,,,,,,,,,,,,,,,,,,,,,,,,,,,,,,,,,,,,,,,,
1665722276.277825,1665722276.278343,118.000000,0.000000,4296.538574,4295.769043,4301.538574,4296.025879,4294.487305,4293.461426,4294.743652,4309.743652,4281.282227,4248.589844,4449.871582,4483.461426,4348.333496,4402.563965,2491.000000,4.000000,82.000000,,,,0.000000,4.000000,4.000000,4.000000,4.000000,4.000000,4.000000,4.000000,4.000000,4.000000,4.000000,4.000000,4.000000,4.000000,4.000000,100.000000,,,,,,,,,,,,,,,,,,,,,,,,,,,,,,,,,,,,,,,,,,,,,,,
1665722276.285633,1665722276.286051,119.000000,0.000000,4296.922852,4296.922852,4301.410156,4301.922852,4296.666504,4295.512695,4297.820313,4309.615234,4283.205078,4255.128418,4448.717773,4483.717773,4348.717773,4406.153809,1950.000000,4.000000,82.000000,,,,0.000000,4.000000,4.000000,4.000000,4.000000,4.000000,4.000000,4.000000,4.000000,4.000000,4.000000,4.000000,4.000000,4.000000,4.000000,100.000000,,,,,,,,,,,,,,,,,,,,,,,,,,,,,,,,,,,,,,,,,,,,,,,
1665722276.293442,1665722276.293860,120.000000,0.000000,4295.897461,4297.948730,4297.307617,4313.077148,4301.153809,4292.307617,4299.487305,4304.743652,4283.974121,4289.615234,4442.307617,4474.358887,4344.487305,4405.769043,2845.000000,4.000000,82.000000,,,,0.000000,4.000000,4.000000,4.000000,4.000000,4.000000,4.000000,4.000000,4.000000,4.000000,4.000000,4.000000,4.000000,4.000000,4.000000,100.000000,,,,,,,,,,,,,,,,,,,,,,,,,,,,,,,,,,,,,,,,,,,,,,,
1665722276.301250,1665722276.301568,121.000000,0.000000,4297.307617,4296.025879,4298.205078,4307.436035,4295.897461,4291.025879,4298.333496,4303.974121,4281.282227,4288.077148,4441.538574,4474.871582,4342.820313,4401.538574,3102.000000,4.000000,82.000000,,,,0.000000,4.000000,4.000000,4.000000,4.000000,4.000000,4.000000,4.000000,4.000000,4.000000,4.000000,4.000000,4.000000,4.000000,4.000000,100.000000,,,,,,,,,,,,,,,,,,,,,,,,,,,,,,,,,,,,,,,,,,,,,,,
1665722276.309059,1665722276.309476,122.000000,0.000000,4300.000000,4295.769043,4305.384766,4298.461426,4293.717773,4295.897461,4298.846191,4307.307617,4286.538574,4270.000000,4450.000000,4487.820313,4349.487305,4403.461426,2491.000000,4.000000,82.000000,,,,0.000000,4.000000,4.000000,4.000000,4.000000,4.000000,4.000000,4.000000,4.000000,4.000000,4.000000,4.000000,4.000000,4.000000,4.000000,100.000000,,,,,,,,,,,,,,,,,,,,,,,,,,,,,,,,,,,,,,,,,,,,,,,
1665722276.316867,1665722276.317285,123.000000,0.000000,4306.153809,4301.538574,4309.358887,4310.384766,4296.538574,4296.922852,4301.794922,4311.153809,4293.461426,4277.307617,4462.820313,4493.333496,4355.897461,4406.794922,1950.000000,4.000000,82.000000,,,,0.000000,4.000000,4.000000,4.000000,4.000000,4.000000,4.000000,4.000000,4.000000,4.000000,4.000000,4.000000,4.000000,4.000000,4.000000,100.000000,,,,,,,,,,,,,,,,,,,,,,,,,,,,,,,,,,,,,,,,,,,,,,,
1665722276.324675,1665722276.325193,124.000000,0.000000,4310.000000,4303.333496,4309.487305,4316.410156,4297.948730,4297.179688,4305.897461,4317.820313,4294.743652,4280.384766,4459.871582,4491.410156,4351.153809,4405.897461,2845.000000,4.000000,82.000000,,,,0.000000,4.000000,4.000000,4.000000,4.000000,4.000000,4.000000,4.000000,4.000000,4.000000,4.000000,4.000000,4.000000,4.000000,4.000000,100.000000,,,,,,,,,,,,,,,,,,,,,,,,,,,,,,,,,,,,,,,,,,,,,,,
1665722276.332484,1665722276.333002,125.000000,0.000000,4308.589844,4301.794922,4309.102539,4309.615234,4299.358887,4300.512695,4309.230957,4318.589844,4295.000000,4270.512695,4448.717773,4489.358887,4346.666504,4407.051270,3102.000000,4.000000,82.000000,,,,0.000000,4.000000,4.000000,4.000000,4.000000,4.000000,4.000000,4.000000,4.000000,4.000000,4.000000,4.000000,4.000000,4.000000,4.000000,100.000000,,,,,,,,,,,,,,,,,,,,,,,,,,,,,,,,,,,,,,,,,,,,,,,
1665722276.340292,1665722276.340910,126.000000,0.000000,4302.948730,4303.461426,4302.692383,4312.948730,4301.666504,4300.000000,4305.897461,4310.000000,4294.230957,4260.128418,4451.025879,4482.820313,4350.384766,4406.282227,2491.000000,4.000000,82.000000,,,,0.000000,4.000000,4.000000,4.000000,4.000000,4.000000,4.000000,4.000000,4.000000,4.000000,4.000000,4.000000,4.000000,4.000000,4.000000,100.000000,,,,,,,,,,,,,,,,,,,,,,,,,,,,,,,,,,,,,,,,,,,,,,,
1665722276.348101,1665722276.348718,127.000000,0.000000,4293.846191,4297.820313,4295.512695,4305.769043,4297.436035,4293.333496,4294.487305,4305.256348,4287.179688,4254.743652,4446.794922,4471.025879,4346.025879,4395.128418,82.000000,4.000000,82.000000,,,,0.000000,4.000000,4.000000,4.000000,4.000000,4.000000,4.000000,4.000000,4.000000,4.000000,4.000000,4.000000,4.000000,4.000000,4.000000,100.000000,,,,,,,,,,,,,,,,,,,,,,,,,,,,,,,,,,,,,,,,,,,,,,,
1665722276.355909,1665722276.356627,0.000000,0.000000,4290.512695,4289.615234,4292.051270,4294.230957,4291.922852,4291.025879,4287.563965,4302.563965,4279.230957,4267.820313,4431.666504,4461.922852,4336.153809,4390.128418,1736.000000,4.000000,82.000000,,,,0.000000,4.000000,4.000000,4.000000,4.000000,4.000000,4.000000,4.000000,4.000000,4.000000,4.000000,4.000000,4.000000,4.000000,4.000000,100.000000,,,,,,,,,,,,,,,,,,,,,,,,,,,,,,,,,,,,,,,,,,,,,,,
1665722276.363717,1665722276.364435,1.000000,0.000000,4294.102539,4295.641113,4290.769043,4305.384766,4299.230957,4295.897461,4291.153809,4301.025879,4280.897461,4281.666504,4435.256348,4466.282227,4339.487305,4400.256348,1887.000000,4.000000,82.000000,,,,0.000000,4.000000,4.000000,4.000000,4.000000,4.000000,4.000000,4.000000,4.000000,4.000000,4.000000,4.000000,4.000000,4.000000,4.000000,100.000000,,,,,,,,,,,,,,,,,,,,,,,,,,,,,,,,,,,,,,,,,,,,,,,
1665722276.371526,1665722276.372144,2.000000,0.000000,4293.846191,4300.769043,4291.538574,4313.846191,4303.333496,4295.769043,4294.743652,4302.563965,4282.563965,4275.000000,4448.077148,4475.384766,4345.000000,4404.743652,2344.000000,4.000000,82.000000,,,,0.000000,4.000000,4.000000,4.000000,4.000000,4.000000,4.000000,4.000000,4.000000,4.000000,4.000000,4.000000,4.000000,4.000000,4.000000,100.000000,,,,,,,,,,,,,,,,,,,,,,,,,,,,,,,,,,,,,,,,,,,,,,,
1665722276.379334,1665722276.379952,3.000000,0.000000,4298.589844,4301.922852,4297.563965,4309.487305,4298.333496,4292.179688,4294.615234,4302.948730,4280.384766,4264.615234,4443.589844,4475.128418,4341.666504,4398.461426,2054.000000,4.000000,82.000000,,,,0.000000,4.000000,4.000000,4.000000,4.000000,4.000000,4.000000,4.000000,4.000000,4.000000,4.000000,4.000000,4.000000,4.000000,4.000000,100.000000,,,,,,,,,,,,,,,,,,,,,,,,,,,,,,,,,,,,,,,,,,,,,,,
1665722276.387143,1665722276.387661,4.000000,0.000000,4315.128418,4317.179688,4302.948730,4316.794922,4301.922852,4294.230957,4295.897461,4303.717773,4283.333496,4272.436035,4440.256348,4474.615234,4347.692383,4402.820313,1648.000000,4.000000,82.000000,,,,0.000000,4.000000,4.000000,4.000000,4.000000,4.000000,4.000000,4.000000,4.000000,4.000000,4.000000,4.000000,4.000000,4.000000,4.000000,100.000000,,,,,,,,,,,,,,,,,,,,,,,,,,,,,,,,,,,,,,,,,,,,,,,
1665722276.394951,1665722276.395469,5.000000,0.000000,4325.128418,4330.384766,4302.179688,4324.230957,4304.743652,4297.051270,4297.307617,4307.307617,4288.333496,4281.666504,4452.307617,4481.410156,4363.589844,4414.743652,2242.000000,4.000000,82.000000,,,,0.000000,4.000000,4.000000,4.000000,4.000000,4.000000,4.000000,4.000000,4.000000,4.000000,4.000000,4.000000,4.000000,4.000000,4.000000,100.000000,,,,,,,,,,,,,,,,,,,,,,,,,,,,,,,,,,,,,,,,,,,,,,,
1665722276.402759,1665722276.403178,6.000000,0.000000,4334.743652,4329.871582,4305.384766,4317.307617,4295.769043,4296.025879,4300.256348,4308.333496,4290.384766,4275.769043,4464.102539,4491.794922,4374.487305,4420.897461,2312.000000,4.000000,82.000000,,,,0.000000,4.000000,4.000000,4.000000,4.000000,4.000000,4.000000,4.000000,4.000000,4.000000,4.000000,4.000000,4.000000,4.000000,4.000000,100.000000,,,,,,,,,,,,,,,,,,,,,,,,,,,,,,,,,,,,,,,,,,,,,,,
1665722276.410568,1665722276.410986,7.000000,0.000000,4356.666504,4336.666504,4318.589844,4322.563965,4297.563965,4295.256348,4306.410156,4311.025879,4293.974121,4279.230957,4474.102539,4503.589844,4387.436035,4431.922852,1763.000000,4.000000,82.000000,,,,0.000000,4.000000,4.000000,4.000000,4.000000,4.000000,4.000000,4.000000,4.000000,4.000000,4.000000,4.000000,4.000000,4.000000,4.000000,100.000000,,,,,,,,,,,,,,,,,,,,,,,,,,,,,,,,,,,,,,,,,,,,,,,
1665722276.418376,1665722276.418695,8.000000,0.000000,4375.384766,4349.230957,4327.179688,4335.897461,4312.307617,4299.358887,4311.282227,4316.666504,4296.666504,4282.051270,4480.128418,4514.487305,4397.948730,4441.666504,1998.000000,4.000000,82.000000,,,,0.000000,4.000000,4.000000,4.000000,4.000000,4.000000,4.000000,4.000000,4.000000,4.000000,4.000000,4.000000,4.000000,4.000000,4.000000,100.000000,,,,,,,,,,,,,,,,,,,,,,,,,,,,,,,,,,,,,,,,,,,,,,,
1665722276.426184,1665722276.426503,9.000000,0.000000,4380.769043,4353.974121,4327.563965,4341.922852,4316.538574,4306.153809,4310.256348,4316.538574,4295.128418,4265.256348,4476.282227,4521.025879,4395.384766,4438.974121,2259.000000,4.000000,82.000000,,,,0.000000,4.000000,4.000000,4.000000,4.000000,4.000000,4.000000,4.000000,4.000000,4.000000,4.000000,4.000000,4.000000,4.000000,4.000000,100.000000,,,,,,,,,,,,,,,,,,,,,,,,,,,,,,,,,,,,,,,,,,,,,,,
1665722276.433993,1665722276.434212,10.000000,0.000000,4383.461426,4355.897461,4325.384766,4337.436035,4309.871582,4303.846191,4306.922852,4312.820313,4294.230957,4268.333496,4471.410156,4519.102539,4392.820313,4436.153809,2483.000000,4.000000,82.000000,,,,0.000000,4.000000,4.000000,4.000000,4.000000,4.000000,4.000000,4.000000,4.000000,4.000000,4.000000,4.000000,4.000000,4.000000,4.000000,100.000000,,,,,,,,,,,,,,,,,,,,,,,,,,,,,,,,,,,,,,,,,,,,,,,
1665722276.441801,1665722276.442020,11.000000,0.000000,4390.256348,4355.769043,4326.410156,4330.897461,4306.282227,4298.077148,4305.897461,4315.128418,4294.615234,4294.487305,4477.307617,4510.000000,4398.589844,4441.282227,1948.000000,4.000000,82.000000,,,,0.000000,4.000000,4.000000,4.000000,4.000000,4.000000,4.000000,4.000000,4.000000,4.000000,4.000000,4.000000,4.000000,4.000000,4.000000,100.000000,,,,,,,,,,,,,,,,,,,,,,,,,,,,,,,,,,,,,,,,,,,,,,,
1665722276.449610,1665722276.449729,12.000000,0.000000,4393.589844,4353.461426,4329.358887,4337.179688,4308.461426,4302.307617,4306.153809,4314.615234,4296.282227,4291.282227,4481.153809,4507.436035,4402.563965,4439.871582,2875.000000,4.000000,82.000000,,,,0.000000,4.000000,4.000000,4.000000,4.000000,4.000000,4.000000,4.000000,4.000000,4.000000,4.000000,4.000000,4.000000,4.000000,4.000000,100.000000,,,,,,,,,,,,,,,,,,,,,,,,,,,,,,,,,,,,,,,,,,,,,,,
1665722276.457418,1665722276.457537,13.000000,0.000000,4381.410156,4350.897461,4326.153809,4339.358887,4307.563965,4307.307617,4304.102539,4308.974121,4296.666504,4275.384766,4472.820313,4510.128418,4397.820313,4430.641113,3082.000000,4.000000,82.000000,,,,0.000000,4.000000,4.000000,4.000000,4.000000,4.000000,4.000000,4.000000,4.000000,4.000000,4.000000,4.000000,4.000000,4.000000,4.000000,100.000000,,,,,,,,,,,,,,,,,,,,,,,,,,,,,,,,,,,,,,,,,,,,,,,
1665722276.465226,1665722276.465246,14.000000,0.000000,4361.922852,4344.358887,4320.512695,4328.717773,4307.563965,4303.717773,4304.871582,4307.948730,4292.563965,4280.256348,4469.102539,4500.384766,4389.102539,4423.974121,2483.000000,4.000000,82.000000,,,,0.000000,4.000000,4.000000,4.000000,4.000000,4.000000,4.000000,4.000000,4.000000,4.000000,4.000000,4.000000,4.000000,4.000000,4.000000,100.000000,,,,,,,,,,,,,,,,,,,,,,,,,,,,,,,,,,,,,,,,,,,,,,,
1665722276.473035,1665722276.473054,15.000000,0.000000,4361.666504,4339.487305,4326.153809,4326.153809,4315.384766,4304.230957,4310.769043,4313.717773,4291.794922,4279.487305,4475.000000,4497.563965,4388.333496,4425.641113,1948.000000,4.000000,82.000000,,,,0.000000,4.000000,4.000000,4.000000,4.000000,4.000000,4.000000,4.000000,4.000000,4.000000,4.000000,4.000000,4.000000,4.000000,4.000000,100.000000,,,,,,,,,,,,,,,,,,,,,,,,,,,,,,,,,,,,,,,,,,,,,,,
1665722276.480843,1665722276.480763,16.000000,0.000000,4367.563965,4336.666504,4330.512695,4331.153809,4318.077148,4308.205078,4311.794922,4315.384766,4294.230957,4273.461426,4477.820313,4509.615234,4393.461426,4428.589844,0.000000,4.000000,82.000000,,,,0.000000,4.000000,4.000000,4.000000,4.000000,4.000000,4.000000,4.000000,4.000000,4.000000,4.000000,4.000000,4.000000,4.000000,4.000000,100.000000,,,,,,,,,,,,,,,,,,,,,,,,,,,,,,,,,,,,,,,,,,,,,,,
1665722276.488651,1665722276.488671,17.000000,0.000000,4352.307617,4329.615234,4319.615234,4327.563965,4312.436035,4307.179688,4313.333496,4314.358887,4297.563965,4289.102539,4473.717773,4512.563965,4390.384766,4424.358887,0.000000,4.000000,82.000000,,,,0.000000,4.000000,4.000000,4.000000,4.000000,4.000000,4.000000,4.000000,4.000000,4.000000,4.000000,4.000000,4.000000,4.000000,4.000000,100.000000,,,,,,,,,,,,,,,,,,,,,,,,,,,,,,,,,,,,,,,,,,,,,,,
1665722276.496460,1665722276.496480,18.000000,0.000000,4341.153809,4325.128418,4317.436035,4325.384766,4310.256348,4309.615234,4324.615234,4321.794922,4301.922852,4291.922852,4472.563965,4510.769043,4379.871582,4421.794922,0.000000,4.000000,82.000000,,,,0.000000,4.000000,4.000000,4.000000,4.000000,4.000000,4.000000,4.000000,4.000000,4.000000,4.000000,4.000000,4.000000,4.000000,4.000000,100.000000,,,,,,,,,,,,,,,,,,,,,,,,,,,,,,,,,,,,,,,,,,,,,,,
1665722276.504268,1665722276.504388,19.000000,0.000000,4342.563965,4324.487305,4322.179688,4330.000000,4309.358887,4312.436035,4326.025879,4324.871582,4300.897461,4274.358887,4476.794922,4513.205078,4375.384766,4422.307617,0.000000,4.000000,82.000000,,,,0.000000,4.000000,4.000000,4.000000,4.000000,4.000000,4.000000,4.000000,4.000000,4.000000,4.000000,4.000000,4.000000,4.000000,4.000000,100.000000,,,,,,,,,,,,,,,,,,,,,,,,,,,,,,,,,,,,,,,,,,,,,,,
1665722276.512077,1665722276.512196,20.000000,0.000000,4335.128418,4320.512695,4317.948730,4330.128418,4305.897461,4310.641113,4313.205078,4317.948730,4297.179688,4277.692383,4475.000000,4506.666504,4370.641113,4417.948730,0.000000,4.000000,82.000000,,,,0.000000,4.000000,4.000000,4.000000,4.000000,4.000000,4.000000,4.000000,4.000000,4.000000,4.000000,4.000000,4.000000,4.000000,4.000000,100.000000,,,,,,,,,,,,,,,,,,,,,,,,,,,,,,,,,,,,,,,,,,,,,,,
1665722276.519885,1665722276.520105,21.000000,0.000000,4325.000000,4312.692383,4313.846191,4322.179688,4309.230957,4308.717773,4306.538574,4314.358887,4298.205078,4293.589844,4461.410156,4498.333496,4360.897461,4410.128418,0.000000,4.000000,82.000000,,,,0.000000,4.000000,4.000000,4.000000,4.000000,4.000000,4.000000,4.000000,4.000000,4.000000,4.000000,4.000000,4.000000,4.000000,4.000000,100.000000,,,,,,,,,,,,,,,,,,,,,,,,,,,,,,,,,,,,,,,,,,,,,,,
1665722276.527693,1665722276.527913,22.000000,0.000000,4320.512695,4305.256348,4315.897461,4310.384766,4312.436035,4304.871582,4307.948730,4316.794922,4296.025879,4289.102539,4451.666504,4500.512695,4356.153809,4409.230957,0.000000,4.000000,82.000000,,,,0.000000,4.000000,4.000000,4.000000,4.000000,4.000000,4.000000,4.000000,4.000000,4.000000,4.000000,4.000000,4.000000,4.000000,4.000000,100.000000,,,,,,,,,,,,,,,,,,,,,,,,,,,,,,,,,,,,,,,,,,,,,,,
1665722276.535502,1665722276.535821,23.000000,0.000000,4312.948730,4305.256348,4312.436035,4312.563965,4310.256348,4302.307617,4310.256348,4314.230957,4292.692383,4283.717773,4458.333496,4496.410156,4358.461426,4410.000000,0.000000,4.000000,82.000000,,,,0.000000,4.000000,4.000000,4.000000,4.000000,4.000000,4.000000,4.000000,4.000000,4.000000,4.000000,4.000000,4.000000,4.000000,4.000000,100.000000,,,,,,,,,,,,,,,,,,,,,,,,,,,,,,,,,,,,,,,,,,,,,,,
1665722276.543310,1665722276.543630,24.000000,0.000000,4309.358887,4310.512695,4308.717773,4326.666504,4311.025879,4302.179688,4308.205078,4309.615234,4295.384766,4285.256348,4463.077148,4488.589844,4358.077148,4407.563965,0.000000,4.000000,82.000000,,,,0.000000,4.000000,4.000000,4.000000,4.000000,4.000000,4.000000,4.000000,4.000000,4.000000,4.000000,4.000000,4.000000,4.000000,4.000000,100.000000,,,,,,,,,,,,,,,,,,,,,,,,,,,,,,,,,,,,,,,,,,,,,,,
1665722276.551118,1665722276.551538,25.000000,0.000000,4313.589844,4311.922852,4314.487305,4324.871582,4310.769043,4301.538574,4302.179688,4308.461426,4295.128418,4280.897461,4453.205078,4490.384766,4354.743652,4405.256348,0.000000,4.000000,82.000000,,,,0.000000,4.000000,4.000000,4.000000,4.000000,4.000000,4.000000,4.000000,4.000000,4.000000,4.000000,4.000000,4.000000,4.000000,4.000000,100.000000,,,,,,,,,,,,,,,,,,,,,,,,,,,,,,,,,,,,,,,,,,,,,,,
1665722276.558927,1665722276.559347,26.000000,0.000000,4310.897461,4306.922852,4317.692383,4312.563965,4299.230957,4301.538574,4302.948730,4312.307617,4293.974121,4280.512695,4442.179688,4491.538574,4351.025879,4407.307617,0.000000,4.000000,82.000000,,,,0.000000,4.000000,4.000000,4.000000,4.000000,4.000000,4.000000,4.000000,4.000000,4.000000,4.000000,4.000000,4.000000,4.000000,4.000000,100.000000,,,,,,,,,,,,,,,,,,,,,,,,,,,,,,,,,,,,,,,,,,,,,,,
1665722276.566735,1665722276.567055,27.000000,0.000000,4305.512695,4302.948730,4313.461426,4314.487305,4294.615234,4305.000000,4311.025879,4317.820313,4294.487305,4270.641113,4445.641113,4493.205078,4347.563965,4409.743652,0.000000,4.000000,82.000000,,,,0.000000,4.000000,4.000000,4.000000,4.000000,4.000000,4.000000,4.000000,4.000000,4.000000,4.000000,4.000000,4.000000,4.000000,4.000000,100.000000,,,,,,,,,,,,,,,,,,,,,,,,,,,,,,,,,,,,,,,,,,,,,,,
1665722276.574544,1665722276.574864,28.000000,0.000000,4302.563965,4300.384766,4309.615234,4323.846191,4310.256348,4303.077148,4312.436035,4315.512695,4286.666504,4256.025879,4454.230957,4494.743652,4345.000000,4405.769043,0.000000,4.000000,82.000000,,,,0.000000,4.000000,4.000000,4.000000,4.000000,4.000000,4.000000,4.000000,4.000000,4.000000,4.000000,4.000000,4.000000,4.000000,4.000000,100.000000,,,,,,,,,,,,,,,,,,,,,,,,,,,,,,,,,,,,,,,,,,,,,,,
1665722276.582352,1665722276.582572,29.000000,0.000000,4295.128418,4297.436035,4307.820313,4321.794922,4317.307617,4299.871582,4306.666504,4305.512695,4277.948730,4267.051270,4448.461426,4486.666504,4340.512695,4400.641113,0.000000,4.000000,82.000000,,,,0.000000,4.000000,4.000000,4.000000,4.000000,4.000000,4.000000,4.000000,4.000000,4.000000,4.000000,4.000000,4.000000,4.000000,4.000000,100.000000,,,,,,,,,,,,,,,,,,,,,,,,,,,,,,,,,,,,,,,,,,,,,,,
1665722276.590160,1665722276.590381,30.000000,0.000000,4294.871582,4297.179688,4311.282227,4311.025879,4307.051270,4301.538574,4303.333496,4302.436035,4281.282227,4284.743652,4440.641113,4484.615234,4342.820313,4402.820313,0.000000,4.000000,82.000000,,,,0.000000,4.000000,4.000000,4.000000,4.000000,4.000000,4.000000,4.000000,4.000000,4.000000,4.000000,4.000000,4.000000,4.000000,4.000000,100.000000,,,,,,,,,,,,,,,,,,,,,,,,,,,,,,,,,,,,,,,,,,,,,,,
1665722276.597969,1665722276.598089,31.000000,0.000000,4296.666504,4296.538574,4314.102539,4306.282227,4304.615234,4298.974121,4303.589844,4305.384766,4287.948730,4280.641113,4443.974121,4488.461426,4350.000000,4403.205078,0.000000,4.000000,82.000000,,,,0.000000,4.000000,4.000000,4.000000,4.000000,4.000000,4.000000,4.000000,4.000000,4.000000,4.000000,4.000000,4.000000,4.000000,4.000000,100.000000,,,,,,,,,,,,,,,,,,,,,,,,,,,,,,,,,,,,,,,,,,,,,,,
1665722276.605777,1665722276.605898,32.000000,0.000000,4287.436035,4296.153809,4308.205078,4314.615234,4303.846191,4294.358887,4300.897461,4303.461426,4288.717773,4273.589844,4445.256348,4481.282227,4344.615234,4395.769043,0.000000,4.000000,82.000000,,,,0.000000,4.000000,4.000000,4.000000,4.000000,4.000000,4.000000,4.000000,4.000000,4.000000,4.000000,4.000000,4.000000,4.000000,4.000000,100.000000,,,,,,,,,,,,,,,,,,,,,,,,,,,,,,,,,,,,,,,,,,,,,,,
1665722276.613586,1665722276.613606,33.000000,0.000000,4278.461426,4296.153809,4301.666504,4320.000000,4293.333496,4294.871582,4296.282227,4303.717773,4290.384766,4273.333496,4440.769043,4473.974121,4335.384766,4397.307617,0.000000,4.000000,82.000000,,,,0.000000,4.000000,4.000000,4.000000,4.000000,4.000000,4.000000,4.000000,4.000000,4.000000,4.000000,4.000000,4.000000,4.000000,4.000000,100.000000,,,,,,,,,,,,,,,,,,,,,,,,,,,,,,,,,,,,,,,,,,,,,,,
1665722276.621394,1665722276.621415,34.000000,0.000000,4281.153809,4292.820313,4304.102539,4311.538574,4295.769043,4296.153809,4297.179688,4310.897461,4295.000000,4279.487305,4447.436035,4484.487305,4345.000000,4411.153809,0.000000,4.000000,82.000000,,,,0.000000,4.000000,4.000000,4.000000,4.000000,4.000000,4.000000,4.000000,4.000000,4.000000,4.000000,4.000000,4.000000,4.000000,4.000000,100.000000,,,,,,,,,,,,,,,,,,,,,,,,,,,,,,,,,,,,,,,,,,,,,,,
1665722276.629202,1665722276.629123,35.000000,0.000000,4282.436035,4286.794922,4307.051270,4300.256348,4306.538574,4294.358887,4297.948730,4313.974121,4295.512695,4284.230957,4453.846191,4489.358887,4352.051270,4412.051270,0.000000,4.000000,82.000000,,,,0.000000,4.000000,4.000000,4.000000,4.000000,4.000000,4.000000,4.000000,4.000000,4.000000,4.000000,4.000000,4.000000,4.000000,4.000000,100.000000,,,,,,,,,,,,,,,,,,,,,,,,,,,,,,,,,,,,,,,,,,,,,,,
1665722276.637011,1665722276.636932,36.000000,0.000000,4277.307617,4287.820313,4299.615234,4304.230957,4302.307617,4294.102539,4299.230957,4312.563965,4291.666504,4267.820313,4455.256348,4480.000000,4341.794922,4401.410156,0.000000,4.000000,82.000000,,,,0.000000,4.000000,4.000000,4.000000,4.000000,4.000000,4.000000,4.000000,4.000000,4.000000,4.000000,4.000000,4.000000,4.000000,4.000000,100.000000,,,,,,,,,,,,,,,,,,,,,,,,,,,,,,,,,,,,,,,,,,,,,,,
1665722276.644819,1665722276.644640,37.000000,0.000000,4277.692383,4295.000000,4297.563965,4314.615234,4295.256348,4294.871582,4305.384766,4313.717773,4292.436035,4262.563965,4455.256348,4483.461426,4343.846191,4401.794922,0.000000,4.000000,82.000000,,,,0.000000,4.000000,4.000000,4.000000,4.000000,4.000000,4.000000,4.000000,4.000000,4.000000,4.000000,4.000000,4.000000,4.000000,4.000000,100.000000,,,,,,,,,,,,,,,,,,,,,,,,,,,,,,,,,,,,,,,,,,,,,,,
1665722276.652628,1665722276.652549,38.000000,0.000000,4286.794922,4293.974121,4305.512695,4307.307617,4297.692383,4298.461426,4304.871582,4311.282227,4298.077148,4286.410156,4449.615234,4494.230957,4356.538574,4408.205078,0.000000,4.000000,82.000000,,,,0.000000,4.000000,4.000000,4.000000,4.000000,4.000000,4.000000,4.000000,4.000000,4.000000,4.000000,4.000000,4.000000,4.000000,4.000000,100.000000,,,,,,,,,,,,,,,,,,,,,,,,,,,,,,,,,,,,,,,,,,,,,,,
1665722276.660436,1665722276.660357,39.000000,0.000000,4296.025879,4291.922852,4308.717773,4301.666504,4297.051270,4302.948730,4301.282227,4311.153809,4299.230957,4296.794922,4452.948730,4493.846191,4356.666504,4410.128418,0.000000,4.000000,82.000000,,,,0.000000,4.000000,4.000000,4.000000,4.000000,4.000000,4.000000,4.000000,4.000000,4.000000,4.000000,4.000000,4.000000,4.000000,4.000000,100.000000,,,,,,,,,,,,,,,,,,,,,,,,,,,,,,,,,,,,,,,,,,,,,,,
1665722276.668244,1665722276.668165,40.000000,0.000000,4295.000000,4296.410156,4300.128418,4313.846191,4296.282227,4298.846191,4302.307617,4312.563965,4295.769043,4283.717773,4460.000000,4489.487305,4350.128418,4408.077148,0.000000,4.000000,82.000000,,,,0.000000,4.000000,4.000000,4.000000,4.000000,4.000000,4.000000,4.000000,4.000000,4.000000,4.000000,4.000000,4.000000,4.000000,4.000000,100.000000,,,,,,,,,,,,,,,,,,,,,,,,,,,,,,,,,,,,,,,,,,,,,,,
1665722276.676053,1665722276.675874,41.000000,0.000000,4288.205078,4298.333496,4298.205078,4319.615234,4306.666504,4294.102539,4300.256348,4310.384766,4292.436035,4276.282227,4450.128418,4490.256348,4348.205078,4408.461426,0.000000,4.000000,82.000000,,,,0.000000,4.000000,4.000000,4.000000,4.000000,4.000000,4.000000,4.000000,4.000000,4.000000,4.000000,4.000000,4.000000,4.000000,4.000000,100.000000,,,,,,,,,,,,,,,,,,,,,,,,,,,,,,,,,,,,,,,,,,,,,,,
1665722276.683861,1665722276.683782,42.000000,0.000000,4290.897461,4295.641113,4306.282227,4308.717773,4313.846191,4302.820313,4298.717773,4307.563965,4293.333496,4276.538574,4437.820313,4488.846191,4344.102539,4406.794922,0.000000,4.000000,82.000000,,,,0.000000,4.000000,4.000000,4.000000,4.000000,4.000000,4.000000,4.000000,4.000000,4.000000,4.000000,4.000000,4.000000,4.000000,4.000000,100.000000,,,,,,,,,,,,,,,,,,,,,,,,,,,,,,,,,,,,,,,,,,,,,,,
1665722276.691669,1665722276.691591,43.000000,0.000000,4295.769043,4295.384766,4306.794922,4308.461426,4312.051270,4312.563965,4306.666504,4308.333496,4295.641113,4275.384766,4444.487305,4486.410156,4341.922852,4405.128418,0.000000,4.000000,82.000000,,,,0.000000,4.000000,4.000000,4.000000,4.000000,4.000000,4.000000,4.000000,4.000000,4.000000,4.000000,4.000000,4.000000,4.000000,4.000000,100.000000,,,,,,,,,,,,,,,,,,,,,,,,,,,,,,,,,,,,,,,,,,,,,,,
1665722276.699478,1665722276.699499,44.000000,0.000000,4289.615234,4295.256348,4298.461426,4314.102539,4310.512695,4305.897461,4305.641113,4304.871582,4287.948730,4274.743652,4447.948730,4485.769043,4342.948730,4403.846191,0.000000,4.000000,82.000000,,,,0.000000,4.000000,4.000000,4.000000,4.000000,4.000000,4.000000,4.000000,4.000000,4.000000,4.000000,4.000000,4.000000,4.000000,4.000000,100.000000,1.000000,91.666664,4.000000,4.000000,4.000000,4.000000,4.000000,4.000000,4.000000,4.000000,4.000000,3.000000,4.000000,4.000000,4.000000,4.000000,1.000000,0.946502,-0.250697,-1.182001,-0.325187,1.000000,0.200584,2.529608,1.201438,7.822943,0.180633,1.000000,0.339325,41.443520,2.613506,108.492699,1.000000,0.294828,0.095877,0.051502,0.266633,1.000000,0.459120,3.759912,-1.715547,10.431392,1.000000,0.301397,0.301397,0.000000,1.000000
1665722276.707286,1665722276.707308,45.000000,0.000000,4278.589844,4291.666504,4295.512695,4309.230957,4301.922852,4295.000000,4292.820313,4300.512695,4278.974121,4264.230957,4441.794922,4480.897461,4338.461426,4400.000000,0.000000,4.000000,82.000000,,,,0.000000,4.000000,4.000000,4.000000,4.000000,4.000000,4.000000,4.000000,4.000000,4.000000,4.000000,4.000000,4.000000,4.000000,4.000000,100.000000,,,,,,,,,,,,,,,,,,,,,,,,,,,,,,,,,,,,,,,,,,,,,,,
1665722276.715094,1665722276.715216,46.000000,0.000000,4281.025879,4293.461426,4302.179688,4310.384766,4295.769043,4295.512695,4291.922852,4306.922852,4287.436035,4270.512695,4445.128418,4481.153809,4342.436035,4398.461426,0.000000,4.000000,82.000000,,,,0.000000,4.000000,4.000000,4.000000,4.000000,4.000000,4.000000,4.000000,4.000000,4.000000,4.000000,4.000000,4.000000,4.000000,4.000000,100.000000,,,,,,,,,,,,,,,,,,,,,,,,,,,,,,,,,,,,,,,,,,,,,,,
1665722276.722903,1665722276.723024,47.000000,0.000000,4291.282227,4295.512695,4307.436035,4307.307617,4300.641113,4298.077148,4297.948730,4311.025879,4298.205078,4294.615234,4445.512695,4486.666504,4349.230957,4401.153809,0.000000,4.000000,82.000000,,,,0.000000,4.000000,4.000000,4.000000,4.000000,4.000000,4.000000,4.000000,4.000000,4.000000,4.000000,4.000000,4.000000,4.000000,4.000000,100.000000,,,,,,,,,,,,,,,,,,,,,,,,,,,,,,,,,,,,,,,,,,,,,,,
1665722276.730711,1665722276.730933,48.000000,0.000000,4288.846191,4292.692383,4303.717773,4306.153809,4304.102539,4293.717773,4297.179688,4307.307617,4296.282227,4300.769043,4443.589844,4484.871582,4346.794922,4401.025879,0.000000,4.000000,82.000000,,,,0.000000,4.000000,4.000000,4.000000,4.000000,4.000000,4.000000,4.000000,4.000000,4.000000,4.000000,4.000000,4.000000,4.000000,4.000000,100.000000,,,,,,,,,,,,,,,,,,,,,,,,,,,,,,,,,,,,,,,,,,,,,,,
1665722276.738520,1665722276.738741,49.000000,0.000000,4281.538574,4293.077148,4301.282227,4321.025879,4301.666504,4293.205078,4294.743652,4305.128418,4295.000000,4294.358887,4449.102539,4483.974121,4346.282227,4400.256348,0.000000,4.000000,82.000000,,,,0.000000,4.000000,4.000000,4.000000,4.000000,4.000000,4.000000,4.000000,4.000000,4.000000,4.000000,4.000000,4.000000,4.000000,4.000000,100.000000,,,,,,,,,,,,,,,,,,,,,,,,,,,,,,,,,,,,,,,,,,,,,,,
1665722276.746328,1665722276.746650,50.000000,0.000000,4281.538574,4293.077148,4302.948730,4320.128418,4303.717773,4295.641113,4295.641113,4305.769043,4296.538574,4288.589844,4448.461426,4485.512695,4348.461426,4402.307617,0.000000,4.000000,82.000000,,,,0.000000,4.000000,4.000000,4.000000,4.000000,4.000000,4.000000,4.000000,4.000000,4.000000,4.000000,4.000000,4.000000,4.000000,4.000000,100.000000,,,,,,,,,,,,,,,,,,,,,,,,,,,,,,,,,,,,,,,,,,,,,,,
1665722276.754136,1665722276.754458,51.000000,0.000000,4279.230957,4289.743652,4301.282227,4298.589844,4306.153809,4293.205078,4294.102539,4303.974121,4294.487305,4284.102539,4440.769043,4483.077148,4346.666504,4402.179688,0.000000,4.000000,82.000000,,,,0.000000,4.000000,4.000000,4.000000,4.000000,4.000000,4.000000,4.000000,4.000000,4.000000,4.000000,4.000000,4.000000,4.000000,4.000000,100.000000,,,,,,,,,,,,,,,,,,,,,,,,,,,,,,,,,,,,,,,,,,,,,,,
