title:Psychopy_Vishwadeep_Earphones_Closed, start timestamp:1665774603.660797, stop timestamp:1665774664.667691, headset type:EPOCX, headset serial:E2020A42, headset firmware:720, channels:86, sampling rate:eeg_128;pm_2, samples:7814      , version:2.1, 
Timestamp,OriginalTimestamp,EEG.Counter,EEG.Interpolated,EEG.AF3,EEG.F7,EEG.F3,EEG.FC5,EEG.T7,EEG.P7,EEG.O1,EEG.O2,EEG.P8,EEG.T8,EEG.FC6,EEG.F4,EEG.F8,EEG.AF4,EEG.RawCq,EEG.Battery,EEG.BatteryPercent,MarkerIndex,MarkerType,MarkerValueInt,EEG.MarkerHardware,CQ.AF3,CQ.F7,CQ.F3,CQ.FC5,CQ.T7,CQ.P7,CQ.O1,CQ.O2,CQ.P8,CQ.T8,CQ.FC6,CQ.F4,CQ.F8,CQ.AF4,CQ.Overall,EQ.SampleRateQuality,EQ.OVERALL,EQ.AF3,EQ.F7,EQ.F3,EQ.FC5,EQ.T7,EQ.P7,EQ.O1,EQ.O2,EQ.P8,EQ.T8,EQ.FC6,EQ.F4,EQ.F8,EQ.AF4,PM.Engagement.IsActive,PM.Engagement.Scaled,PM.Engagement.Raw,PM.Engagement.Min,PM.Engagement.Max,PM.Excitement.IsActive,PM.Excitement.Scaled,PM.Excitement.Raw,PM.Excitement.Min,PM.Excitement.Max,PM.LongTermExcitement,PM.Stress.IsActive,PM.Stress.Scaled,PM.Stress.Raw,PM.Stress.Min,PM.Stress.Max,PM.Relaxation.IsActive,PM.Relaxation.Scaled,PM.Relaxation.Raw,PM.Relaxation.Min,PM.Relaxation.Max,PM.Interest.IsActive,PM.Interest.Scaled,PM.Interest.Raw,PM.Interest.Min,PM.Interest.Max,PM.Focus.IsActive,PM.Focus.Scaled,PM.Focus.Raw,PM.Focus.Min,PM.Focus.Max
1665774603.660797,1665774603.661213,2.000000,0.000000,4296.025879,4281.922852,4296.410156,4309.102539,4295.000000,4297.692383,4302.051270,4314.102539,4305.128418,4278.077148,4469.358887,4498.589844,4357.051270,4401.282227,2197.000000,2.000000,49.000000,,,,0.000000,4.000000,4.000000,4.000000,4.000000,4.000000,4.000000,4.000000,4.000000,4.000000,4.000000,4.000000,4.000000,4.000000,4.000000,100.000000,,,,,,,,,,,,,,,,,,,,,,,,,,,,,,,,,,,,,,,,,,,,,,,
1665774603.668606,1665774603.669122,3.000000,0.000000,4303.077148,4292.436035,4301.153809,4315.000000,4301.282227,4293.717773,4294.615234,4314.871582,4301.282227,4280.512695,4475.512695,4510.897461,4369.230957,4409.743652,2294.000000,2.000000,49.000000,,,,0.000000,4.000000,4.000000,4.000000,4.000000,4.000000,4.000000,4.000000,4.000000,4.000000,4.000000,4.000000,4.000000,4.000000,4.000000,100.000000,,,,,,,,,,,,,,,,,,,,,,,,,,,,,,,,,,,,,,,,,,,,,,,
1665774603.676414,1665774603.676930,4.000000,0.000000,4310.641113,4294.487305,4303.461426,4309.871582,4306.282227,4294.871582,4292.692383,4306.538574,4292.820313,4278.333496,4478.974121,4508.461426,4376.410156,4412.051270,2261.000000,2.000000,49.000000,,,,0.000000,4.000000,4.000000,4.000000,4.000000,4.000000,4.000000,4.000000,4.000000,4.000000,4.000000,4.000000,4.000000,4.000000,4.000000,100.000000,,,,,,,,,,,,,,,,,,,,,,,,,,,,,,,,,,,,,,,,,,,,,,,
1665774603.684222,1665774603.684838,5.000000,0.000000,4312.179688,4294.102539,4306.410156,4311.666504,4309.615234,4304.102539,4302.563965,4312.820313,4298.077148,4287.948730,4484.871582,4510.512695,4383.077148,4408.846191,2281.000000,2.000000,49.000000,,,,0.000000,4.000000,4.000000,4.000000,4.000000,4.000000,4.000000,4.000000,4.000000,4.000000,4.000000,4.000000,4.000000,4.000000,4.000000,100.000000,,,,,,,,,,,,,,,,,,,,,,,,,,,,,,,,,,,,,,,,,,,,,,,
1665774603.692031,1665774603.692647,6.000000,0.000000,4310.000000,4293.333496,4308.717773,4313.333496,4303.077148,4299.358887,4302.436035,4313.589844,4290.384766,4292.179688,4477.051270,4509.230957,4378.974121,4403.589844,2007.000000,2.000000,49.000000,,,,0.000000,4.000000,4.000000,4.000000,4.000000,4.000000,4.000000,4.000000,4.000000,4.000000,4.000000,4.000000,4.000000,4.000000,4.000000,100.000000,,,,,,,,,,,,,,,,,,,,,,,,,,,,,,,,,,,,,,,,,,,,,,,
1665774603.699839,1665774603.700555,7.000000,0.000000,4309.487305,4291.666504,4300.512695,4306.538574,4292.948730,4288.846191,4289.358887,4290.000000,4275.256348,4277.692383,4457.692383,4494.615234,4363.717773,4396.794922,2149.000000,2.000000,49.000000,,,,0.000000,4.000000,4.000000,4.000000,4.000000,4.000000,4.000000,4.000000,4.000000,4.000000,4.000000,4.000000,4.000000,4.000000,4.000000,100.000000,,,,,,,,,,,,,,,,,,,,,,,,,,,,,,,,,,,,,,,,,,,,,,,
1665774603.707648,1665774603.708364,8.000000,0.000000,4308.589844,4291.410156,4292.563965,4306.794922,4292.563965,4288.717773,4287.179688,4275.641113,4274.230957,4263.461426,4454.358887,4484.102539,4356.410156,4392.820313,2164.000000,2.000000,49.000000,,,,0.000000,4.000000,4.000000,4.000000,4.000000,4.000000,4.000000,4.000000,4.000000,4.000000,4.000000,4.000000,4.000000,4.000000,4.000000,100.000000,,,,,,,,,,,,,,,,,,,,,,,,,,,,,,,,,,,,,,,,,,,,,,,
1665774603.715456,1665774603.716272,9.000000,0.000000,4308.333496,4292.563965,4299.487305,4311.794922,4297.563965,4295.128418,4305.256348,4290.641113,4277.307617,4263.974121,4466.538574,4490.000000,4361.922852,4394.615234,2329.000000,2.000000,49.000000,,,,0.000000,4.000000,4.000000,4.000000,4.000000,4.000000,4.000000,4.000000,4.000000,4.000000,4.000000,4.000000,4.000000,4.000000,4.000000,100.000000,,,,,,,,,,,,,,,,,,,,,,,,,,,,,,,,,,,,,,,,,,,,,,,
1665774603.723264,1665774603.724080,10.000000,0.000000,4307.820313,4294.358887,4308.846191,4310.512695,4300.384766,4299.487305,4313.589844,4312.307617,4280.897461,4272.563965,4473.205078,4500.256348,4364.358887,4398.205078,2571.000000,2.000000,49.000000,,,,0.000000,4.000000,4.000000,4.000000,4.000000,4.000000,4.000000,4.000000,4.000000,4.000000,4.000000,4.000000,4.000000,4.000000,4.000000,100.000000,,,,,,,,,,,,,,,,,,,,,,,,,,,,,,,,,,,,,,,,,,,,,,,
1665774603.731073,1665774603.731989,11.000000,0.000000,4307.179688,4292.820313,4309.358887,4312.179688,4308.974121,4297.051270,4301.794922,4319.615234,4292.436035,4277.820313,4475.256348,4507.179688,4367.692383,4402.948730,1811.000000,2.000000,49.000000,,,,0.000000,4.000000,4.000000,4.000000,4.000000,4.000000,4.000000,4.000000,4.000000,4.000000,4.000000,4.000000,4.000000,4.000000,4.000000,100.000000,,,,,,,,,,,,,,,,,,,,,,,,,,,,,,,,,,,,,,,,,,,,,,,
1665774603.738881,1665774603.739797,12.000000,0.000000,4310.512695,4294.358887,4308.717773,4316.794922,4314.230957,4296.153809,4301.922852,4315.384766,4296.922852,4279.487305,4477.563965,4508.717773,4376.410156,4407.563965,2520.000000,2.000000,49.000000,,,,0.000000,4.000000,4.000000,4.000000,4.000000,4.000000,4.000000,4.000000,4.000000,4.000000,4.000000,4.000000,4.000000,4.000000,4.000000,100.000000,,,,,,,,,,,,,,,,,,,,,,,,,,,,,,,,,,,,,,,,,,,,,,,
1665774603.746689,1665774603.747706,13.000000,0.000000,4312.692383,4298.717773,4303.333496,4313.717773,4303.333496,4296.538574,4309.230957,4307.051270,4287.692383,4276.025879,4477.820313,4499.230957,4373.846191,4409.743652,2982.000000,2.000000,49.000000,,,,0.000000,4.000000,4.000000,4.000000,4.000000,4.000000,4.000000,4.000000,4.000000,4.000000,4.000000,4.000000,4.000000,4.000000,4.000000,100.000000,,,,,,,,,,,,,,,,,,,,,,,,,,,,,,,,,,,,,,,,,,,,,,,
1665774603.754498,1665774603.755514,14.000000,0.000000,4310.128418,4296.922852,4296.794922,4306.922852,4292.307617,4292.179688,4299.615234,4306.282227,4286.794922,4269.743652,4474.615234,4492.692383,4362.948730,4410.000000,2571.000000,2.000000,49.000000,,,,0.000000,4.000000,4.000000,4.000000,4.000000,4.000000,4.000000,4.000000,4.000000,4.000000,4.000000,4.000000,4.000000,4.000000,4.000000,100.000000,,,,,,,,,,,,,,,,,,,,,,,,,,,,,,,,,,,,,,,,,,,,,,,
1665774603.762306,1665774603.763223,15.000000,0.000000,4312.179688,4295.769043,4303.205078,4307.948730,4292.436035,4290.000000,4293.846191,4313.205078,4293.589844,4269.230957,4473.846191,4502.051270,4369.102539,4412.051270,1811.000000,2.000000,49.000000,,,,0.000000,4.000000,4.000000,4.000000,4.000000,4.000000,4.000000,4.000000,4.000000,4.000000,4.000000,4.000000,4.000000,4.000000,4.000000,100.000000,,,,,,,,,,,,,,,,,,,,,,,,,,,,,,,,,,,,,,,,,,,,,,,
1665774603.770115,1665774603.771031,16.000000,0.000000,4320.384766,4302.948730,4312.307617,4312.307617,4293.717773,4287.820313,4297.948730,4311.538574,4292.179688,4273.974121,4476.794922,4510.641113,4384.230957,4414.615234,0.000000,2.000000,49.000000,,,,0.000000,4.000000,4.000000,4.000000,4.000000,4.000000,4.000000,4.000000,4.000000,4.000000,4.000000,4.000000,4.000000,4.000000,4.000000,100.000000,,,,,,,,,,,,,,,,,,,,,,,,,,,,,,,,,,,,,,,,,,,,,,,
1665774603.777923,1665774603.778740,17.000000,0.000000,4325.769043,4309.358887,4309.615234,4311.410156,4291.410156,4280.641113,4288.717773,4301.666504,4287.436035,4275.384766,4476.794922,4507.051270,4384.871582,4412.820313,0.000000,2.000000,49.000000,,,,0.000000,4.000000,4.000000,4.000000,4.000000,4.000000,4.000000,4.000000,4.000000,4.000000,4.000000,4.000000,4.000000,4.000000,4.000000,100.000000,,,,,,,,,,,,,,,,,,,,,,,,,,,,,,,,,,,,,,,,,,,,,,,
1665774603.785731,1665774603.786548,18.000000,0.000000,4324.487305,4308.717773,4311.410156,4313.717773,4295.641113,4283.461426,4285.256348,4303.077148,4292.948730,4281.282227,4477.307617,4513.461426,4386.538574,4412.820313,0.000000,2.000000,49.000000,,,,0.000000,4.000000,4.000000,4.000000,4.000000,4.000000,4.000000,4.000000,4.000000,4.000000,4.000000,4.000000,4.000000,4.000000,4.000000,100.000000,,,,,,,,,,,,,,,,,,,,,,,,,,,,,,,,,,,,,,,,,,,,,,,
1665774603.793540,1665774603.794256,19.000000,0.000000,4327.307617,4307.436035,4318.461426,4320.897461,4302.948730,4293.461426,4291.922852,4308.717773,4298.717773,4288.589844,4478.589844,4523.589844,4397.563965,4420.641113,0.000000,2.000000,49.000000,,,,0.000000,4.000000,4.000000,4.000000,4.000000,4.000000,4.000000,4.000000,4.000000,4.000000,4.000000,4.000000,4.000000,4.000000,4.000000,100.000000,,,,,,,,,,,,,,,,,,,,,,,,,,,,,,,,,,,,,,,,,,,,,,,
1665774603.801348,1665774603.802065,20.000000,0.000000,4334.743652,4309.743652,4318.846191,4325.256348,4304.102539,4290.897461,4288.461426,4293.974121,4283.461426,4283.974121,4477.307617,4513.461426,4398.717773,4423.974121,0.000000,2.000000,49.000000,,,,0.000000,4.000000,4.000000,4.000000,4.000000,4.000000,4.000000,4.000000,4.000000,4.000000,4.000000,4.000000,4.000000,4.000000,4.000000,100.000000,,,,,,,,,,,,,,,,,,,,,,,,,,,,,,,,,,,,,,,,,,,,,,,
1665774603.809157,1665774603.809773,21.000000,0.000000,4333.461426,4313.461426,4317.820313,4327.307617,4303.589844,4288.717773,4289.871582,4283.461426,4267.692383,4276.666504,4475.384766,4503.974121,4385.897461,4421.153809,0.000000,2.000000,49.000000,,,,0.000000,4.000000,4.000000,4.000000,4.000000,4.000000,4.000000,4.000000,4.000000,4.000000,4.000000,4.000000,4.000000,4.000000,4.000000,100.000000,,,,,,,,,,,,,,,,,,,,,,,,,,,,,,,,,,,,,,,,,,,,,,,
1665774603.816965,1665774603.817582,22.000000,0.000000,4327.179688,4311.282227,4316.025879,4326.666504,4305.897461,4296.538574,4298.333496,4294.615234,4269.871582,4275.128418,4473.717773,4506.410156,4377.563965,4420.512695,0.000000,2.000000,49.000000,,,,0.000000,4.000000,4.000000,4.000000,4.000000,4.000000,4.000000,4.000000,4.000000,4.000000,4.000000,4.000000,4.000000,4.000000,4.000000,100.000000,,,,,,,,,,,,,,,,,,,,,,,,,,,,,,,,,,,,,,,,,,,,,,,
1665774603.824773,1665774603.825290,23.000000,0.000000,4331.922852,4307.948730,4314.358887,4325.641113,4312.051270,4298.461426,4298.974121,4296.282227,4279.102539,4280.897461,4480.512695,4512.820313,4388.461426,4426.025879,0.000000,2.000000,49.000000,,,,0.000000,4.000000,4.000000,4.000000,4.000000,4.000000,4.000000,4.000000,4.000000,4.000000,4.000000,4.000000,4.000000,4.000000,4.000000,100.000000,,,,,,,,,,,,,,,,,,,,,,,,,,,,,,,,,,,,,,,,,,,,,,,
1665774603.832582,1665774603.833099,24.000000,0.000000,4339.743652,4316.538574,4320.769043,4329.102539,4313.461426,4297.051270,4305.641113,4297.307617,4292.563965,4293.846191,4490.128418,4521.025879,4402.563965,4434.358887,0.000000,2.000000,49.000000,,,,0.000000,4.000000,4.000000,4.000000,4.000000,4.000000,4.000000,4.000000,4.000000,4.000000,4.000000,4.000000,4.000000,4.000000,4.000000,100.000000,,,,,,,,,,,,,,,,,,,,,,,,,,,,,,,,,,,,,,,,,,,,,,,
1665774603.840390,1665774603.840807,25.000000,0.000000,4329.487305,4321.922852,4319.743652,4328.589844,4306.538574,4298.717773,4313.205078,4312.436035,4296.794922,4290.769043,4482.820313,4513.461426,4390.769043,4429.487305,0.000000,2.000000,49.000000,,,,0.000000,4.000000,4.000000,4.000000,4.000000,4.000000,4.000000,4.000000,4.000000,4.000000,4.000000,4.000000,4.000000,4.000000,4.000000,100.000000,,,,,,,,,,,,,,,,,,,,,,,,,,,,,,,,,,,,,,,,,,,,,,,
1665774603.848199,1665774603.848616,26.000000,0.000000,4309.230957,4308.461426,4305.384766,4315.000000,4293.974121,4292.563965,4303.846191,4313.589844,4285.769043,4271.025879,4464.743652,4492.307617,4365.000000,4411.794922,0.000000,2.000000,49.000000,,,,0.000000,4.000000,4.000000,4.000000,4.000000,4.000000,4.000000,4.000000,4.000000,4.000000,4.000000,4.000000,4.000000,4.000000,4.000000,100.000000,,,,,,,,,,,,,,,,,,,,,,,,,,,,,,,,,,,,,,,,,,,,,,,
1665774603.856007,1665774603.856324,27.000000,0.000000,4297.307617,4288.333496,4291.282227,4297.692383,4280.256348,4280.512695,4294.230957,4307.179688,4284.615234,4260.769043,4458.846191,4483.717773,4356.538574,4405.128418,0.000000,2.000000,49.000000,,,,0.000000,4.000000,4.000000,4.000000,4.000000,4.000000,4.000000,4.000000,4.000000,4.000000,4.000000,4.000000,4.000000,4.000000,4.000000,100.000000,,,,,,,,,,,,,,,,,,,,,,,,,,,,,,,,,,,,,,,,,,,,,,,
1665774603.863815,1665774603.864133,28.000000,0.000000,4294.230957,4282.948730,4283.717773,4288.461426,4280.128418,4279.230957,4292.051270,4314.358887,4293.974121,4261.922852,4461.282227,4483.589844,4363.589844,4409.743652,0.000000,2.000000,49.000000,,,,0.000000,4.000000,4.000000,4.000000,4.000000,4.000000,4.000000,4.000000,4.000000,4.000000,4.000000,4.000000,4.000000,4.000000,4.000000,100.000000,,,,,,,,,,,,,,,,,,,,,,,,,,,,,,,,,,,,,,,,,,,,,,,
1665774603.871624,1665774603.871841,29.000000,0.000000,4295.384766,4291.538574,4283.974121,4294.487305,4292.563965,4286.538574,4285.897461,4309.358887,4286.153809,4266.025879,4462.563965,4476.794922,4366.025879,4407.179688,0.000000,2.000000,49.000000,,,,0.000000,4.000000,4.000000,4.000000,4.000000,4.000000,4.000000,4.000000,4.000000,4.000000,4.000000,4.000000,4.000000,4.000000,4.000000,100.000000,,,,,,,,,,,,,,,,,,,,,,,,,,,,,,,,,,,,,,,,,,,,,,,
1665774603.879432,1665774603.879750,30.000000,0.000000,4296.410156,4294.615234,4288.589844,4300.769043,4295.897461,4290.000000,4282.692383,4289.487305,4274.487305,4268.333496,4461.410156,4471.025879,4362.948730,4402.948730,0.000000,2.000000,49.000000,,,,0.000000,4.000000,4.000000,4.000000,4.000000,4.000000,4.000000,4.000000,4.000000,4.000000,4.000000,4.000000,4.000000,4.000000,4.000000,100.000000,,,,,,,,,,,,,,,,,,,,,,,,,,,,,,,,,,,,,,,,,,,,,,,
1665774603.887240,1665774603.887558,31.000000,0.000000,4299.871582,4291.922852,4292.948730,4298.461426,4290.000000,4293.077148,4289.615234,4291.538574,4286.153809,4272.820313,4462.948730,4480.256348,4368.205078,4410.897461,0.000000,2.000000,49.000000,,,,0.000000,4.000000,4.000000,4.000000,4.000000,4.000000,4.000000,4.000000,4.000000,4.000000,4.000000,4.000000,4.000000,4.000000,4.000000,100.000000,,,,,,,,,,,,,,,,,,,,,,,,,,,,,,,,,,,,,,,,,,,,,,,
1665774603.895049,1665774603.895467,32.000000,0.000000,4307.051270,4298.333496,4297.820313,4304.871582,4300.384766,4299.487305,4289.230957,4300.897461,4293.205078,4278.333496,4467.692383,4492.179688,4376.282227,4423.846191,0.000000,2.000000,49.000000,,,,0.000000,4.000000,4.000000,4.000000,4.000000,4.000000,4.000000,4.000000,4.000000,4.000000,4.000000,4.000000,4.000000,4.000000,4.000000,100.000000,,,,,,,,,,,,,,,,,,,,,,,,,,,,,,,,,,,,,,,,,,,,,,,
1665774603.902857,1665774603.903275,33.000000,0.000000,4303.589844,4301.282227,4294.358887,4313.461426,4310.641113,4297.179688,4279.358887,4285.641113,4273.974121,4271.666504,4461.025879,4482.051270,4369.230957,4424.358887,0.000000,2.000000,49.000000,,,,0.000000,4.000000,4.000000,4.000000,4.000000,4.000000,4.000000,4.000000,4.000000,4.000000,4.000000,4.000000,4.000000,4.000000,4.000000,100.000000,,,,,,,,,,,,,,,,,,,,,,,,,,,,,,,,,,,,,,,,,,,,,,,
1665774603.910666,1665774603.911183,34.000000,0.000000,4297.948730,4298.846191,4293.333496,4315.256348,4302.179688,4292.307617,4282.307617,4280.897461,4266.666504,4266.410156,4459.615234,4476.666504,4365.384766,4425.256348,0.000000,2.000000,49.000000,,,,0.000000,4.000000,4.000000,4.000000,4.000000,4.000000,4.000000,4.000000,4.000000,4.000000,4.000000,4.000000,4.000000,4.000000,4.000000,100.000000,,,,,,,,,,,,,,,,,,,,,,,,,,,,,,,,,,,,,,,,,,,,,,,
1665774603.918474,1665774603.918992,35.000000,0.000000,4303.974121,4304.871582,4304.102539,4316.153809,4301.153809,4294.743652,4292.051270,4292.179688,4277.307617,4275.897461,4473.717773,4491.410156,4373.846191,4433.846191,0.000000,2.000000,49.000000,,,,0.000000,4.000000,4.000000,4.000000,4.000000,4.000000,4.000000,4.000000,4.000000,4.000000,4.000000,4.000000,4.000000,4.000000,4.000000,100.000000,,,,,,,,,,,,,,,,,,,,,,,,,,,,,,,,,,,,,,,,,,,,,,,
1665774603.926282,1665774603.926900,36.000000,0.000000,4302.948730,4304.743652,4305.512695,4315.256348,4306.538574,4294.871582,4291.666504,4285.256348,4270.641113,4281.666504,4477.307617,4486.666504,4372.307617,4433.077148,0.000000,2.000000,49.000000,,,,0.000000,4.000000,4.000000,4.000000,4.000000,4.000000,4.000000,4.000000,4.000000,4.000000,4.000000,4.000000,4.000000,4.000000,4.000000,100.000000,,,,,,,,,,,,,,,,,,,,,,,,,,,,,,,,,,,,,,,,,,,,,,,
1665774603.934091,1665774603.934709,37.000000,0.000000,4296.538574,4298.461426,4296.410156,4316.025879,4302.307617,4293.333496,4295.897461,4283.974121,4265.769043,4277.563965,4472.436035,4477.436035,4369.358887,4427.948730,0.000000,2.000000,49.000000,,,,0.000000,4.000000,4.000000,4.000000,4.000000,4.000000,4.000000,4.000000,4.000000,4.000000,4.000000,4.000000,4.000000,4.000000,4.000000,100.000000,,,,,,,,,,,,,,,,,,,,,,,,,,,,,,,,,,,,,,,,,,,,,,,
1665774603.941899,1665774603.942617,38.000000,0.000000,4295.000000,4299.102539,4296.666504,4317.563965,4303.974121,4297.820313,4308.717773,4298.846191,4285.256348,4278.333496,4474.743652,4489.615234,4375.512695,4434.102539,0.000000,2.000000,49.000000,,,,0.000000,4.000000,4.000000,4.000000,4.000000,4.000000,4.000000,4.000000,4.000000,4.000000,4.000000,4.000000,4.000000,4.000000,4.000000,100.000000,,,,,,,,,,,,,,,,,,,,,,,,,,,,,,,,,,,,,,,,,,,,,,,
1665774603.949707,1665774603.950425,39.000000,0.000000,4288.205078,4294.871582,4298.717773,4312.051270,4311.922852,4304.358887,4311.666504,4307.179688,4296.538574,4281.794922,4474.615234,4493.974121,4373.333496,4438.717773,0.000000,2.000000,49.000000,,,,0.000000,4.000000,4.000000,4.000000,4.000000,4.000000,4.000000,4.000000,4.000000,4.000000,4.000000,4.000000,4.000000,4.000000,4.000000,100.000000,,,,,,,,,,,,,,,,,,,,,,,,,,,,,,,,,,,,,,,,,,,,,,,
1665774603.957516,1665774603.958134,40.000000,0.000000,4287.563965,4292.948730,4299.871582,4307.820313,4307.179688,4310.769043,4316.282227,4317.563965,4298.846191,4286.538574,4474.615234,4493.461426,4373.974121,4441.922852,0.000000,2.000000,49.000000,,,,0.000000,4.000000,4.000000,4.000000,4.000000,4.000000,4.000000,4.000000,4.000000,4.000000,4.000000,4.000000,4.000000,4.000000,4.000000,100.000000,,,,,,,,,,,,,,,,,,,,,,,,,,,,,,,,,,,,,,,,,,,,,,,
1665774603.965324,1665774603.965942,41.000000,0.000000,4297.948730,4299.358887,4301.794922,4305.384766,4298.205078,4310.512695,4322.051270,4322.948730,4306.666504,4288.205078,4478.205078,4499.230957,4381.410156,4447.051270,0.000000,2.000000,49.000000,,,,0.000000,4.000000,4.000000,4.000000,4.000000,4.000000,4.000000,4.000000,4.000000,4.000000,4.000000,4.000000,4.000000,4.000000,4.000000,100.000000,,,,,,,,,,,,,,,,,,,,,,,,,,,,,,,,,,,,,,,,,,,,,,,
1665774603.973132,1665774603.973651,42.000000,0.000000,4289.358887,4286.922852,4289.743652,4292.820313,4294.102539,4297.692383,4303.717773,4302.436035,4295.512695,4270.641113,4464.615234,4482.051270,4368.461426,4437.051270,0.000000,2.000000,49.000000,,,,0.000000,4.000000,4.000000,4.000000,4.000000,4.000000,4.000000,4.000000,4.000000,4.000000,4.000000,4.000000,4.000000,4.000000,4.000000,100.000000,,,,,,,,,,,,,,,,,,,,,,,,,,,,,,,,,,,,,,,,,,,,,,,
1665774603.980941,1665774603.981459,43.000000,0.000000,4278.717773,4274.743652,4281.153809,4289.615234,4291.666504,4288.589844,4281.410156,4297.179688,4284.615234,4267.692383,4453.205078,4466.666504,4356.410156,4432.692383,0.000000,2.000000,49.000000,,,,0.000000,4.000000,4.000000,4.000000,4.000000,4.000000,4.000000,4.000000,4.000000,4.000000,4.000000,4.000000,4.000000,4.000000,4.000000,100.000000,,,,,,,,,,,,,,,,,,,,,,,,,,,,,,,,,,,,,,,,,,,,,,,
1665774603.988749,1665774603.989168,44.000000,0.000000,4294.487305,4289.743652,4290.641113,4295.897461,4296.922852,4294.230957,4286.025879,4316.922852,4299.615234,4289.487305,4466.922852,4484.487305,4368.717773,4446.153809,0.000000,2.000000,49.000000,,,,0.000000,4.000000,4.000000,4.000000,4.000000,4.000000,4.000000,4.000000,4.000000,4.000000,4.000000,4.000000,4.000000,4.000000,4.000000,100.000000,1.000000,100.000000,4.000000,4.000000,4.000000,4.000000,4.000000,4.000000,4.000000,4.000000,4.000000,4.000000,4.000000,4.000000,4.000000,4.000000,1.000000,0.496188,-0.723568,-1.281605,0.016011,1.000000,0.041661,1.665181,1.365900,8.549534,0.065836,1.000000,0.412587,61.696270,-6.887672,152.853561,1.000000,0.527688,0.186401,0.054052,0.384232,1.000000,0.504161,7.828383,-3.269856,17.310286,1.000000,0.166907,0.166907,0.000000,1.000000
1665774603.996558,1665774603.997077,45.000000,0.000000,4302.436035,4295.384766,4294.743652,4293.974121,4301.538574,4300.512695,4298.205078,4313.077148,4303.974121,4292.307617,4475.256348,4492.563965,4375.897461,4445.384766,0.000000,2.000000,49.000000,,,,0.000000,4.000000,4.000000,4.000000,4.000000,4.000000,4.000000,4.000000,4.000000,4.000000,4.000000,4.000000,4.000000,4.000000,4.000000,100.000000,,,,,,,,,,,,,,,,,,,,,,,,,,,,,,,,,,,,,,,,,,,,,,,
1665774604.004366,1665774604.004885,46.000000,0.000000,4295.897461,4288.974121,4291.153809,4299.487305,4299.871582,4301.153809,4294.487305,4298.974121,4293.846191,4280.897461,4468.205078,4482.051270,4374.358887,4431.794922,0.000000,2.000000,49.000000,,,,0.000000,4.000000,4.000000,4.000000,4.000000,4.000000,4.000000,4.000000,4.000000,4.000000,4.000000,4.000000,4.000000,4.000000,4.000000,100.000000,,,,,,,,,,,,,,,,,,,,,,,,,,,,,,,,,,,,,,,,,,,,,,,
1665774604.012174,1665774604.012794,47.000000,0.000000,4294.487305,4288.974121,4287.820313,4303.846191,4295.256348,4288.461426,4275.000000,4287.307617,4280.897461,4277.692383,4460.256348,4474.358887,4371.794922,4426.282227,0.000000,2.000000,49.000000,,,,0.000000,4.000000,4.000000,4.000000,4.000000,4.000000,4.000000,4.000000,4.000000,4.000000,4.000000,4.000000,4.000000,4.000000,4.000000,100.000000,,,,,,,,,,,,,,,,,,,,,,,,,,,,,,,,,,,,,,,,,,,,,,,
1665774604.019983,1665774604.020603,48.000000,0.000000,4295.897461,4294.487305,4291.794922,4300.000000,4290.384766,4274.230957,4268.461426,4272.563965,4263.589844,4276.282227,4461.025879,4476.025879,4367.692383,4427.436035,0.000000,2.000000,49.000000,,,,0.000000,4.000000,4.000000,4.000000,4.000000,4.000000,4.000000,4.000000,4.000000,4.000000,4.000000,4.000000,4.000000,4.000000,4.000000,100.000000,,,,,,,,,,,,,,,,,,,,,,,,,,,,,,,,,,,,,,,,,,,,,,,
1665774604.027791,1665774604.028511,49.000000,0.000000,4304.358887,4300.641113,4305.769043,4306.922852,4295.641113,4284.102539,4287.307617,4275.128418,4266.025879,4276.922852,4470.512695,4485.897461,4375.641113,4435.769043,0.000000,2.000000,49.000000,,,,0.000000,4.000000,4.000000,4.000000,4.000000,4.000000,4.000000,4.000000,4.000000,4.000000,4.000000,4.000000,4.000000,4.000000,4.000000,100.000000,,,,,,,,,,,,,,,,,,,,,,,,,,,,,,,,,,,,,,,,,,,,,,,
1665774604.035600,1665774604.036320,50.000000,0.000000,4312.563965,4302.563965,4314.358887,4314.615234,4304.871582,4297.436035,4300.000000,4289.871582,4287.692383,4283.717773,4479.487305,4495.000000,4386.410156,4444.487305,0.000000,2.000000,49.000000,,,,0.000000,4.000000,4.000000,4.000000,4.000000,4.000000,4.000000,4.000000,4.000000,4.000000,4.000000,4.000000,4.000000,4.000000,4.000000,100.000000,,,,,,,,,,,,,,,,,,,,,,,,,,,,,,,,,,,,,,,,,,,,,,,
1665774604.043408,1665774604.044128,51.000000,0.000000,4306.538574,4302.563965,4315.128418,4309.487305,4301.666504,4297.563965,4302.179688,4299.102539,4296.922852,4284.487305,4483.589844,4504.615234,4383.717773,4442.820313,0.000000,2.000000,49.000000,,,,0.000000,4.000000,4.000000,4.000000,4.000000,4.000000,4.000000,4.000000,4.000000,4.000000,4.000000,4.000000,4.000000,4.000000,4.000000,100.000000,,,,,,,,,,,,,,,,,,,,,,,,,,,,,,,,,,,,,,,,,,,,,,,
1665774604.051216,1665774604.051837,52.000000,0.000000,4295.769043,4298.846191,4313.333496,4302.051270,4294.743652,4296.410156,4310.897461,4303.974121,4290.256348,4278.333496,4481.538574,4504.743652,4371.025879,4437.051270,0.000000,2.000000,49.000000,,,,0.000000,4.000000,4.000000,4.000000,4.000000,4.000000,4.000000,4.000000,4.000000,4.000000,4.000000,4.000000,4.000000,4.000000,4.000000,100.000000,,,,,,,,,,,,,,,,,,,,,,,,,,,,,,,,,,,,,,,,,,,,,,,
1665774604.059025,1665774604.059645,53.000000,0.000000,4294.102539,4289.230957,4305.897461,4297.820313,4297.948730,4296.666504,4313.077148,4314.615234,4295.000000,4278.974121,4476.410156,4499.871582,4362.948730,4437.820313,0.000000,2.000000,49.000000,,,,0.000000,4.000000,4.000000,4.000000,4.000000,4.000000,4.000000,4.000000,4.000000,4.000000,4.000000,4.000000,4.000000,4.000000,4.000000,100.000000,,,,,,,,,,,,,,,,,,,,,,,,,,,,,,,,,,,,,,,,,,,,,,,
1665774604.066833,1665774604.067354,54.000000,0.000000,4293.974121,4282.051270,4300.769043,4292.692383,4295.897461,4298.717773,4310.512695,4328.333496,4305.384766,4281.410156,4474.487305,4504.102539,4361.153809,4436.153809,0.000000,2.000000,49.000000,,,,0.000000,4.000000,4.000000,4.000000,4.000000,4.000000,4.000000,4.000000,4.000000,4.000000,4.000000,4.000000,4.000000,4.000000,4.000000,100.000000,,,,,,,,,,,,,,,,,,,,,,,,,,,,,,,,,,,,,,,,,,,,,,,
1665774604.074642,1665774604.075162,55.000000,0.000000,4290.897461,4283.077148,4303.846191,4292.820313,4288.205078,4306.282227,4317.436035,4335.384766,4304.487305,4280.256348,4477.179688,4508.205078,4361.410156,4429.230957,0.000000,2.000000,49.000000,,,,0.000000,4.000000,4.000000,4.000000,4.000000,4.000000,4.000000,4.000000,4.000000,4.000000,4.000000,4.000000,4.000000,4.000000,4.000000,100.000000,,,,,,,,,,,,,,,,,,,,,,,,,,,,,,,,,,,,,,,,,,,,,,,
1665774604.082450,1665774604.082871,56.000000,0.000000,4291.538574,4282.563965,4300.000000,4294.871582,4292.820313,4305.384766,4310.897461,4332.051270,4297.179688,4281.025879,4471.153809,4498.077148,4357.820313,4423.461426,0.000000,2.000000,49.000000,,,,0.000000,4.000000,4.000000,4.000000,4.000000,4.000000,4.000000,4.000000,4.000000,4.000000,4.000000,4.000000,4.000000,4.000000,4.000000,100.000000,,,,,,,,,,,,,,,,,,,,,,,,,,,,,,,,,,,,,,,,,,,,,,,
1665774604.090258,1665774604.090779,57.000000,0.000000,4293.589844,4278.589844,4291.922852,4292.563965,4297.692383,4295.641113,4289.487305,4321.666504,4295.000000,4279.871582,4458.461426,4483.077148,4350.128418,4418.589844,0.000000,2.000000,49.000000,,,,0.000000,4.000000,4.000000,4.000000,4.000000,4.000000,4.000000,4.000000,4.000000,4.000000,4.000000,4.000000,4.000000,4.000000,4.000000,100.000000,,,,,,,,,,,,,,,,,,,,,,,,,,,,,,,,,,,,,,,,,,,,,,,
1665774604.098067,1665774604.098588,58.000000,0.000000,4293.846191,4280.512695,4292.179688,4289.230957,4290.384766,4294.743652,4281.538574,4310.897461,4296.666504,4271.153809,4457.692383,4479.102539,4348.461426,4415.000000,0.000000,2.000000,49.000000,,,,0.000000,4.000000,4.000000,4.000000,4.000000,4.000000,4.000000,4.000000,4.000000,4.000000,4.000000,4.000000,4.000000,4.000000,4.000000,100.000000,,,,,,,,,,,,,,,,,,,,,,,,,,,,,,,,,,,,,,,,,,,,,,,
1665774604.105875,1665774604.106496,59.000000,0.000000,4291.282227,4278.589844,4289.871582,4287.563965,4280.512695,4293.205078,4277.307617,4295.769043,4287.436035,4262.179688,4459.102539,4475.000000,4348.717773,4411.410156,0.000000,2.000000,49.000000,,,,0.000000,4.000000,4.000000,4.000000,4.000000,4.000000,4.000000,4.000000,4.000000,4.000000,4.000000,4.000000,4.000000,4.000000,4.000000,100.000000,,,,,,,,,,,,,,,,,,,,,,,,,,,,,,,,,,,,,,,,,,,,,,,
1665774604.113684,1665774604.114305,60.000000,0.000000,4292.436035,4276.282227,4287.307617,4287.307617,4277.051270,4286.538574,4270.000000,4279.615234,4275.897461,4264.743652,4457.307617,4472.948730,4350.897461,4409.743652,0.000000,2.000000,49.000000,,,,0.000000,4.000000,4.000000,4.000000,4.000000,4.000000,4.000000,4.000000,4.000000,4.000000,4.000000,4.000000,4.000000,4.000000,4.000000,100.000000,,,,,,,,,,,,,,,,,,,,,,,,,,,,,,,,,,,,,,,,,,,,,,,
1665774604.121492,1665774604.122213,61.000000,0.000000,4304.102539,4286.282227,4299.743652,4294.743652,4287.692383,4294.230957,4281.538574,4278.974121,4277.051270,4276.794922,4466.666504,4482.436035,4363.589844,4413.461426,0.000000,2.000000,49.000000,,,,0.000000,4.000000,4.000000,4.000000,4.000000,4.000000,4.000000,4.000000,4.000000,4.000000,4.000000,4.000000,4.000000,4.000000,4.000000,100.000000,,,,,,,,,,,,,,,,,,,,,,,,,,,,,,,,,,,,,,,,,,,,,,,
1665774604.129300,1665774604.130021,62.000000,0.000000,4311.922852,4297.563965,4310.384766,4306.538574,4301.922852,4305.384766,4298.717773,4286.025879,4279.230957,4283.846191,4478.333496,4492.563965,4374.615234,4416.410156,0.000000,2.000000,49.000000,,,,0.000000,4.000000,4.000000,4.000000,4.000000,4.000000,4.000000,4.000000,4.000000,4.000000,4.000000,4.000000,4.000000,4.000000,4.000000,100.000000,,,,,,,,,,,,,,,,,,,,,,,,,,,,,,,,,,,,,,,,,,,,,,,
1665774604.137109,1665774604.137930,63.000000,0.000000,4313.205078,4298.717773,4311.410156,4307.051270,4305.512695,4303.974121,4299.615234,4294.871582,4279.487305,4282.948730,4479.230957,4497.563965,4375.512695,4414.615234,0.000000,2.000000,49.000000,,,,0.000000,4.000000,4.000000,4.000000,4.000000,4.000000,4.000000,4.000000,4.000000,4.000000,4.000000,4.000000,4.000000,4.000000,4.000000,100.000000,,,,,,,,,,,,,,,,,,,,,,,,,,,,,,,,,,,,,,,,,,,,,,,
1665774604.144917,1665774604.145738,64.000000,0.000000,4309.743652,4295.512695,4309.743652,4300.128418,4309.871582,4299.487305,4298.974121,4296.153809,4280.000000,4280.641113,4476.794922,4491.922852,4370.128418,4410.256348,2042.000000,2.000000,49.000000,,,,0.000000,4.000000,4.000000,4.000000,4.000000,4.000000,4.000000,4.000000,4.000000,4.000000,4.000000,4.000000,4.000000,4.000000,4.000000,100.000000,,,,,,,,,,,,,,,,,,,,,,,,,,,,,,,,,,,,,,,,,,,,,,,
1665774604.152725,1665774604.153447,65.000000,0.000000,4300.641113,4295.769043,4304.743652,4304.102539,4317.436035,4304.871582,4308.974121,4284.743652,4277.307617,4279.743652,4472.563965,4481.153809,4365.897461,4408.205078,2187.000000,2.000000,49.000000,,,,0.000000,4.000000,4.000000,4.000000,4.000000,4.000000,4.000000,4.000000,4.000000,4.000000,4.000000,4.000000,4.000000,4.000000,4.000000,100.000000,,,,,,,,,,,,,,,,,,,,,,,,,,,,,,,,,,,,,,,,,,,,,,,
1665774604.160534,1665774604.161255,66.000000,0.000000,4294.615234,4297.051270,4298.205078,4310.256348,4315.769043,4310.000000,4316.794922,4290.000000,4281.794922,4280.512695,4469.102539,4481.922852,4365.384766,4410.897461,2204.000000,2.000000,49.000000,,,,0.000000,4.000000,4.000000,4.000000,4.000000,4.000000,4.000000,4.000000,4.000000,4.000000,4.000000,4.000000,4.000000,4.000000,4.000000,100.000000,,,,,,,,,,,,,,,,,,,,,,,,,,,,,,,,,,,,,,,,,,,,,,,
1665774604.168342,1665774604.168964,67.000000,0.000000,4296.538574,4295.384766,4296.666504,4302.948730,4308.974121,4304.743652,4311.410156,4316.025879,4294.615234,4281.282227,4473.333496,4493.077148,4367.948730,4412.563965,2294.000000,2.000000,49.000000,,,,0.000000,4.000000,4.000000,4.000000,4.000000,4.000000,4.000000,4.000000,4.000000,4.000000,4.000000,4.000000,4.000000,4.000000,4.000000,100.000000,,,,,,,,,,,,,,,,,,,,,,,,,,,,,,,,,,,,,,,,,,,,,,,
1665774604.176150,1665774604.176772,68.000000,0.000000,4296.538574,4292.436035,4295.512695,4293.461426,4302.179688,4296.025879,4301.025879,4324.230957,4297.179688,4278.461426,4477.563965,4495.000000,4369.358887,4412.179688,2267.000000,2.000000,49.000000,,,,0.000000,4.000000,4.000000,4.000000,4.000000,4.000000,4.000000,4.000000,4.000000,4.000000,4.000000,4.000000,4.000000,4.000000,4.000000,100.000000,,,,,,,,,,,,,,,,,,,,,,,,,,,,,,,,,,,,,,,,,,,,,,,
1665774604.183959,1665774604.184481,69.000000,0.000000,4294.358887,4290.641113,4292.820313,4293.717773,4293.333496,4293.589844,4295.128418,4310.256348,4293.589844,4277.948730,4472.948730,4488.717773,4367.563965,4417.307617,2289.000000,2.000000,49.000000,,,,0.000000,4.000000,4.000000,4.000000,4.000000,4.000000,4.000000,4.000000,4.000000,4.000000,4.000000,4.000000,4.000000,4.000000,4.000000,100.000000,,,,,,,,,,,,,,,,,,,,,,,,,,,,,,,,,,,,,,,,,,,,,,,
1665774604.191767,1665774604.192289,70.000000,0.000000,4295.000000,4288.589844,4292.179688,4292.948730,4290.897461,4295.384766,4295.641113,4306.794922,4293.589844,4276.025879,4464.615234,4488.333496,4361.282227,4424.743652,2007.000000,2.000000,49.000000,,,,0.000000,4.000000,4.000000,4.000000,4.000000,4.000000,4.000000,4.000000,4.000000,4.000000,4.000000,4.000000,4.000000,4.000000,4.000000,100.000000,,,,,,,,,,,,,,,,,,,,,,,,,,,,,,,,,,,,,,,,,,,,,,,
1665774604.199576,1665774604.199998,71.000000,0.000000,4295.512695,4286.410156,4293.717773,4291.794922,4294.358887,4296.025879,4295.897461,4312.436035,4290.769043,4266.922852,4460.641113,4488.333496,4356.153809,4427.820313,2130.000000,2.000000,49.000000,,,,0.000000,4.000000,4.000000,4.000000,4.000000,4.000000,4.000000,4.000000,4.000000,4.000000,4.000000,4.000000,4.000000,4.000000,4.000000,100.000000,,,,,,,,,,,,,,,,,,,,,,,,,,,,,,,,,,,,,,,,,,,,,,,
1665774604.207384,1665774604.207806,72.000000,0.000000,4300.128418,4290.512695,4298.461426,4297.820313,4293.205078,4295.512695,4292.179688,4311.410156,4293.077148,4267.948730,4467.820313,4488.461426,4361.410156,4434.358887,2144.000000,2.000000,49.000000,,,,0.000000,4.000000,4.000000,4.000000,4.000000,4.000000,4.000000,4.000000,4.000000,4.000000,4.000000,4.000000,4.000000,4.000000,4.000000,100.000000,,,,,,,,,,,,,,,,,,,,,,,,,,,,,,,,,,,,,,,,,,,,,,,
1665774604.215192,1665774604.215515,73.000000,0.000000,4303.077148,4292.563965,4300.384766,4301.538574,4293.974121,4289.615234,4284.230957,4307.820313,4297.436035,4277.692383,4470.000000,4492.436035,4365.641113,4438.205078,2326.000000,2.000000,49.000000,,,,0.000000,4.000000,4.000000,4.000000,4.000000,4.000000,4.000000,4.000000,4.000000,4.000000,4.000000,4.000000,4.000000,4.000000,4.000000,100.000000,,,,,,,,,,,,,,,,,,,,,,,,,,,,,,,,,,,,,,,,,,,,,,,
1665774604.223001,1665774604.223323,74.000000,0.000000,4297.436035,4286.794922,4297.179688,4296.666504,4297.307617,4282.948730,4275.128418,4297.307617,4289.487305,4279.871582,4464.615234,4493.461426,4362.563965,4432.051270,2575.000000,2.000000,49.000000,,,,0.000000,4.000000,4.000000,4.000000,4.000000,4.000000,4.000000,4.000000,4.000000,4.000000,4.000000,4.000000,4.000000,4.000000,4.000000,100.000000,,,,,,,,,,,,,,,,,,,,,,,,,,,,,,,,,,,,,,,,,,,,,,,
1665774604.230809,1665774604.231032,75.000000,0.000000,4293.077148,4279.358887,4293.974121,4291.794922,4295.128418,4281.153809,4270.000000,4281.025879,4275.128418,4277.051270,4465.769043,4482.436035,4362.307617,4425.769043,1798.000000,2.000000,49.000000,,,,0.000000,4.000000,4.000000,4.000000,4.000000,4.000000,4.000000,4.000000,4.000000,4.000000,4.000000,4.000000,4.000000,4.000000,4.000000,100.000000,,,,,,,,,,,,,,,,,,,,,,,,,,,,,,,,,,,,,,,,,,,,,,,
1665774604.238618,1665774604.238840,76.000000,0.000000,4299.487305,4284.358887,4297.051270,4300.128418,4301.922852,4286.794922,4276.538574,4280.128418,4271.282227,4282.179688,4477.051270,4480.128418,4371.794922,4431.153809,2510.000000,2.000000,49.000000,,,,0.000000,4.000000,4.000000,4.000000,4.000000,4.000000,4.000000,4.000000,4.000000,4.000000,4.000000,4.000000,4.000000,4.000000,4.000000,100.000000,,,,,,,,,,,,,,,,,,,,,,,,,,,,,,,,,,,,,,,,,,,,,,,
1665774604.246426,1665774604.246549,77.000000,0.000000,4316.025879,4306.538574,4313.589844,4326.666504,4330.128418,4307.051270,4305.512695,4300.384766,4284.615234,4295.897461,4497.179688,4505.769043,4394.358887,4451.794922,2980.000000,2.000000,49.000000,,,,0.000000,4.000000,4.000000,4.000000,4.000000,4.000000,4.000000,4.000000,4.000000,4.000000,4.000000,4.000000,4.000000,4.000000,4.000000,100.000000,,,,,,,,,,,,,,,,,,,,,,,,,,,,,,,,,,,,,,,,,,,,,,,
1665774604.254234,1665774604.254457,78.000000,0.000000,4316.538574,4313.461426,4317.692383,4330.128418,4335.000000,4314.743652,4318.589844,4300.000000,4289.871582,4296.153809,4495.897461,4508.461426,4392.563965,4453.461426,2575.000000,2.000000,49.000000,,,,0.000000,4.000000,4.000000,4.000000,4.000000,4.000000,4.000000,4.000000,4.000000,4.000000,4.000000,4.000000,4.000000,4.000000,4.000000,100.000000,,,,,,,,,,,,,,,,,,,,,,,,,,,,,,,,,,,,,,,,,,,,,,,
1665774604.262043,1665774604.262265,79.000000,0.000000,4292.820313,4291.666504,4294.102539,4300.128418,4301.794922,4294.358887,4292.563965,4273.589844,4273.589844,4273.589844,4468.077148,4472.436035,4358.205078,4429.230957,1798.000000,2.000000,49.000000,,,,0.000000,4.000000,4.000000,4.000000,4.000000,4.000000,4.000000,4.000000,4.000000,4.000000,4.000000,4.000000,4.000000,4.000000,4.000000,100.000000,,,,,,,,,,,,,,,,,,,,,,,,,,,,,,,,,,,,,,,,,,,,,,,
1665774604.269851,1665774604.270174,80.000000,0.000000,4284.871582,4286.538574,4286.794922,4294.230957,4292.179688,4288.717773,4286.282227,4279.615234,4272.307617,4268.077148,4461.538574,4467.692383,4351.153809,4423.717773,2510.000000,2.000000,49.000000,,,,0.000000,4.000000,4.000000,4.000000,4.000000,4.000000,4.000000,4.000000,4.000000,4.000000,4.000000,4.000000,4.000000,4.000000,4.000000,100.000000,,,,,,,,,,,,,,,,,,,,,,,,,,,,,,,,,,,,,,,,,,,,,,,
1665774604.277660,1665774604.277982,81.000000,0.000000,4298.974121,4301.410156,4303.846191,4315.641113,4310.384766,4307.692383,4313.717773,4309.487305,4291.666504,4282.692383,4479.615234,4494.358887,4371.794922,4441.282227,2980.000000,2.000000,49.000000,,,,0.000000,4.000000,4.000000,4.000000,4.000000,4.000000,4.000000,4.000000,4.000000,4.000000,4.000000,4.000000,4.000000,4.000000,4.000000,100.000000,,,,,,,,,,,,,,,,,,,,,,,,,,,,,,,,,,,,,,,,,,,,,,,
1665774604.285468,1665774604.285891,82.000000,0.000000,4298.077148,4296.538574,4303.974121,4311.666504,4306.922852,4306.025879,4315.769043,4311.794922,4294.358887,4271.666504,4476.666504,4492.692383,4367.563965,4445.897461,2575.000000,2.000000,49.000000,,,,0.000000,4.000000,4.000000,4.000000,4.000000,4.000000,4.000000,4.000000,4.000000,4.000000,4.000000,4.000000,4.000000,4.000000,4.000000,100.000000,,,,,,,,,,,,,,,,,,,,,,,,,,,,,,,,,,,,,,,,,,,,,,,
1665774604.293276,1665774604.293699,83.000000,0.000000,4293.717773,4289.230957,4300.128418,4303.461426,4299.487305,4292.051270,4297.692383,4313.333496,4290.256348,4261.794922,4470.256348,4490.512695,4362.307617,4446.666504,1798.000000,2.000000,49.000000,,,,0.000000,4.000000,4.000000,4.000000,4.000000,4.000000,4.000000,4.000000,4.000000,4.000000,4.000000,4.000000,4.000000,4.000000,4.000000,100.000000,,,,,,,,,,,,,,,,,,,,,,,,,,,,,,,,,,,,,,,,,,,,,,,
1665774604.301085,1665774604.301607,84.000000,0.000000,4302.179688,4293.589844,4308.846191,4313.333496,4306.666504,4297.179688,4297.051270,4326.410156,4299.230957,4279.102539,4480.000000,4503.589844,4375.384766,4450.769043,2510.000000,2.000000,49.000000,,,,0.000000,4.000000,4.000000,4.000000,4.000000,4.000000,4.000000,4.000000,4.000000,4.000000,4.000000,4.000000,4.000000,4.000000,4.000000,100.000000,,,,,,,,,,,,,,,,,,,,,,,,,,,,,,,,,,,,,,,,,,,,,,,
1665774604.308893,1665774604.309416,85.000000,0.000000,4299.102539,4284.871582,4301.025879,4306.153809,4304.487305,4297.436035,4292.948730,4316.153809,4298.333496,4285.384766,4476.025879,4493.461426,4372.692383,4439.230957,2980.000000,2.000000,49.000000,,,,0.000000,4.000000,4.000000,4.000000,4.000000,4.000000,4.000000,4.000000,4.000000,4.000000,4.000000,4.000000,4.000000,4.000000,4.000000,100.000000,,,,,,,,,,,,,,,,,,,,,,,,,,,,,,,,,,,,,,,,,,,,,,,
1665774604.316702,1665774604.317324,86.000000,0.000000,4283.846191,4271.666504,4284.102539,4289.615234,4295.256348,4283.717773,4278.205078,4295.769043,4287.436035,4274.743652,4461.153809,4472.948730,4360.384766,4422.436035,2575.000000,2.000000,49.000000,,,,0.000000,4.000000,4.000000,4.000000,4.000000,4.000000,4.000000,4.000000,4.000000,4.000000,4.000000,4.000000,4.000000,4.000000,4.000000,100.000000,,,,,,,,,,,,,,,,,,,,,,,,,,,,,,,,,,,,,,,,,,,,,,,
1665774604.324510,1665774604.325133,87.000000,0.000000,4278.846191,4271.410156,4285.769043,4294.230957,4292.948730,4279.358887,4271.666504,4292.692383,4281.282227,4272.563965,4458.846191,4472.051270,4357.436035,4417.948730,1798.000000,2.000000,49.000000,,,,0.000000,4.000000,4.000000,4.000000,4.000000,4.000000,4.000000,4.000000,4.000000,4.000000,4.000000,4.000000,4.000000,4.000000,4.000000,100.000000,,,,,,,,,,,,,,,,,,,,,,,,,,,,,,,,,,,,,,,,,,,,,,,
1665774604.332318,1665774604.333041,88.000000,0.000000,4290.256348,4280.128418,4295.384766,4310.512695,4303.846191,4287.307617,4272.179688,4295.256348,4280.384766,4278.205078,4469.871582,4484.615234,4362.948730,4428.077148,2510.000000,2.000000,49.000000,,,,0.000000,4.000000,4.000000,4.000000,4.000000,4.000000,4.000000,4.000000,4.000000,4.000000,4.000000,4.000000,4.000000,4.000000,4.000000,100.000000,,,,,,,,,,,,,,,,,,,,,,,,,,,,,,,,,,,,,,,,,,,,,,,
1665774604.340127,1665774604.340849,89.000000,0.000000,4299.615234,4286.922852,4298.461426,4316.794922,4318.333496,4293.846191,4278.333496,4294.743652,4284.230957,4281.794922,4479.743652,4493.717773,4374.102539,4439.358887,2980.000000,2.000000,49.000000,,,,0.000000,4.000000,4.000000,4.000000,4.000000,4.000000,4.000000,4.000000,4.000000,4.000000,4.000000,4.000000,4.000000,4.000000,4.000000,100.000000,,,,,,,,,,,,,,,,,,,,,,,,,,,,,,,,,,,,,,,,,,,,,,,
1665774604.347935,1665774604.348558,90.000000,0.000000,4290.384766,4284.615234,4295.512695,4305.256348,4307.692383,4290.256348,4282.563965,4288.589844,4278.205078,4281.025879,4473.461426,4487.436035,4372.820313,4431.282227,2575.000000,2.000000,49.000000,,,,0.000000,4.000000,4.000000,4.000000,4.000000,4.000000,4.000000,4.000000,4.000000,4.000000,4.000000,4.000000,4.000000,4.000000,4.000000,100.000000,,,,,,,,,,,,,,,,,,,,,,,,,,,,,,,,,,,,,,,,,,,,,,,
1665774604.355743,1665774604.356366,91.000000,0.000000,4278.717773,4278.846191,4290.000000,4293.205078,4292.179688,4284.615234,4279.358887,4274.230957,4264.615234,4273.077148,4463.077148,4474.487305,4359.358887,4413.589844,1798.000000,2.000000,49.000000,,,,0.000000,4.000000,4.000000,4.000000,4.000000,4.000000,4.000000,4.000000,4.000000,4.000000,4.000000,4.000000,4.000000,4.000000,4.000000,100.000000,,,,,,,,,,,,,,,,,,,,,,,,,,,,,,,,,,,,,,,,,,,,,,,
1665774604.363552,1665774604.364075,92.000000,0.000000,4280.641113,4283.461426,4288.717773,4299.487305,4299.871582,4288.077148,4278.974121,4267.179688,4268.333496,4267.051270,4463.461426,4472.307617,4357.692383,4412.436035,2510.000000,2.000000,49.000000,,,,0.000000,4.000000,4.000000,4.000000,4.000000,4.000000,4.000000,4.000000,4.000000,4.000000,4.000000,4.000000,4.000000,4.000000,4.000000,100.000000,,,,,,,,,,,,,,,,,,,,,,,,,,,,,,,,,,,,,,,,,,,,,,,
1665774604.371360,1665774604.371883,93.000000,0.000000,4282.948730,4289.615234,4292.820313,4306.794922,4305.256348,4296.794922,4295.641113,4274.230957,4278.461426,4264.743652,4468.333496,4476.410156,4366.410156,4418.333496,2980.000000,2.000000,49.000000,,,,0.000000,4.000000,4.000000,4.000000,4.000000,4.000000,4.000000,4.000000,4.000000,4.000000,4.000000,4.000000,4.000000,4.000000,4.000000,100.000000,,,,,,,,,,,,,,,,,,,,,,,,,,,,,,,,,,,,,,,,,,,,,,,
1665774604.379168,1665774604.379592,94.000000,0.000000,4280.128418,4283.589844,4293.077148,4300.384766,4295.384766,4297.948730,4311.922852,4289.230957,4278.205078,4263.461426,4464.487305,4480.512695,4364.487305,4414.102539,2575.000000,2.000000,49.000000,,,,0.000000,4.000000,4.000000,4.000000,4.000000,4.000000,4.000000,4.000000,4.000000,4.000000,4.000000,4.000000,4.000000,4.000000,4.000000,100.000000,,,,,,,,,,,,,,,,,,,,,,,,,,,,,,,,,,,,,,,,,,,,,,,
1665774604.386977,1665774604.387400,95.000000,0.000000,4282.436035,4280.000000,4290.769043,4295.897461,4292.563965,4295.000000,4312.051270,4305.512695,4280.897461,4265.512695,4461.410156,4486.922852,4358.333496,4407.692383,1798.000000,2.000000,49.000000,,,,0.000000,4.000000,4.000000,4.000000,4.000000,4.000000,4.000000,4.000000,4.000000,4.000000,4.000000,4.000000,4.000000,4.000000,4.000000,100.000000,,,,,,,,,,,,,,,,,,,,,,,,,,,,,,,,,,,,,,,,,,,,,,,
1665774604.394785,1665774604.395109,96.000000,0.000000,4288.333496,4284.743652,4295.384766,4300.256348,4294.230957,4297.179688,4312.436035,4312.179688,4291.538574,4265.641113,4468.461426,4490.769043,4364.358887,4408.717773,2510.000000,2.000000,49.000000,,,,0.000000,4.000000,4.000000,4.000000,4.000000,4.000000,4.000000,4.000000,4.000000,4.000000,4.000000,4.000000,4.000000,4.000000,4.000000,100.000000,,,,,,,,,,,,,,,,,,,,,,,,,,,,,,,,,,,,,,,,,,,,,,,
1665774604.402594,1665774604.402917,97.000000,0.000000,4289.358887,4282.051270,4297.436035,4301.410156,4293.589844,4299.871582,4315.897461,4311.282227,4295.512695,4265.769043,4475.128418,4492.563965,4373.974121,4412.436035,2980.000000,2.000000,49.000000,,,,0.000000,4.000000,4.000000,4.000000,4.000000,4.000000,4.000000,4.000000,4.000000,4.000000,4.000000,4.000000,4.000000,4.000000,4.000000,100.000000,,,,,,,,,,,,,,,,,,,,,,,,,,,,,,,,,,,,,,,,,,,,,,,
1665774604.410402,1665774604.410626,98.000000,0.000000,4286.794922,4277.307617,4289.615234,4298.717773,4294.102539,4297.948730,4305.769043,4319.615234,4297.179688,4274.358887,4475.641113,4495.897461,4377.692383,4418.717773,2575.000000,2.000000,49.000000,,,,0.000000,4.000000,4.000000,4.000000,4.000000,4.000000,4.000000,4.000000,4.000000,4.000000,4.000000,4.000000,4.000000,4.000000,4.000000,100.000000,,,,,,,,,,,,,,,,,,,,,,,,,,,,,,,,,,,,,,,,,,,,,,,
1665774604.418210,1665774604.418434,99.000000,0.000000,4279.230957,4278.205078,4279.358887,4291.282227,4284.487305,4286.538574,4286.153809,4321.025879,4296.922852,4279.615234,4468.589844,4490.128418,4373.333496,4425.384766,1798.000000,2.000000,49.000000,,,,0.000000,4.000000,4.000000,4.000000,4.000000,4.000000,4.000000,4.000000,4.000000,4.000000,4.000000,4.000000,4.000000,4.000000,4.000000,100.000000,,,,,,,,,,,,,,,,,,,,,,,,,,,,,,,,,,,,,,,,,,,,,,,
1665774604.426019,1665774604.426143,100.000000,0.000000,4277.692383,4280.384766,4278.333496,4290.128418,4276.538574,4275.512695,4277.179688,4311.025879,4293.846191,4276.922852,4463.717773,4482.692383,4370.512695,4431.666504,2510.000000,2.000000,49.000000,,,,0.000000,4.000000,4.000000,4.000000,4.000000,4.000000,4.000000,4.000000,4.000000,4.000000,4.000000,4.000000,4.000000,4.000000,4.000000,100.000000,,,,,,,,,,,,,,,,,,,,,,,,,,,,,,,,,,,,,,,,,,,,,,,
1665774604.433827,1665774604.433951,101.000000,0.000000,4290.384766,4286.922852,4290.000000,4303.846191,4289.487305,4278.589844,4278.974121,4311.922852,4295.897461,4277.307617,4473.717773,4490.641113,4377.692383,4439.358887,2980.000000,2.000000,49.000000,,,,0.000000,4.000000,4.000000,4.000000,4.000000,4.000000,4.000000,4.000000,4.000000,4.000000,4.000000,4.000000,4.000000,4.000000,4.000000,100.000000,,,,,,,,,,,,,,,,,,,,,,,,,,,,,,,,,,,,,,,,,,,,,,,
1665774604.441635,1665774604.441660,102.000000,0.000000,4297.692383,4294.358887,4295.897461,4308.589844,4300.512695,4281.282227,4274.615234,4306.410156,4288.589844,4277.692383,4480.000000,4492.436035,4380.897461,4446.794922,2575.000000,2.000000,49.000000,,,,0.000000,4.000000,4.000000,4.000000,4.000000,4.000000,4.000000,4.000000,4.000000,4.000000,4.000000,4.000000,4.000000,4.000000,4.000000,100.000000,,,,,,,,,,,,,,,,,,,,,,,,,,,,,,,,,,,,,,,,,,,,,,,
1665774604.449444,1665774604.449568,103.000000,0.000000,4294.102539,4292.307617,4292.436035,4299.743652,4293.077148,4271.794922,4264.358887,4288.461426,4273.077148,4272.307617,4468.333496,4477.051270,4366.666504,4449.358887,1798.000000,2.000000,49.000000,,,,0.000000,4.000000,4.000000,4.000000,4.000000,4.000000,4.000000,4.000000,4.000000,4.000000,4.000000,4.000000,4.000000,4.000000,4.000000,100.000000,,,,,,,,,,,,,,,,,,,,,,,,,,,,,,,,,,,,,,,,,,,,,,,
1665774604.457252,1665774604.457377,104.000000,0.000000,4302.563965,4295.512695,4300.641113,4308.077148,4292.948730,4272.692383,4271.922852,4287.948730,4275.769043,4279.487305,4467.692383,4480.769043,4362.436035,4452.948730,2510.000000,2.000000,49.000000,,,,0.000000,4.000000,4.000000,4.000000,4.000000,4.000000,4.000000,4.000000,4.000000,4.000000,4.000000,4.000000,4.000000,4.000000,4.000000,100.000000,,,,,,,,,,,,,,,,,,,,,,,,,,,,,,,,,,,,,,,,,,,,,,,
1665774604.465061,1665774604.465285,105.000000,0.000000,4322.051270,4311.794922,4319.487305,4327.436035,4309.871582,4293.974121,4301.153809,4298.333496,4288.717773,4294.871582,4486.153809,4505.897461,4387.948730,4461.666504,2980.000000,2.000000,49.000000,,,,0.000000,4.000000,4.000000,4.000000,4.000000,4.000000,4.000000,4.000000,4.000000,4.000000,4.000000,4.000000,4.000000,4.000000,4.000000,100.000000,,,,,,,,,,,,,,,,,,,,,,,,,,,,,,,,,,,,,,,,,,,,,,,
1665774604.472869,1665774604.473094,106.000000,0.000000,4319.487305,4312.948730,4321.410156,4324.871582,4319.358887,4307.179688,4314.358887,4293.589844,4286.794922,4290.769043,4487.820313,4507.692383,4400.384766,4466.282227,2575.000000,2.000000,49.000000,,,,0.000000,4.000000,4.000000,4.000000,4.000000,4.000000,4.000000,4.000000,4.000000,4.000000,4.000000,4.000000,4.000000,4.000000,4.000000,100.000000,,,,,,,,,,,,,,,,,,,,,,,,,,,,,,,,,,,,,,,,,,,,,,,
1665774604.480677,1665774604.481002,107.000000,0.000000,4301.410156,4299.743652,4307.307617,4309.871582,4311.282227,4304.615234,4310.000000,4291.410156,4277.820313,4276.282227,4476.538574,4492.820313,4385.512695,4462.563965,1798.000000,2.000000,49.000000,,,,0.000000,4.000000,4.000000,4.000000,4.000000,4.000000,4.000000,4.000000,4.000000,4.000000,4.000000,4.000000,4.000000,4.000000,4.000000,100.000000,,,,,,,,,,,,,,,,,,,,,,,,,,,,,,,,,,,,,,,,,,,,,,,
1665774604.488486,1665774604.488810,108.000000,0.000000,4291.153809,4291.794922,4294.743652,4303.717773,4301.282227,4300.641113,4307.563965,4298.205078,4277.563965,4266.282227,4470.256348,4487.436035,4375.512695,4454.102539,2510.000000,2.000000,49.000000,,,,0.000000,4.000000,4.000000,4.000000,4.000000,4.000000,4.000000,4.000000,4.000000,4.000000,4.000000,4.000000,4.000000,4.000000,4.000000,100.000000,1.000000,100.000000,4.000000,4.000000,4.000000,4.000000,4.000000,4.000000,4.000000,4.000000,4.000000,4.000000,4.000000,4.000000,4.000000,4.000000,1.000000,0.490250,-0.611324,-1.281396,0.015708,1.000000,0.041788,1.666087,1.365900,8.549534,0.064995,1.000000,0.397183,59.637516,-6.839547,152.747665,1.000000,0.522640,0.134804,0.054174,0.384213,1.000000,0.515452,7.706565,-3.261496,17.301123,1.000000,0.163740,0.163740,0.000000,1.000000
1665774604.496294,1665774604.496719,109.000000,0.000000,4282.307617,4279.615234,4282.948730,4289.743652,4293.717773,4297.051270,4299.358887,4295.512695,4279.615234,4254.358887,4462.692383,4476.410156,4371.922852,4442.820313,2980.000000,2.000000,49.000000,,,,0.000000,4.000000,4.000000,4.000000,4.000000,4.000000,4.000000,4.000000,4.000000,4.000000,4.000000,4.000000,4.000000,4.000000,4.000000,100.000000,,,,,,,,,,,,,,,,,,,,,,,,,,,,,,,,,,,,,,,,,,,,,,,
1665774604.504103,1665774604.504527,110.000000,0.000000,4273.461426,4263.846191,4275.512695,4274.871582,4287.179688,4295.897461,4294.487305,4290.641113,4278.461426,4245.128418,4452.820313,4460.256348,4364.358887,4434.871582,2575.000000,2.000000,49.000000,,,,0.000000,4.000000,4.000000,4.000000,4.000000,4.000000,4.000000,4.000000,4.000000,4.000000,4.000000,4.000000,4.000000,4.000000,4.000000,100.000000,,,,,,,,,,,,,,,,,,,,,,,,,,,,,,,,,,,,,,,,,,,,,,,
1665774604.511911,1665774604.512435,111.000000,0.000000,4272.692383,4263.974121,4276.410156,4281.666504,4285.641113,4301.153809,4301.282227,4293.333496,4278.077148,4248.974121,4450.128418,4462.179688,4363.974121,4434.871582,1798.000000,2.000000,49.000000,,,,0.000000,4.000000,4.000000,4.000000,4.000000,4.000000,4.000000,4.000000,4.000000,4.000000,4.000000,4.000000,4.000000,4.000000,4.000000,100.000000,,,,,,,,,,,,,,,,,,,,,,,,,,,,,,,,,,,,,,,,,,,,,,,
1665774604.519719,1665774604.520244,112.000000,0.000000,4282.692383,4275.000000,4282.051270,4296.794922,4287.051270,4305.769043,4301.666504,4305.512695,4288.846191,4260.641113,4460.512695,4478.717773,4376.282227,4441.282227,2510.000000,2.000000,49.000000,1,1,1,0.000000,4.000000,4.000000,4.000000,4.000000,4.000000,4.000000,4.000000,4.000000,4.000000,4.000000,4.000000,4.000000,4.000000,4.000000,100.000000,,,,,,,,,,,,,,,,,,,,,,,,,,,,,,,,,,,,,,,,,,,,,,,
1665774604.527528,1665774604.528152,113.000000,0.000000,4295.000000,4283.333496,4291.025879,4300.641113,4292.948730,4307.820313,4297.436035,4317.692383,4302.307617,4273.461426,4477.436035,4493.077148,4389.102539,4451.282227,2980.000000,2.000000,49.000000,,,,0.000000,4.000000,4.000000,4.000000,4.000000,4.000000,4.000000,4.000000,4.000000,4.000000,4.000000,4.000000,4.000000,4.000000,4.000000,100.000000,,,,,,,,,,,,,,,,,,,,,,,,,,,,,,,,,,,,,,,,,,,,,,,
1665774604.535336,1665774604.535961,114.000000,0.000000,4295.512695,4282.563965,4291.794922,4297.179688,4295.128418,4305.641113,4292.179688,4308.333496,4295.512695,4280.000000,4475.769043,4491.538574,4386.538574,4450.128418,2575.000000,2.000000,49.000000,,,,0.000000,4.000000,4.000000,4.000000,4.000000,4.000000,4.000000,4.000000,4.000000,4.000000,4.000000,4.000000,4.000000,4.000000,4.000000,100.000000,,,,,,,,,,,,,,,,,,,,,,,,,,,,,,,,,,,,,,,,,,,,,,,
1665774604.543145,1665774604.543669,115.000000,0.000000,4289.615234,4270.897461,4282.692383,4291.538574,4285.128418,4296.794922,4276.025879,4289.871582,4281.025879,4269.230957,4462.179688,4476.538574,4374.871582,4438.077148,1798.000000,2.000000,49.000000,,,,0.000000,4.000000,4.000000,4.000000,4.000000,4.000000,4.000000,4.000000,4.000000,4.000000,4.000000,4.000000,4.000000,4.000000,4.000000,100.000000,,,,,,,,,,,,,,,,,,,,,,,,,,,,,,,,,,,,,,,,,,,,,,,
1665774604.550953,1665774604.551478,116.000000,0.000000,4295.000000,4267.563965,4286.410156,4290.769043,4280.128418,4292.051270,4267.436035,4287.948730,4280.384766,4263.077148,4469.102539,4472.436035,4380.256348,4442.051270,2510.000000,2.000000,49.000000,,,,0.000000,4.000000,4.000000,4.000000,4.000000,4.000000,4.000000,4.000000,4.000000,4.000000,4.000000,4.000000,4.000000,4.000000,4.000000,100.000000,,,,,,,,,,,,,,,,,,,,,,,,,,,,,,,,,,,,,,,,,,,,,,,
1665774604.558761,1665774604.559186,117.000000,0.000000,4302.948730,4277.563965,4298.974121,4295.512695,4292.436035,4295.128418,4276.410156,4285.897461,4278.589844,4272.563965,4478.589844,4482.692383,4391.666504,4454.487305,2980.000000,2.000000,49.000000,,,,0.000000,4.000000,4.000000,4.000000,4.000000,4.000000,4.000000,4.000000,4.000000,4.000000,4.000000,4.000000,4.000000,4.000000,4.000000,100.000000,,,,,,,,,,,,,,,,,,,,,,,,,,,,,,,,,,,,,,,,,,,,,,,
1665774604.566570,1665774604.567095,118.000000,0.000000,4300.897461,4282.436035,4296.922852,4296.666504,4310.384766,4296.794922,4285.384766,4275.384766,4269.487305,4278.846191,4474.102539,4489.743652,4389.230957,4452.436035,2575.000000,2.000000,49.000000,,,,0.000000,4.000000,4.000000,4.000000,4.000000,4.000000,4.000000,4.000000,4.000000,4.000000,4.000000,4.000000,4.000000,4.000000,4.000000,100.000000,,,,,,,,,,,,,,,,,,,,,,,,,,,,,,,,,,,,,,,,,,,,,,,
1665774604.574378,1665774604.574904,119.000000,0.000000,4298.846191,4280.512695,4293.846191,4294.743652,4311.410156,4295.000000,4289.487305,4280.897461,4269.743652,4276.025879,4472.563965,4489.102539,4389.615234,4448.333496,1798.000000,2.000000,49.000000,,,,0.000000,4.000000,4.000000,4.000000,4.000000,4.000000,4.000000,4.000000,4.000000,4.000000,4.000000,4.000000,4.000000,4.000000,4.000000,100.000000,,,,,,,,,,,,,,,,,,,,,,,,,,,,,,,,,,,,,,,,,,,,,,,
1665774604.582186,1665774604.582812,120.000000,0.000000,4297.563965,4280.512695,4302.051270,4295.512695,4300.897461,4294.743652,4299.230957,4299.102539,4282.563965,4270.512695,4476.410156,4490.384766,4396.666504,4449.102539,2510.000000,2.000000,49.000000,,,,0.000000,4.000000,4.000000,4.000000,4.000000,4.000000,4.000000,4.000000,4.000000,4.000000,4.000000,4.000000,4.000000,4.000000,4.000000,100.000000,,,,,,,,,,,,,,,,,,,,,,,,,,,,,,,,,,,,,,,,,,,,,,,
1665774604.589995,1665774604.590621,121.000000,0.000000,4295.128418,4281.153809,4308.846191,4297.436035,4296.666504,4295.000000,4306.538574,4313.589844,4296.153809,4272.436035,4483.333496,4500.000000,4397.179688,4450.769043,2980.000000,2.000000,49.000000,,,,0.000000,4.000000,4.000000,4.000000,4.000000,4.000000,4.000000,4.000000,4.000000,4.000000,4.000000,4.000000,4.000000,4.000000,4.000000,100.000000,,,,,,,,,,,,,,,,,,,,,,,,,,,,,,,,,,,,,,,,,,,,,,,
1665774604.597803,1665774604.598529,122.000000,0.000000,4298.974121,4282.307617,4309.743652,4297.692383,4294.358887,4293.846191,4308.205078,4323.846191,4298.846191,4276.538574,4489.230957,4508.974121,4397.179688,4453.974121,2575.000000,2.000000,49.000000,,,,0.000000,4.000000,4.000000,4.000000,4.000000,4.000000,4.000000,4.000000,4.000000,4.000000,4.000000,4.000000,4.000000,4.000000,4.000000,100.000000,,,,,,,,,,,,,,,,,,,,,,,,,,,,,,,,,,,,,,,,,,,,,,,
1665774604.605612,1665774604.606338,123.000000,0.000000,4302.436035,4281.794922,4309.743652,4294.615234,4283.846191,4292.307617,4312.051270,4326.922852,4293.589844,4270.384766,4485.512695,4509.615234,4397.948730,4453.205078,1798.000000,2.000000,49.000000,,,,0.000000,4.000000,4.000000,4.000000,4.000000,4.000000,4.000000,4.000000,4.000000,4.000000,4.000000,4.000000,4.000000,4.000000,4.000000,100.000000,,,,,,,,,,,,,,,,,,,,,,,,,,,,,,,,,,,,,,,,,,,,,,,
1665774604.613420,1665774604.614147,124.000000,0.000000,4305.512695,4278.846191,4310.128418,4296.282227,4282.179688,4298.717773,4316.666504,4328.461426,4300.384766,4268.846191,4484.743652,4512.051270,4395.641113,4453.205078,2510.000000,2.000000,49.000000,,,,0.000000,4.000000,4.000000,4.000000,4.000000,4.000000,4.000000,4.000000,4.000000,4.000000,4.000000,4.000000,4.000000,4.000000,4.000000,100.000000,,,,,,,,,,,,,,,,,,,,,,,,,,,,,,,,,,,,,,,,,,,,,,,
1665774604.621228,1665774604.621855,125.000000,0.000000,4315.256348,4287.051270,4312.948730,4307.436035,4295.512695,4308.077148,4314.230957,4328.077148,4311.153809,4279.743652,4492.179688,4515.000000,4399.358887,4461.922852,2980.000000,2.000000,49.000000,,,,0.000000,4.000000,4.000000,4.000000,4.000000,4.000000,4.000000,4.000000,4.000000,4.000000,4.000000,4.000000,4.000000,4.000000,4.000000,100.000000,,,,,,,,,,,,,,,,,,,,,,,,,,,,,,,,,,,,,,,,,,,,,,,
1665774604.629037,1665774604.629664,126.000000,0.000000,4317.692383,4296.025879,4311.282227,4311.794922,4297.179688,4307.179688,4303.461426,4317.436035,4304.358887,4281.666504,4490.897461,4508.974121,4407.948730,4464.615234,2575.000000,2.000000,49.000000,,,,0.000000,4.000000,4.000000,4.000000,4.000000,4.000000,4.000000,4.000000,4.000000,4.000000,4.000000,4.000000,4.000000,4.000000,4.000000,100.000000,,,,,,,,,,,,,,,,,,,,,,,,,,,,,,,,,,,,,,,,,,,,,,,
1665774604.636845,1665774604.637372,127.000000,0.000000,4314.230957,4295.256348,4308.077148,4308.846191,4293.846191,4305.769043,4301.666504,4313.589844,4301.922852,4276.410156,4488.461426,4506.025879,4413.717773,4461.538574,49.000000,2.000000,49.000000,,,,0.000000,4.000000,4.000000,4.000000,4.000000,4.000000,4.000000,4.000000,4.000000,4.000000,4.000000,4.000000,4.000000,4.000000,4.000000,100.000000,,,,,,,,,,,,,,,,,,,,,,,,,,,,,,,,,,,,,,,,,,,,,,,
1665774604.644653,1665774604.645181,0.000000,0.000000,4319.102539,4298.077148,4314.102539,4310.769043,4298.333496,4308.077148,4306.153809,4321.410156,4312.436035,4281.410156,4493.589844,4512.179688,4413.974121,4467.307617,2024.000000,2.000000,49.000000,,,,0.000000,4.000000,4.000000,4.000000,4.000000,4.000000,4.000000,4.000000,4.000000,4.000000,4.000000,4.000000,4.000000,4.000000,4.000000,100.000000,,,,,,,,,,,,,,,,,,,,,,,,,,,,,,,,,,,,,,,,,,,,,,,
1665774604.652462,1665774604.652889,1.000000,0.000000,4324.615234,4302.051270,4316.666504,4310.256348,4295.769043,4299.743652,4294.358887,4310.384766,4307.820313,4283.717773,4485.256348,4509.615234,4409.230957,4463.205078,2179.000000,2.000000,49.000000,,,,0.000000,4.000000,4.000000,4.000000,4.000000,4.000000,4.000000,4.000000,4.000000,4.000000,4.000000,4.000000,4.000000,4.000000,4.000000,100.000000,,,,,,,,,,,,,,,,,,,,,,,,,,,,,,,,,,,,,,,,,,,,,,,
1665774604.660270,1665774604.660798,2.000000,0.000000,4321.538574,4298.461426,4309.102539,4305.512695,4295.641113,4290.512695,4277.563965,4288.589844,4285.000000,4279.871582,4476.538574,4501.922852,4408.717773,4451.282227,2191.000000,2.000000,49.000000,,,,0.000000,4.000000,4.000000,4.000000,4.000000,4.000000,4.000000,4.000000,4.000000,4.000000,4.000000,4.000000,4.000000,4.000000,4.000000,100.000000,,,,,,,,,,,,,,,,,,,,,,,,,,,,,,,,,,,,,,,,,,,,,,,
1665774604.668079,1665774604.668606,3.000000,0.000000,4319.358887,4295.512695,4309.487305,4308.333496,4306.153809,4298.461426,4284.102539,4288.205078,4275.000000,4281.153809,4486.794922,4504.615234,4412.820313,4454.487305,2277.000000,2.000000,49.000000,,,,0.000000,4.000000,4.000000,4.000000,4.000000,4.000000,4.000000,4.000000,4.000000,4.000000,4.000000,4.000000,4.000000,4.000000,4.000000,100.000000,,,,,,,,,,,,,,,,,,,,,,,,,,,,,,,,,,,,,,,,,,,,,,,
1665774604.675887,1665774604.676514,4.000000,0.000000,4322.820313,4297.820313,4318.077148,4313.846191,4309.102539,4305.384766,4295.256348,4296.922852,4283.333496,4283.205078,4495.128418,4510.897461,4414.358887,4461.410156,2254.000000,2.000000,49.000000,,,,0.000000,4.000000,4.000000,4.000000,4.000000,4.000000,4.000000,4.000000,4.000000,4.000000,4.000000,4.000000,4.000000,4.000000,4.000000,100.000000,,,,,,,,,,,,,,,,,,,,,,,,,,,,,,,,,,,,,,,,,,,,,,,
1665774604.683695,1665774604.684323,5.000000,0.000000,4320.384766,4295.128418,4316.282227,4310.769043,4301.025879,4292.820313,4279.743652,4295.384766,4282.436035,4281.282227,4487.179688,4507.307617,4411.153809,4452.563965,2269.000000,2.000000,49.000000,,,,0.000000,4.000000,4.000000,4.000000,4.000000,4.000000,4.000000,4.000000,4.000000,4.000000,4.000000,4.000000,4.000000,4.000000,4.000000,100.000000,,,,,,,,,,,,,,,,,,,,,,,,,,,,,,,,,,,,,,,,,,,,,,,
1665774604.691504,1665774604.692231,6.000000,0.000000,4319.743652,4297.563965,4314.615234,4314.743652,4305.256348,4290.128418,4273.974121,4298.205078,4277.820313,4281.282227,4488.333496,4508.333496,4412.948730,4453.077148,1977.000000,2.000000,49.000000,,,,0.000000,4.000000,4.000000,4.000000,4.000000,4.000000,4.000000,4.000000,4.000000,4.000000,4.000000,4.000000,4.000000,4.000000,4.000000,100.000000,,,,,,,,,,,,,,,,,,,,,,,,,,,,,,,,,,,,,,,,,,,,,,,
1665774604.699312,1665774604.700040,7.000000,0.000000,4322.692383,4308.974121,4324.615234,4326.282227,4315.128418,4305.769043,4296.282227,4311.025879,4291.538574,4287.051270,4502.820313,4521.410156,4416.025879,4470.256348,2122.000000,2.000000,49.000000,,,,0.000000,4.000000,4.000000,4.000000,4.000000,4.000000,4.000000,4.000000,4.000000,4.000000,4.000000,4.000000,4.000000,4.000000,4.000000,100.000000,,,,,,,,,,,,,,,,,,,,,,,,,,,,,,,,,,,,,,,,,,,,,,,
1665774604.707121,1665774604.707948,8.000000,0.000000,4311.922852,4302.436035,4318.974121,4313.589844,4305.641113,4305.641113,4306.153809,4314.102539,4302.436035,4289.102539,4494.358887,4513.974121,4405.384766,4469.743652,2142.000000,2.000000,49.000000,,,,0.000000,4.000000,4.000000,4.000000,4.000000,4.000000,4.000000,4.000000,4.000000,4.000000,4.000000,4.000000,4.000000,4.000000,4.000000,100.000000,,,,,,,,,,,,,,,,,,,,,,,,,,,,,,,,,,,,,,,,,,,,,,,
1665774604.714929,1665774604.715857,9.000000,0.000000,4291.410156,4279.615234,4296.922852,4289.871582,4292.051270,4290.897461,4295.512695,4307.436035,4293.461426,4280.641113,4471.666504,4490.256348,4385.256348,4453.205078,2324.000000,2.000000,49.000000,,,,0.000000,4.000000,4.000000,4.000000,4.000000,4.000000,4.000000,4.000000,4.000000,4.000000,4.000000,4.000000,4.000000,4.000000,4.000000,100.000000,,,,,,,,,,,,,,,,,,,,,,,,,,,,,,,,,,,,,,,,,,,,,,,
1665774604.722737,1665774604.723665,10.000000,0.000000,4287.820313,4275.128418,4293.589844,4293.974121,4292.948730,4289.743652,4292.307617,4309.871582,4289.871582,4271.922852,4472.692383,4491.922852,4379.102539,4453.846191,2560.000000,2.000000,49.000000,,,,0.000000,4.000000,4.000000,4.000000,4.000000,4.000000,4.000000,4.000000,4.000000,4.000000,4.000000,4.000000,4.000000,4.000000,4.000000,100.000000,,,,,,,,,,,,,,,,,,,,,,,,,,,,,,,,,,,,,,,,,,,,,,,
1665774604.730546,1665774604.731474,11.000000,0.000000,4299.358887,4291.153809,4307.179688,4311.025879,4298.846191,4298.333496,4299.358887,4315.897461,4302.948730,4274.358887,4485.769043,4508.205078,4390.769043,4461.794922,1773.000000,2.000000,49.000000,,,,0.000000,4.000000,4.000000,4.000000,4.000000,4.000000,4.000000,4.000000,4.000000,4.000000,4.000000,4.000000,4.000000,4.000000,4.000000,100.000000,,,,,,,,,,,,,,,,,,,,,,,,,,,,,,,,,,,,,,,,,,,,,,,
1665774604.738354,1665774604.739183,12.000000,0.000000,4301.153809,4295.641113,4308.205078,4308.461426,4297.179688,4304.102539,4303.205078,4311.410156,4304.102539,4278.589844,4479.871582,4505.384766,4393.077148,4452.563965,2493.000000,2.000000,49.000000,,,,0.000000,4.000000,4.000000,4.000000,4.000000,4.000000,4.000000,4.000000,4.000000,4.000000,4.000000,4.000000,4.000000,4.000000,4.000000,100.000000,,,,,,,,,,,,,,,,,,,,,,,,,,,,,,,,,,,,,,,,,,,,,,,
1665774604.746163,1665774604.746991,13.000000,0.000000,4301.794922,4289.358887,4306.025879,4304.358887,4296.025879,4312.179688,4304.487305,4312.051270,4298.077148,4278.461426,4470.384766,4502.563965,4386.538574,4446.538574,2969.000000,2.000000,49.000000,,,,0.000000,4.000000,4.000000,4.000000,4.000000,4.000000,4.000000,4.000000,4.000000,4.000000,4.000000,4.000000,4.000000,4.000000,4.000000,100.000000,,,,,,,,,,,,,,,,,,,,,,,,,,,,,,,,,,,,,,,,,,,,,,,
1665774604.753971,1665774604.754700,14.000000,0.000000,4310.256348,4291.025879,4313.846191,4311.794922,4299.487305,4310.384766,4298.589844,4317.307617,4298.589844,4275.641113,4475.000000,4507.820313,4387.692383,4455.769043,2560.000000,2.000000,49.000000,,,,0.000000,4.000000,4.000000,4.000000,4.000000,4.000000,4.000000,4.000000,4.000000,4.000000,4.000000,4.000000,4.000000,4.000000,4.000000,100.000000,,,,,,,,,,,,,,,,,,,,,,,,,,,,,,,,,,,,,,,,,,,,,,,
1665774604.761779,1665774604.762508,15.000000,0.000000,4312.692383,4292.820313,4312.563965,4311.922852,4295.512695,4294.230957,4283.205078,4303.589844,4288.077148,4267.820313,4472.820313,4497.563965,4386.794922,4459.230957,1773.000000,2.000000,49.000000,,,,0.000000,4.000000,4.000000,4.000000,4.000000,4.000000,4.000000,4.000000,4.000000,4.000000,4.000000,4.000000,4.000000,4.000000,4.000000,100.000000,,,,,,,,,,,,,,,,,,,,,,,,,,,,,,,,,,,,,,,,,,,,,,,
1665774604.769588,1665774604.770217,16.000000,0.000000,4311.153809,4292.179688,4309.358887,4310.512695,4293.077148,4291.666504,4280.897461,4290.384766,4277.307617,4265.897461,4468.461426,4491.025879,4384.743652,4461.153809,0.000000,2.000000,49.000000,,,,0.000000,4.000000,4.000000,4.000000,4.000000,4.000000,4.000000,4.000000,4.000000,4.000000,4.000000,4.000000,4.000000,4.000000,4.000000,100.000000,,,,,,,,,,,,,,,,,,,,,,,,,,,,,,,,,,,,,,,,,,,,,,,
1665774604.777396,1665774604.778025,17.000000,0.000000,4320.128418,4304.358887,4323.077148,4321.538574,4307.563965,4307.179688,4295.769043,4303.077148,4287.307617,4280.897461,4483.974121,4508.589844,4396.410156,4477.563965,0.000000,2.000000,49.000000,,,,0.000000,4.000000,4.000000,4.000000,4.000000,4.000000,4.000000,4.000000,4.000000,4.000000,4.000000,4.000000,4.000000,4.000000,4.000000,100.000000,,,,,,,,,,,,,,,,,,,,,,,,,,,,,,,,,,,,,,,,,,,,,,,
1665774604.785204,1665774604.785734,18.000000,0.000000,4328.846191,4315.769043,4331.282227,4331.025879,4319.615234,4313.333496,4296.025879,4307.179688,4293.974121,4290.256348,4492.307617,4515.769043,4403.333496,4489.230957,0.000000,2.000000,49.000000,,,,0.000000,4.000000,4.000000,4.000000,4.000000,4.000000,4.000000,4.000000,4.000000,4.000000,4.000000,4.000000,4.000000,4.000000,4.000000,100.000000,,,,,,,,,,,,,,,,,,,,,,,,,,,,,,,,,,,,,,,,,,,,,,,
1665774604.793013,1665774604.793542,19.000000,0.000000,4319.102539,4303.717773,4316.794922,4319.743652,4311.153809,4299.743652,4274.102539,4280.769043,4276.282227,4279.487305,4476.538574,4494.230957,4389.743652,4475.256348,0.000000,2.000000,49.000000,,,,0.000000,4.000000,4.000000,4.000000,4.000000,4.000000,4.000000,4.000000,4.000000,4.000000,4.000000,4.000000,4.000000,4.000000,4.000000,100.000000,,,,,,,,,,,,,,,,,,,,,,,,,,,,,,,,,,,,,,,,,,,,,,,
1665774604.800821,1665774604.801251,20.000000,0.000000,4310.769043,4295.000000,4312.307617,4307.307617,4306.538574,4293.717773,4275.769043,4277.051270,4275.641113,4281.282227,4478.461426,4486.410156,4385.897461,4465.128418,0.000000,2.000000,49.000000,,,,0.000000,4.000000,4.000000,4.000000,4.000000,4.000000,4.000000,4.000000,4.000000,4.000000,4.000000,4.000000,4.000000,4.000000,4.000000,100.000000,,,,,,,,,,,,,,,,,,,,,,,,,,,,,,,,,,,,,,,,,,,,,,,
1665774604.808630,1665774604.809059,21.000000,0.000000,4311.538574,4295.256348,4318.717773,4311.025879,4308.077148,4304.487305,4301.666504,4306.538574,4297.563965,4292.436035,4491.538574,4496.282227,4392.051270,4470.256348,0.000000,2.000000,49.000000,,,,0.000000,4.000000,4.000000,4.000000,4.000000,4.000000,4.000000,4.000000,4.000000,4.000000,4.000000,4.000000,4.000000,4.000000,4.000000,100.000000,,,,,,,,,,,,,,,,,,,,,,,,,,,,,,,,,,,,,,,,,,,,,,,
1665774604.816438,1665774604.816768,22.000000,0.000000,4301.153809,4285.128418,4308.077148,4313.077148,4296.025879,4306.282227,4303.846191,4310.641113,4291.666504,4282.051270,4480.641113,4484.615234,4380.897461,4461.538574,0.000000,2.000000,49.000000,,,,0.000000,4.000000,4.000000,4.000000,4.000000,4.000000,4.000000,4.000000,4.000000,4.000000,4.000000,4.000000,4.000000,4.000000,4.000000,100.000000,,,,,,,,,,,,,,,,,,,,,,,,,,,,,,,,,,,,,,,,,,,,,,,
1665774604.824246,1665774604.824576,23.000000,0.000000,4289.743652,4282.179688,4299.487305,4308.077148,4293.461426,4298.077148,4290.000000,4295.384766,4276.025879,4272.692383,4469.743652,4472.692383,4369.358887,4451.410156,0.000000,2.000000,49.000000,,,,0.000000,4.000000,4.000000,4.000000,4.000000,4.000000,4.000000,4.000000,4.000000,4.000000,4.000000,4.000000,4.000000,4.000000,4.000000,100.000000,,,,,,,,,,,,,,,,,,,,,,,,,,,,,,,,,,,,,,,,,,,,,,,
1665774604.832055,1665774604.832284,24.000000,0.000000,4300.641113,4296.282227,4312.436035,4309.102539,4305.512695,4301.282227,4296.794922,4305.000000,4288.205078,4281.794922,4477.436035,4487.563965,4377.563965,4462.307617,0.000000,2.000000,49.000000,,,,0.000000,4.000000,4.000000,4.000000,4.000000,4.000000,4.000000,4.000000,4.000000,4.000000,4.000000,4.000000,4.000000,4.000000,4.000000,100.000000,,,,,,,,,,,,,,,,,,,,,,,,,,,,,,,,,,,,,,,,,,,,,,,
1665774604.839863,1665774604.840093,25.000000,0.000000,4310.384766,4297.051270,4319.743652,4309.743652,4300.897461,4307.051270,4309.743652,4318.717773,4299.102539,4282.692383,4480.000000,4501.410156,4381.538574,4467.563965,0.000000,2.000000,49.000000,,,,0.000000,4.000000,4.000000,4.000000,4.000000,4.000000,4.000000,4.000000,4.000000,4.000000,4.000000,4.000000,4.000000,4.000000,4.000000,100.000000,,,,,,,,,,,,,,,,,,,,,,,,,,,,,,,,,,,,,,,,,,,,,,,
1665774604.847671,1665774604.847801,26.000000,0.000000,4309.615234,4292.820313,4317.436035,4309.487305,4294.487305,4305.512695,4306.153809,4311.666504,4294.487305,4280.384766,4482.692383,4501.025879,4381.153809,4458.846191,0.000000,2.000000,49.000000,,,,0.000000,4.000000,4.000000,4.000000,4.000000,4.000000,4.000000,4.000000,4.000000,4.000000,4.000000,4.000000,4.000000,4.000000,4.000000,100.000000,,,,,,,,,,,,,,,,,,,,,,,,,,,,,,,,,,,,,,,,,,,,,,,
1665774604.855480,1665774604.855710,27.000000,0.000000,4322.179688,4307.051270,4325.000000,4321.153809,4306.794922,4310.641113,4296.025879,4313.077148,4306.666504,4295.256348,4494.871582,4509.615234,4396.538574,4466.666504,0.000000,2.000000,49.000000,,,,0.000000,4.000000,4.000000,4.000000,4.000000,4.000000,4.000000,4.000000,4.000000,4.000000,4.000000,4.000000,4.000000,4.000000,4.000000,100.000000,,,,,,,,,,,,,,,,,,,,,,,,,,,,,,,,,,,,,,,,,,,,,,,
1665774604.863288,1665774604.863518,28.000000,0.000000,4325.641113,4306.410156,4322.179688,4320.641113,4307.179688,4310.769043,4288.589844,4318.846191,4316.666504,4297.820313,4488.461426,4508.846191,4398.461426,4476.025879,0.000000,2.000000,49.000000,,,,0.000000,4.000000,4.000000,4.000000,4.000000,4.000000,4.000000,4.000000,4.000000,4.000000,4.000000,4.000000,4.000000,4.000000,4.000000,100.000000,,,,,,,,,,,,,,,,,,,,,,,,,,,,,,,,,,,,,,,,,,,,,,,
1665774604.871096,1665774604.871427,29.000000,0.000000,4305.769043,4290.769043,4305.641113,4308.461426,4292.436035,4297.307617,4286.153809,4306.666504,4293.461426,4281.025879,4470.256348,4491.153809,4376.538574,4462.948730,0.000000,2.000000,49.000000,,,,0.000000,4.000000,4.000000,4.000000,4.000000,4.000000,4.000000,4.000000,4.000000,4.000000,4.000000,4.000000,4.000000,4.000000,4.000000,100.000000,,,,,,,,,,,,,,,,,,,,,,,,,,,,,,,,,,,,,,,,,,,,,,,
1665774604.878905,1665774604.879235,30.000000,0.000000,4302.051270,4297.563965,4306.538574,4315.000000,4291.666504,4292.436035,4285.384766,4289.230957,4274.871582,4276.922852,4470.512695,4488.461426,4369.615234,4453.846191,0.000000,2.000000,49.000000,,,,0.000000,4.000000,4.000000,4.000000,4.000000,4.000000,4.000000,4.000000,4.000000,4.000000,4.000000,4.000000,4.000000,4.000000,4.000000,100.000000,,,,,,,,,,,,,,,,,,,,,,,,,,,,,,,,,,,,,,,,,,,,,,,
1665774604.886713,1665774604.887143,31.000000,0.000000,4313.461426,4309.230957,4312.179688,4320.769043,4299.487305,4296.025879,4278.589844,4284.230957,4279.230957,4282.692383,4477.563965,4493.846191,4375.256348,4453.846191,0.000000,2.000000,49.000000,,,,0.000000,4.000000,4.000000,4.000000,4.000000,4.000000,4.000000,4.000000,4.000000,4.000000,4.000000,4.000000,4.000000,4.000000,4.000000,100.000000,,,,,,,,,,,,,,,,,,,,,,,,,,,,,,,,,,,,,,,,,,,,,,,
1665774604.894522,1665774604.894952,32.000000,0.000000,4307.948730,4303.205078,4303.077148,4311.538574,4295.897461,4290.897461,4274.230957,4286.922852,4277.948730,4279.743652,4473.589844,4488.717773,4370.384766,4443.846191,0.000000,2.000000,49.000000,,,,0.000000,4.000000,4.000000,4.000000,4.000000,4.000000,4.000000,4.000000,4.000000,4.000000,4.000000,4.000000,4.000000,4.000000,4.000000,100.000000,,,,,,,,,,,,,,,,,,,,,,,,,,,,,,,,,,,,,,,,,,,,,,,
1665774604.902330,1665774604.902860,33.000000,0.000000,4302.820313,4304.743652,4301.153809,4315.000000,4295.512695,4292.051270,4288.846191,4295.256348,4275.384766,4277.820313,4473.461426,4489.615234,4370.641113,4435.256348,0.000000,2.000000,49.000000,,,,0.000000,4.000000,4.000000,4.000000,4.000000,4.000000,4.000000,4.000000,4.000000,4.000000,4.000000,4.000000,4.000000,4.000000,4.000000,100.000000,,,,,,,,,,,,,,,,,,,,,,,,,,,,,,,,,,,,,,,,,,,,,,,
1665774604.910138,1665774604.910669,34.000000,0.000000,4309.615234,4315.897461,4311.794922,4323.461426,4303.846191,4301.666504,4303.974121,4305.256348,4284.871582,4282.692383,4479.358887,4498.205078,4377.051270,4435.128418,0.000000,2.000000,49.000000,,,,0.000000,4.000000,4.000000,4.000000,4.000000,4.000000,4.000000,4.000000,4.000000,4.000000,4.000000,4.000000,4.000000,4.000000,4.000000,100.000000,,,,,,,,,,,,,,,,,,,,,,,,,,,,,,,,,,,,,,,,,,,,,,,
1665774604.917947,1665774604.918377,35.000000,0.000000,4308.589844,4307.051270,4311.153809,4314.743652,4301.538574,4299.615234,4297.307617,4302.692383,4287.948730,4280.897461,4472.948730,4492.307617,4369.230957,4427.948730,0.000000,2.000000,49.000000,,,,0.000000,4.000000,4.000000,4.000000,4.000000,4.000000,4.000000,4.000000,4.000000,4.000000,4.000000,4.000000,4.000000,4.000000,4.000000,100.000000,,,,,,,,,,,,,,,,,,,,,,,,,,,,,,,,,,,,,,,,,,,,,,,
1665774604.925755,1665774604.926186,36.000000,0.000000,4305.384766,4295.128418,4308.077148,4310.641113,4295.512695,4297.820313,4293.589844,4298.589844,4288.589844,4272.692383,4471.922852,4488.205078,4362.692383,4428.846191,0.000000,2.000000,49.000000,,,,0.000000,4.000000,4.000000,4.000000,4.000000,4.000000,4.000000,4.000000,4.000000,4.000000,4.000000,4.000000,4.000000,4.000000,4.000000,100.000000,,,,,,,,,,,,,,,,,,,,,,,,,,,,,,,,,,,,,,,,,,,,,,,
1665774604.933564,1665774604.933894,37.000000,0.000000,4305.000000,4298.077148,4312.179688,4314.487305,4296.666504,4302.692383,4302.948730,4301.410156,4296.410156,4268.974121,4478.205078,4491.538574,4368.589844,4437.051270,0.000000,2.000000,49.000000,,,,0.000000,4.000000,4.000000,4.000000,4.000000,4.000000,4.000000,4.000000,4.000000,4.000000,4.000000,4.000000,4.000000,4.000000,4.000000,100.000000,,,,,,,,,,,,,,,,,,,,,,,,,,,,,,,,,,,,,,,,,,,,,,,
1665774604.941372,1665774604.941703,38.000000,0.000000,4299.615234,4297.307617,4306.922852,4307.948730,4293.846191,4297.307617,4301.153809,4297.563965,4291.282227,4266.025879,4467.820313,4480.769043,4366.410156,4430.769043,0.000000,2.000000,49.000000,,,,0.000000,4.000000,4.000000,4.000000,4.000000,4.000000,4.000000,4.000000,4.000000,4.000000,4.000000,4.000000,4.000000,4.000000,4.000000,100.000000,,,,,,,,,,,,,,,,,,,,,,,,,,,,,,,,,,,,,,,,,,,,,,,
1665774604.949180,1665774604.949411,39.000000,0.000000,4299.230957,4293.717773,4300.384766,4305.641113,4288.846191,4291.922852,4290.256348,4294.871582,4281.153809,4262.820313,4460.897461,4474.743652,4360.256348,4426.922852,0.000000,2.000000,49.000000,,,,0.000000,4.000000,4.000000,4.000000,4.000000,4.000000,4.000000,4.000000,4.000000,4.000000,4.000000,4.000000,4.000000,4.000000,4.000000,100.000000,,,,,,,,,,,,,,,,,,,,,,,,,,,,,,,,,,,,,,,,,,,,,,,
1665774604.956989,1665774604.957220,40.000000,0.000000,4311.025879,4307.436035,4308.974121,4318.205078,4294.102539,4298.205078,4295.769043,4308.077148,4293.333496,4269.871582,4475.128418,4490.384766,4372.820313,4438.077148,0.000000,2.000000,49.000000,,,,0.000000,4.000000,4.000000,4.000000,4.000000,4.000000,4.000000,4.000000,4.000000,4.000000,4.000000,4.000000,4.000000,4.000000,4.000000,100.000000,,,,,,,,,,,,,,,,,,,,,,,,,,,,,,,,,,,,,,,,,,,,,,,
1665774604.964797,1665774604.964928,41.000000,0.000000,4313.077148,4313.589844,4313.846191,4320.897461,4297.051270,4297.436035,4292.307617,4310.769043,4302.563965,4279.487305,4477.436035,4497.563965,4379.102539,4436.282227,0.000000,2.000000,49.000000,,,,0.000000,4.000000,4.000000,4.000000,4.000000,4.000000,4.000000,4.000000,4.000000,4.000000,4.000000,4.000000,4.000000,4.000000,4.000000,100.000000,,,,,,,,,,,,,,,,,,,,,,,,,,,,,,,,,,,,,,,,,,,,,,,
1665774604.972606,1665774604.972737,42.000000,0.000000,4305.769043,4299.230957,4305.384766,4311.538574,4294.230957,4287.948730,4265.000000,4291.538574,4285.897461,4280.769043,4460.769043,4487.948730,4364.487305,4422.820313,0.000000,2.000000,49.000000,,,,0.000000,4.000000,4.000000,4.000000,4.000000,4.000000,4.000000,4.000000,4.000000,4.000000,4.000000,4.000000,4.000000,4.000000,4.000000,100.000000,,,,,,,,,,,,,,,,,,,,,,,,,,,,,,,,,,,,,,,,,,,,,,,
1665774604.980414,1665774604.980445,43.000000,0.000000,4312.692383,4301.794922,4307.692383,4317.948730,4299.871582,4294.230957,4261.538574,4286.794922,4278.077148,4279.487305,4459.615234,4486.025879,4361.410156,4421.922852,0.000000,2.000000,49.000000,,,,0.000000,4.000000,4.000000,4.000000,4.000000,4.000000,4.000000,4.000000,4.000000,4.000000,4.000000,4.000000,4.000000,4.000000,4.000000,100.000000,,,,,,,,,,,,,,,,,,,,,,,,,,,,,,,,,,,,,,,,,,,,,,,
1665774604.988222,1665774604.988254,44.000000,0.000000,4317.563965,4311.025879,4312.051270,4325.641113,4299.615234,4302.692383,4282.692383,4290.128418,4282.948730,4271.410156,4465.384766,4483.461426,4367.692383,4422.820313,0.000000,2.000000,49.000000,,,,0.000000,4.000000,4.000000,4.000000,4.000000,4.000000,4.000000,4.000000,4.000000,4.000000,4.000000,4.000000,4.000000,4.000000,4.000000,100.000000,1.000000,100.000000,4.000000,4.000000,4.000000,4.000000,4.000000,4.000000,4.000000,4.000000,4.000000,4.000000,4.000000,4.000000,4.000000,4.000000,1.000000,0.483064,-0.712561,-1.281204,0.015408,1.000000,0.060856,1.803067,1.365900,8.549534,0.064485,1.000000,0.384198,57.877895,-6.798022,152.641022,1.000000,0.512368,0.121215,0.054294,0.384187,1.000000,0.507769,6.850102,-3.253512,17.291872,1.000000,0.165140,0.165140,0.000000,1.000000
1665774604.996031,1665774604.995962,45.000000,0.000000,4307.820313,4298.589844,4303.846191,4313.461426,4296.666504,4299.230957,4290.000000,4285.256348,4277.563965,4260.641113,4460.641113,4475.384766,4365.384766,4418.846191,0.000000,2.000000,49.000000,,,,0.000000,4.000000,4.000000,4.000000,4.000000,4.000000,4.000000,4.000000,4.000000,4.000000,4.000000,4.000000,4.000000,4.000000,4.000000,100.000000,,,,,,,,,,,,,,,,,,,,,,,,,,,,,,,,,,,,,,,,,,,,,,,
1665774605.003839,1665774605.003771,46.000000,0.000000,4303.589844,4289.743652,4303.333496,4306.410156,4306.282227,4302.820313,4292.692383,4288.717773,4274.230957,4269.615234,4460.128418,4477.051270,4366.282227,4416.922852,0.000000,2.000000,49.000000,,,,0.000000,4.000000,4.000000,4.000000,4.000000,4.000000,4.000000,4.000000,4.000000,4.000000,4.000000,4.000000,4.000000,4.000000,4.000000,100.000000,,,,,,,,,,,,,,,,,,,,,,,,,,,,,,,,,,,,,,,,,,,,,,,
1665774605.011648,1665774605.011479,47.000000,0.000000,4307.051270,4300.000000,4307.692383,4316.282227,4308.589844,4313.717773,4308.974121,4300.384766,4282.692383,4283.077148,4466.153809,4483.846191,4371.410156,4421.282227,0.000000,2.000000,49.000000,,,,0.000000,4.000000,4.000000,4.000000,4.000000,4.000000,4.000000,4.000000,4.000000,4.000000,4.000000,4.000000,4.000000,4.000000,4.000000,100.000000,,,,,,,,,,,,,,,,,,,,,,,,,,,,,,,,,,,,,,,,,,,,,,,
1665774605.019456,1665774605.019388,48.000000,0.000000,4297.563965,4295.769043,4298.461426,4313.717773,4297.563965,4307.436035,4314.102539,4298.077148,4284.358887,4272.820313,4464.487305,4479.102539,4366.282227,4422.307617,0.000000,2.000000,49.000000,,,,0.000000,4.000000,4.000000,4.000000,4.000000,4.000000,4.000000,4.000000,4.000000,4.000000,4.000000,4.000000,4.000000,4.000000,4.000000,100.000000,,,,,,,,,,,,,,,,,,,,,,,,,,,,,,,,,,,,,,,,,,,,,,,
1665774605.027264,1665774605.027196,49.000000,0.000000,4282.948730,4281.410156,4290.512695,4300.256348,4294.230957,4293.333496,4299.358887,4291.025879,4274.615234,4259.615234,4459.615234,4469.230957,4360.769043,4412.692383,0.000000,2.000000,49.000000,,,,0.000000,4.000000,4.000000,4.000000,4.000000,4.000000,4.000000,4.000000,4.000000,4.000000,4.000000,4.000000,4.000000,4.000000,4.000000,100.000000,,,,,,,,,,,,,,,,,,,,,,,,,,,,,,,,,,,,,,,,,,,,,,,
1665774605.035073,1665774605.035104,50.000000,0.000000,4286.666504,4286.666504,4298.333496,4300.897461,4298.846191,4293.589844,4294.358887,4296.794922,4277.563965,4265.384766,4465.512695,4473.846191,4364.615234,4411.666504,0.000000,2.000000,49.000000,,,,0.000000,4.000000,4.000000,4.000000,4.000000,4.000000,4.000000,4.000000,4.000000,4.000000,4.000000,4.000000,4.000000,4.000000,4.000000,100.000000,,,,,,,,,,,,,,,,,,,,,,,,,,,,,,,,,,,,,,,,,,,,,,,
1665774605.042881,1665774605.042913,51.000000,0.000000,4296.410156,4292.307617,4302.948730,4303.589844,4299.358887,4298.974121,4297.948730,4299.743652,4292.563965,4277.692383,4473.333496,4483.077148,4367.179688,4423.589844,0.000000,2.000000,49.000000,,,,0.000000,4.000000,4.000000,4.000000,4.000000,4.000000,4.000000,4.000000,4.000000,4.000000,4.000000,4.000000,4.000000,4.000000,4.000000,100.000000,,,,,,,,,,,,,,,,,,,,,,,,,,,,,,,,,,,,,,,,,,,,,,,
1665774605.050689,1665774605.050821,52.000000,0.000000,4292.436035,4283.333496,4295.256348,4296.282227,4292.692383,4293.717773,4288.974121,4295.641113,4298.974121,4279.743652,4475.000000,4481.410156,4367.307617,4421.666504,0.000000,2.000000,49.000000,,,,0.000000,4.000000,4.000000,4.000000,4.000000,4.000000,4.000000,4.000000,4.000000,4.000000,4.000000,4.000000,4.000000,4.000000,4.000000,100.000000,,,,,,,,,,,,,,,,,,,,,,,,,,,,,,,,,,,,,,,,,,,,,,,
1665774605.058498,1665774605.058630,53.000000,0.000000,4283.974121,4278.333496,4286.025879,4291.025879,4285.128418,4282.307617,4269.230957,4292.051270,4291.922852,4276.410156,4474.615234,4474.358887,4369.487305,4411.410156,0.000000,2.000000,49.000000,,,,0.000000,4.000000,4.000000,4.000000,4.000000,4.000000,4.000000,4.000000,4.000000,4.000000,4.000000,4.000000,4.000000,4.000000,4.000000,100.000000,,,,,,,,,,,,,,,,,,,,,,,,,,,,,,,,,,,,,,,,,,,,,,,
1665774605.066306,1665774605.066538,54.000000,0.000000,4291.153809,4292.563965,4291.794922,4295.897461,4286.410156,4278.205078,4265.512695,4291.922852,4292.051270,4285.256348,4477.820313,4479.871582,4379.358887,4417.692383,0.000000,2.000000,49.000000,,,,0.000000,4.000000,4.000000,4.000000,4.000000,4.000000,4.000000,4.000000,4.000000,4.000000,4.000000,4.000000,4.000000,4.000000,4.000000,100.000000,,,,,,,,,,,,,,,,,,,,,,,,,,,,,,,,,,,,,,,,,,,,,,,
1665774605.074114,1665774605.074346,55.000000,0.000000,4302.179688,4302.051270,4304.487305,4300.769043,4289.615234,4280.897461,4276.538574,4302.820313,4306.794922,4300.641113,4480.641113,4498.589844,4391.794922,4427.948730,0.000000,2.000000,49.000000,,,,0.000000,4.000000,4.000000,4.000000,4.000000,4.000000,4.000000,4.000000,4.000000,4.000000,4.000000,4.000000,4.000000,4.000000,4.000000,100.000000,,,,,,,,,,,,,,,,,,,,,,,,,,,,,,,,,,,,,,,,,,,,,,,
1665774605.081923,1665774605.082255,56.000000,0.000000,4297.179688,4291.153809,4302.692383,4305.256348,4288.333496,4282.692383,4280.641113,4311.538574,4312.179688,4295.641113,4478.461426,4504.230957,4387.820313,4422.179688,0.000000,2.000000,49.000000,,,,0.000000,4.000000,4.000000,4.000000,4.000000,4.000000,4.000000,4.000000,4.000000,4.000000,4.000000,4.000000,4.000000,4.000000,4.000000,100.000000,,,,,,,,,,,,,,,,,,,,,,,,,,,,,,,,,,,,,,,,,,,,,,,
1665774605.089731,1665774605.090063,57.000000,0.000000,4293.589844,4288.846191,4298.589844,4310.384766,4295.000000,4291.538574,4283.205078,4304.487305,4300.384766,4282.179688,4477.948730,4496.025879,4376.153809,4411.922852,0.000000,2.000000,49.000000,,,,0.000000,4.000000,4.000000,4.000000,4.000000,4.000000,4.000000,4.000000,4.000000,4.000000,4.000000,4.000000,4.000000,4.000000,4.000000,100.000000,,,,,,,,,,,,,,,,,,,,,,,,,,,,,,,,,,,,,,,,,,,,,,,
1665774605.097540,1665774605.097971,58.000000,0.000000,4296.025879,4293.077148,4299.487305,4309.358887,4300.641113,4303.589844,4290.641113,4293.077148,4286.666504,4280.512695,4470.128418,4486.794922,4369.487305,4406.410156,0.000000,2.000000,49.000000,,,,0.000000,4.000000,4.000000,4.000000,4.000000,4.000000,4.000000,4.000000,4.000000,4.000000,4.000000,4.000000,4.000000,4.000000,4.000000,100.000000,,,,,,,,,,,,,,,,,,,,,,,,,,,,,,,,,,,,,,,,,,,,,,,
1665774605.105348,1665774605.105780,59.000000,0.000000,4293.333496,4284.230957,4297.179688,4307.692383,4296.538574,4301.794922,4297.692383,4293.461426,4281.025879,4273.461426,4460.641113,4482.307617,4363.333496,4401.282227,0.000000,2.000000,49.000000,,,,0.000000,4.000000,4.000000,4.000000,4.000000,4.000000,4.000000,4.000000,4.000000,4.000000,4.000000,4.000000,4.000000,4.000000,4.000000,100.000000,,,,,,,,,,,,,,,,,,,,,,,,,,,,,,,,,,,,,,,,,,,,,,,
1665774605.113156,1665774605.113488,60.000000,0.000000,4290.128418,4280.641113,4298.333496,4309.743652,4300.641113,4294.487305,4302.820313,4294.487305,4277.820313,4260.897461,4465.000000,4482.179688,4361.153809,4396.922852,0.000000,2.000000,49.000000,,,,0.000000,4.000000,4.000000,4.000000,4.000000,4.000000,4.000000,4.000000,4.000000,4.000000,4.000000,4.000000,4.000000,4.000000,4.000000,100.000000,,,,,,,,,,,,,,,,,,,,,,,,,,,,,,,,,,,,,,,,,,,,,,,
1665774605.120965,1665774605.121297,61.000000,0.000000,4297.436035,4301.025879,4308.717773,4318.589844,4311.666504,4300.384766,4310.000000,4296.282227,4277.692383,4269.487305,4477.563965,4492.563965,4374.102539,4399.230957,0.000000,2.000000,49.000000,,,,0.000000,4.000000,4.000000,4.000000,4.000000,4.000000,4.000000,4.000000,4.000000,4.000000,4.000000,4.000000,4.000000,4.000000,4.000000,100.000000,,,,,,,,,,,,,,,,,,,,,,,,,,,,,,,,,,,,,,,,,,,,,,,
1665774605.128773,1665774605.129005,62.000000,0.000000,4302.563965,4316.410156,4315.641113,4325.384766,4310.769043,4304.871582,4313.589844,4303.205078,4280.512695,4281.538574,4481.410156,4501.922852,4383.205078,4407.307617,0.000000,2.000000,49.000000,,,,0.000000,4.000000,4.000000,4.000000,4.000000,4.000000,4.000000,4.000000,4.000000,4.000000,4.000000,4.000000,4.000000,4.000000,4.000000,100.000000,,,,,,,,,,,,,,,,,,,,,,,,,,,,,,,,,,,,,,,,,,,,,,,
1665774605.136582,1665774605.136814,63.000000,0.000000,4295.512695,4308.205078,4309.615234,4315.641113,4299.230957,4296.922852,4307.051270,4302.692383,4280.512695,4274.743652,4474.487305,4494.487305,4370.897461,4406.025879,0.000000,2.000000,49.000000,,,,0.000000,4.000000,4.000000,4.000000,4.000000,4.000000,4.000000,4.000000,4.000000,4.000000,4.000000,4.000000,4.000000,4.000000,4.000000,100.000000,,,,,,,,,,,,,,,,,,,,,,,,,,,,,,,,,,,,,,,,,,,,,,,
1665774605.144390,1665774605.144522,64.000000,0.000000,4293.333496,4306.666504,4301.282227,4309.358887,4294.358887,4293.974121,4297.051270,4298.077148,4285.256348,4272.307617,4472.820313,4488.846191,4364.230957,4398.974121,2030.000000,2.000000,49.000000,,,,0.000000,4.000000,4.000000,4.000000,4.000000,4.000000,4.000000,4.000000,4.000000,4.000000,4.000000,4.000000,4.000000,4.000000,4.000000,100.000000,,,,,,,,,,,,,,,,,,,,,,,,,,,,,,,,,,,,,,,,,,,,,,,
1665774605.152198,1665774605.152431,65.000000,0.000000,4297.436035,4315.897461,4302.179688,4317.820313,4302.563965,4297.051270,4291.922852,4297.948730,4294.358887,4276.025879,4474.743652,4488.717773,4370.000000,4396.794922,2167.000000,2.000000,49.000000,,,,0.000000,4.000000,4.000000,4.000000,4.000000,4.000000,4.000000,4.000000,4.000000,4.000000,4.000000,4.000000,4.000000,4.000000,4.000000,100.000000,,,,,,,,,,,,,,,,,,,,,,,,,,,,,,,,,,,,,,,,,,,,,,,
1665774605.160007,1665774605.160240,66.000000,0.000000,4288.461426,4307.179688,4299.230957,4314.871582,4299.871582,4289.871582,4284.615234,4297.563965,4293.077148,4266.538574,4468.077148,4479.487305,4365.512695,4391.153809,2184.000000,2.000000,49.000000,,,,0.000000,4.000000,4.000000,4.000000,4.000000,4.000000,4.000000,4.000000,4.000000,4.000000,4.000000,4.000000,4.000000,4.000000,4.000000,100.000000,,,,,,,,,,,,,,,,,,,,,,,,,,,,,,,,,,,,,,,,,,,,,,,
1665774605.167815,1665774605.168148,67.000000,0.000000,4282.179688,4293.077148,4293.205078,4304.358887,4284.230957,4279.743652,4273.974121,4296.922852,4285.641113,4261.538574,4459.102539,4475.384766,4360.384766,4388.461426,2276.000000,2.000000,49.000000,,,,0.000000,4.000000,4.000000,4.000000,4.000000,4.000000,4.000000,4.000000,4.000000,4.000000,4.000000,4.000000,4.000000,4.000000,4.000000,100.000000,,,,,,,,,,,,,,,,,,,,,,,,,,,,,,,,,,,,,,,,,,,,,,,
1665774605.175624,1665774605.175957,68.000000,0.000000,4298.974121,4300.000000,4301.922852,4310.641113,4284.487305,4280.384766,4272.692383,4294.487305,4285.897461,4272.563965,4465.769043,4487.948730,4369.743652,4399.230957,2271.000000,2.000000,49.000000,,,,0.000000,4.000000,4.000000,4.000000,4.000000,4.000000,4.000000,4.000000,4.000000,4.000000,4.000000,4.000000,4.000000,4.000000,4.000000,100.000000,,,,,,,,,,,,,,,,,,,,,,,,,,,,,,,,,,,,,,,,,,,,,,,
1665774605.183432,1665774605.183766,69.000000,0.000000,4308.205078,4307.563965,4313.974121,4315.641113,4296.025879,4285.384766,4276.666504,4286.025879,4288.205078,4280.000000,4476.410156,4494.743652,4373.974121,4406.410156,2267.000000,2.000000,49.000000,,,,0.000000,4.000000,4.000000,4.000000,4.000000,4.000000,4.000000,4.000000,4.000000,4.000000,4.000000,4.000000,4.000000,4.000000,4.000000,100.000000,,,,,,,,,,,,,,,,,,,,,,,,,,,,,,,,,,,,,,,,,,,,,,,
1665774605.191240,1665774605.191474,70.000000,0.000000,4298.333496,4298.461426,4313.717773,4310.000000,4295.000000,4293.205078,4283.205078,4287.820313,4291.538574,4279.615234,4476.153809,4491.153809,4370.641113,4404.358887,2005.000000,2.000000,49.000000,,,,0.000000,4.000000,4.000000,4.000000,4.000000,4.000000,4.000000,4.000000,4.000000,4.000000,4.000000,4.000000,4.000000,4.000000,4.000000,100.000000,,,,,,,,,,,,,,,,,,,,,,,,,,,,,,,,,,,,,,,,,,,,,,,
1665774605.199049,1665774605.199383,71.000000,0.000000,4293.974121,4294.871582,4307.563965,4311.922852,4290.000000,4300.897461,4292.692383,4302.563965,4299.230957,4283.205078,4473.333496,4495.897461,4372.436035,4405.641113,2137.000000,2.000000,49.000000,,,,0.000000,4.000000,4.000000,4.000000,4.000000,4.000000,4.000000,4.000000,4.000000,4.000000,4.000000,4.000000,4.000000,4.000000,4.000000,100.000000,,,,,,,,,,,,,,,,,,,,,,,,,,,,,,,,,,,,,,,,,,,,,,,
1665774605.206857,1665774605.207191,72.000000,0.000000,4291.538574,4297.436035,4299.102539,4307.820313,4292.051270,4297.948730,4293.974121,4301.410156,4295.256348,4282.436035,4468.846191,4490.641113,4367.179688,4404.615234,2135.000000,2.000000,49.000000,,,,0.000000,4.000000,4.000000,4.000000,4.000000,4.000000,4.000000,4.000000,4.000000,4.000000,4.000000,4.000000,4.000000,4.000000,4.000000,100.000000,,,,,,,,,,,,,,,,,,,,,,,,,,,,,,,,,,,,,,,,,,,,,,,
1665774605.214666,1665774605.214999,73.000000,0.000000,4280.000000,4291.153809,4290.256348,4296.666504,4293.077148,4297.051270,4294.487305,4292.692383,4282.051270,4271.282227,4463.974121,4474.230957,4357.307617,4398.589844,2324.000000,2.000000,49.000000,,,,0.000000,4.000000,4.000000,4.000000,4.000000,4.000000,4.000000,4.000000,4.000000,4.000000,4.000000,4.000000,4.000000,4.000000,4.000000,100.000000,,,,,,,,,,,,,,,,,,,,,,,,,,,,,,,,,,,,,,,,,,,,,,,
1665774605.222474,1665774605.222708,74.000000,0.000000,4278.589844,4288.461426,4292.948730,4301.153809,4297.307617,4304.102539,4303.717773,4297.051270,4276.922852,4264.230957,4462.820313,4472.436035,4356.153809,4396.922852,2565.000000,2.000000,49.000000,,,,0.000000,4.000000,4.000000,4.000000,4.000000,4.000000,4.000000,4.000000,4.000000,4.000000,4.000000,4.000000,4.000000,4.000000,4.000000,100.000000,,,,,,,,,,,,,,,,,,,,,,,,,,,,,,,,,,,,,,,,,,,,,,,
1665774605.230282,1665774605.230616,75.000000,0.000000,4282.948730,4293.974121,4296.666504,4311.025879,4302.179688,4302.436035,4304.230957,4296.153809,4279.487305,4266.538574,4462.436035,4472.563965,4354.230957,4393.717773,1786.000000,2.000000,49.000000,,,,0.000000,4.000000,4.000000,4.000000,4.000000,4.000000,4.000000,4.000000,4.000000,4.000000,4.000000,4.000000,4.000000,4.000000,4.000000,100.000000,,,,,,,,,,,,,,,,,,,,,,,,,,,,,,,,,,,,,,,,,,,,,,,
1665774605.238091,1665774605.238425,76.000000,0.000000,4279.230957,4295.897461,4293.333496,4306.922852,4297.563965,4293.717773,4295.384766,4286.025879,4278.077148,4265.512695,4460.384766,4464.102539,4347.051270,4386.922852,2510.000000,2.000000,49.000000,,,,0.000000,4.000000,4.000000,4.000000,4.000000,4.000000,4.000000,4.000000,4.000000,4.000000,4.000000,4.000000,4.000000,4.000000,4.000000,100.000000,,,,,,,,,,,,,,,,,,,,,,,,,,,,,,,,,,,,,,,,,,,,,,,
1665774605.245899,1665774605.246333,77.000000,0.000000,4277.436035,4292.692383,4292.563965,4301.538574,4293.461426,4291.153809,4290.897461,4289.743652,4276.794922,4262.692383,4460.000000,4467.051270,4347.051270,4391.538574,2975.000000,2.000000,49.000000,,,,0.000000,4.000000,4.000000,4.000000,4.000000,4.000000,4.000000,4.000000,4.000000,4.000000,4.000000,4.000000,4.000000,4.000000,4.000000,100.000000,,,,,,,,,,,,,,,,,,,,,,,,,,,,,,,,,,,,,,,,,,,,,,,
1665774605.253707,1665774605.254142,78.000000,0.000000,4280.897461,4296.538574,4295.128418,4306.538574,4296.410156,4292.820313,4292.307617,4300.128418,4288.205078,4267.563965,4463.077148,4476.282227,4354.615234,4401.538574,2565.000000,2.000000,49.000000,,,,0.000000,4.000000,4.000000,4.000000,4.000000,4.000000,4.000000,4.000000,4.000000,4.000000,4.000000,4.000000,4.000000,4.000000,4.000000,100.000000,,,,,,,,,,,,,,,,,,,,,,,,,,,,,,,,,,,,,,,,,,,,,,,
1665774605.261516,1665774605.262050,79.000000,0.000000,4282.820313,4303.974121,4297.307617,4306.282227,4298.333496,4296.282227,4295.128418,4296.410156,4297.820313,4271.153809,4463.974121,4474.230957,4360.256348,4401.025879,1786.000000,2.000000,49.000000,,,,0.000000,4.000000,4.000000,4.000000,4.000000,4.000000,4.000000,4.000000,4.000000,4.000000,4.000000,4.000000,4.000000,4.000000,4.000000,100.000000,,,,,,,,,,,,,,,,,,,,,,,,,,,,,,,,,,,,,,,,,,,,,,,
1665774605.269324,1665774605.269858,80.000000,0.000000,4281.025879,4299.743652,4295.769043,4297.820313,4296.153809,4295.384766,4291.538574,4291.538574,4288.205078,4260.769043,4458.461426,4470.897461,4350.897461,4390.769043,2510.000000,2.000000,49.000000,,,,0.000000,4.000000,4.000000,4.000000,4.000000,4.000000,4.000000,4.000000,4.000000,4.000000,4.000000,4.000000,4.000000,4.000000,4.000000,100.000000,,,,,,,,,,,,,,,,,,,,,,,,,,,,,,,,,,,,,,,,,,,,,,,
1665774605.277132,1665774605.277767,81.000000,0.000000,4278.461426,4290.128418,4290.769043,4290.897461,4292.820313,4283.717773,4278.077148,4299.743652,4283.589844,4255.128418,4453.077148,4472.179688,4338.846191,4390.128418,2975.000000,2.000000,49.000000,,,,0.000000,4.000000,4.000000,4.000000,4.000000,4.000000,4.000000,4.000000,4.000000,4.000000,4.000000,4.000000,4.000000,4.000000,4.000000,100.000000,,,,,,,,,,,,,,,,,,,,,,,,,,,,,,,,,,,,,,,,,,,,,,,
1665774605.284941,1665774605.285675,82.000000,0.000000,4284.615234,4292.179688,4288.974121,4292.948730,4291.025879,4280.256348,4272.948730,4304.487305,4296.153809,4269.230957,4458.333496,4472.820313,4353.461426,4401.025879,2565.000000,2.000000,49.000000,,,,0.000000,4.000000,4.000000,4.000000,4.000000,4.000000,4.000000,4.000000,4.000000,4.000000,4.000000,4.000000,4.000000,4.000000,4.000000,100.000000,,,,,,,,,,,,,,,,,,,,,,,,,,,,,,,,,,,,,,,,,,,,,,,
1665774605.292749,1665774605.293484,83.000000,0.000000,4294.743652,4300.897461,4291.922852,4303.589844,4300.512695,4296.538574,4282.692383,4297.051270,4299.615234,4283.461426,4469.102539,4480.769043,4378.333496,4408.333496,1786.000000,2.000000,49.000000,,,,0.000000,4.000000,4.000000,4.000000,4.000000,4.000000,4.000000,4.000000,4.000000,4.000000,4.000000,4.000000,4.000000,4.000000,4.000000,100.000000,,,,,,,,,,,,,,,,,,,,,,,,,,,,,,,,,,,,,,,,,,,,,,,
1665774605.300558,1665774605.301293,84.000000,0.000000,4299.743652,4304.871582,4296.025879,4311.410156,4310.256348,4304.358887,4288.461426,4294.230957,4293.974121,4281.025879,4473.846191,4491.794922,4381.922852,4408.717773,2510.000000,2.000000,49.000000,,,,0.000000,4.000000,4.000000,4.000000,4.000000,4.000000,4.000000,4.000000,4.000000,4.000000,4.000000,4.000000,4.000000,4.000000,4.000000,100.000000,,,,,,,,,,,,,,,,,,,,,,,,,,,,,,,,,,,,,,,,,,,,,,,
1665774605.308366,1665774605.309001,85.000000,0.000000,4303.974121,4307.692383,4299.230957,4310.128418,4307.051270,4297.307617,4288.077148,4297.436035,4296.153809,4277.179688,4475.128418,4495.000000,4378.846191,4406.666504,2975.000000,2.000000,49.000000,,,,0.000000,4.000000,4.000000,4.000000,4.000000,4.000000,4.000000,4.000000,4.000000,4.000000,4.000000,4.000000,4.000000,4.000000,4.000000,100.000000,,,,,,,,,,,,,,,,,,,,,,,,,,,,,,,,,,,,,,,,,,,,,,,
1665774605.316174,1665774605.316810,86.000000,0.000000,4311.794922,4311.153809,4306.922852,4310.000000,4302.692383,4300.128418,4296.794922,4294.102539,4289.230957,4278.974121,4475.384766,4490.512695,4384.230957,4403.333496,2565.000000,2.000000,49.000000,,,,0.000000,4.000000,4.000000,4.000000,4.000000,4.000000,4.000000,4.000000,4.000000,4.000000,4.000000,4.000000,4.000000,4.000000,4.000000,100.000000,,,,,,,,,,,,,,,,,,,,,,,,,,,,,,,,,,,,,,,,,,,,,,,
1665774605.323983,1665774605.324518,87.000000,0.000000,4318.461426,4312.948730,4316.282227,4320.256348,4307.307617,4315.000000,4318.717773,4301.666504,4281.153809,4279.743652,4475.897461,4495.897461,4391.282227,4410.256348,1786.000000,2.000000,49.000000,,,,0.000000,4.000000,4.000000,4.000000,4.000000,4.000000,4.000000,4.000000,4.000000,4.000000,4.000000,4.000000,4.000000,4.000000,4.000000,100.000000,,,,,,,,,,,,,,,,,,,,,,,,,,,,,,,,,,,,,,,,,,,,,,,
1665774605.331791,1665774605.332327,88.000000,0.000000,4321.922852,4314.615234,4317.692383,4322.948730,4313.717773,4318.205078,4325.128418,4311.922852,4283.077148,4279.487305,4476.666504,4503.589844,4393.974121,4421.410156,2510.000000,2.000000,49.000000,,,,0.000000,4.000000,4.000000,4.000000,4.000000,4.000000,4.000000,4.000000,4.000000,4.000000,4.000000,4.000000,4.000000,4.000000,4.000000,100.000000,,,,,,,,,,,,,,,,,,,,,,,,,,,,,,,,,,,,,,,,,,,,,,,
1665774605.339599,1665774605.340035,89.000000,0.000000,4316.922852,4310.512695,4311.282227,4308.846191,4307.051270,4302.820313,4300.512695,4298.846191,4275.384766,4269.615234,4474.230957,4494.743652,4389.230957,4419.230957,2975.000000,2.000000,49.000000,,,,0.000000,4.000000,4.000000,4.000000,4.000000,4.000000,4.000000,4.000000,4.000000,4.000000,4.000000,4.000000,4.000000,4.000000,4.000000,100.000000,,,,,,,,,,,,,,,,,,,,,,,,,,,,,,,,,,,,,,,,,,,,,,,
1665774605.347408,1665774605.347844,90.000000,0.000000,4311.922852,4304.743652,4309.743652,4302.692383,4292.692383,4292.307617,4294.615234,4299.743652,4278.461426,4261.666504,4475.128418,4494.358887,4388.974121,4421.794922,2565.000000,2.000000,49.000000,,,,0.000000,4.000000,4.000000,4.000000,4.000000,4.000000,4.000000,4.000000,4.000000,4.000000,4.000000,4.000000,4.000000,4.000000,4.000000,100.000000,,,,,,,,,,,,,,,,,,,,,,,,,,,,,,,,,,,,,,,,,,,,,,,
1665774605.355216,1665774605.355552,91.000000,0.000000,4316.794922,4307.436035,4313.461426,4310.512695,4295.128418,4298.846191,4311.666504,4320.000000,4295.128418,4275.128418,4479.871582,4507.179688,4399.102539,4435.512695,1786.000000,2.000000,49.000000,,,,0.000000,4.000000,4.000000,4.000000,4.000000,4.000000,4.000000,4.000000,4.000000,4.000000,4.000000,4.000000,4.000000,4.000000,4.000000,100.000000,,,,,,,,,,,,,,,,,,,,,,,,,,,,,,,,,,,,,,,,,,,,,,,
1665774605.363025,1665774605.363361,92.000000,0.000000,4316.410156,4305.769043,4304.871582,4305.897461,4305.897461,4298.077148,4299.615234,4311.282227,4289.230957,4280.128418,4477.820313,4495.641113,4399.102539,4432.563965,2510.000000,2.000000,49.000000,,,,0.000000,4.000000,4.000000,4.000000,4.000000,4.000000,4.000000,4.000000,4.000000,4.000000,4.000000,4.000000,4.000000,4.000000,4.000000,100.000000,,,,,,,,,,,,,,,,,,,,,,,,,,,,,,,,,,,,,,,,,,,,,,,
1665774605.370833,1665774605.371069,93.000000,0.000000,4306.794922,4292.436035,4292.820313,4289.487305,4296.410156,4287.563965,4282.051270,4300.128418,4282.307617,4263.333496,4471.538574,4475.769043,4387.820313,4418.846191,2975.000000,2.000000,49.000000,,,,0.000000,4.000000,4.000000,4.000000,4.000000,4.000000,4.000000,4.000000,4.000000,4.000000,4.000000,4.000000,4.000000,4.000000,4.000000,100.000000,,,,,,,,,,,,,,,,,,,,,,,,,,,,,,,,,,,,,,,,,,,,,,,
1665774605.378641,1665774605.378878,94.000000,0.000000,4310.128418,4291.922852,4297.692383,4289.871582,4286.025879,4292.307617,4294.102539,4315.384766,4300.769043,4261.794922,4471.794922,4483.461426,4387.307617,4419.615234,2565.000000,2.000000,49.000000,,,,0.000000,4.000000,4.000000,4.000000,4.000000,4.000000,4.000000,4.000000,4.000000,4.000000,4.000000,4.000000,4.000000,4.000000,4.000000,100.000000,,,,,,,,,,,,,,,,,,,,,,,,,,,,,,,,,,,,,,,,,,,,,,,
1665774605.386450,1665774605.386586,95.000000,0.000000,4322.051270,4303.461426,4307.436035,4304.743652,4296.153809,4306.538574,4301.410156,4318.589844,4307.307617,4281.153809,4481.025879,4498.717773,4404.102539,4428.974121,1786.000000,2.000000,49.000000,,,,0.000000,4.000000,4.000000,4.000000,4.000000,4.000000,4.000000,4.000000,4.000000,4.000000,4.000000,4.000000,4.000000,4.000000,4.000000,100.000000,,,,,,,,,,,,,,,,,,,,,,,,,,,,,,,,,,,,,,,,,,,,,,,
1665774605.394258,1665774605.394495,96.000000,0.000000,4328.077148,4309.871582,4311.153809,4313.717773,4309.358887,4310.128418,4292.563965,4308.717773,4300.256348,4286.922852,4490.512695,4503.846191,4420.641113,4434.230957,2510.000000,2.000000,49.000000,,,,0.000000,4.000000,4.000000,4.000000,4.000000,4.000000,4.000000,4.000000,4.000000,4.000000,4.000000,4.000000,4.000000,4.000000,4.000000,100.000000,,,,,,,,,,,,,,,,,,,,,,,,,,,,,,,,,,,,,,,,,,,,,,,
1665774605.402067,1665774605.402303,97.000000,0.000000,4337.307617,4317.051270,4317.692383,4315.897461,4310.897461,4309.615234,4292.820313,4303.717773,4302.051270,4279.871582,4490.256348,4506.410156,4426.025879,4434.615234,2975.000000,2.000000,49.000000,,,,0.000000,4.000000,4.000000,4.000000,4.000000,4.000000,4.000000,4.000000,4.000000,4.000000,4.000000,4.000000,4.000000,4.000000,4.000000,100.000000,,,,,,,,,,,,,,,,,,,,,,,,,,,,,,,,,,,,,,,,,,,,,,,
1665774605.409875,1665774605.410211,98.000000,0.000000,4351.538574,4329.102539,4327.179688,4323.974121,4307.948730,4308.077148,4293.974121,4295.641113,4299.487305,4283.589844,4493.077148,4508.846191,4435.000000,4438.717773,2565.000000,2.000000,49.000000,,,,0.000000,4.000000,4.000000,4.000000,4.000000,4.000000,4.000000,4.000000,4.000000,4.000000,4.000000,4.000000,4.000000,4.000000,4.000000,100.000000,,,,,,,,,,,,,,,,,,,,,,,,,,,,,,,,,,,,,,,,,,,,,,,
1665774605.417683,1665774605.418020,99.000000,0.000000,4357.179688,4331.794922,4333.333496,4336.282227,4311.794922,4305.256348,4290.512695,4300.769043,4299.487305,4295.897461,4503.077148,4518.205078,4447.692383,4442.948730,1786.000000,2.000000,49.000000,,,,0.000000,4.000000,4.000000,4.000000,4.000000,4.000000,4.000000,4.000000,4.000000,4.000000,4.000000,4.000000,4.000000,4.000000,4.000000,100.000000,,,,,,,,,,,,,,,,,,,,,,,,,,,,,,,,,,,,,,,,,,,,,,,
1665774605.425492,1665774605.425928,100.000000,0.000000,4351.666504,4320.897461,4332.692383,4337.307617,4316.666504,4306.282227,4294.358887,4315.512695,4306.410156,4298.717773,4500.384766,4527.051270,4440.384766,4436.666504,2510.000000,2.000000,49.000000,,,,0.000000,4.000000,4.000000,4.000000,4.000000,4.000000,4.000000,4.000000,4.000000,4.000000,4.000000,4.000000,4.000000,4.000000,4.000000,100.000000,,,,,,,,,,,,,,,,,,,,,,,,,,,,,,,,,,,,,,,,,,,,,,,
1665774605.433300,1665774605.433737,101.000000,0.000000,4344.230957,4310.384766,4327.563965,4329.487305,4313.333496,4311.538574,4301.666504,4308.974121,4298.717773,4288.077148,4489.615234,4519.743652,4420.897461,4428.333496,2975.000000,2.000000,49.000000,,,,0.000000,4.000000,4.000000,4.000000,4.000000,4.000000,4.000000,4.000000,4.000000,4.000000,4.000000,4.000000,4.000000,4.000000,4.000000,100.000000,,,,,,,,,,,,,,,,,,,,,,,,,,,,,,,,,,,,,,,,,,,,,,,
1665774605.441109,1665774605.441645,102.000000,0.000000,4338.077148,4308.846191,4324.871582,4322.563965,4306.922852,4313.077148,4310.000000,4305.128418,4291.794922,4281.410156,4491.794922,4510.384766,4415.641113,4428.589844,2565.000000,2.000000,49.000000,,,,0.000000,4.000000,4.000000,4.000000,4.000000,4.000000,4.000000,4.000000,4.000000,4.000000,4.000000,4.000000,4.000000,4.000000,4.000000,100.000000,,,,,,,,,,,,,,,,,,,,,,,,,,,,,,,,,,,,,,,,,,,,,,,
1665774605.448917,1665774605.449453,103.000000,0.000000,4330.256348,4309.615234,4321.538574,4316.410156,4305.897461,4302.563965,4311.410156,4311.410156,4292.948730,4280.897461,4490.897461,4508.333496,4407.948730,4419.358887,1786.000000,2.000000,49.000000,,,,0.000000,4.000000,4.000000,4.000000,4.000000,4.000000,4.000000,4.000000,4.000000,4.000000,4.000000,4.000000,4.000000,4.000000,4.000000,100.000000,,,,,,,,,,,,,,,,,,,,,,,,,,,,,,,,,,,,,,,,,,,,,,,
1665774605.456725,1665774605.457362,104.000000,0.000000,4325.512695,4308.717773,4314.743652,4313.846191,4306.794922,4296.025879,4306.282227,4310.256348,4288.974121,4276.794922,4482.563965,4504.358887,4395.512695,4407.051270,2510.000000,2.000000,49.000000,,,,0.000000,4.000000,4.000000,4.000000,4.000000,4.000000,4.000000,4.000000,4.000000,4.000000,4.000000,4.000000,4.000000,4.000000,4.000000,100.000000,,,,,,,,,,,,,,,,,,,,,,,,,,,,,,,,,,,,,,,,,,,,,,,
1665774605.464534,1665774605.465170,105.000000,0.000000,4329.487305,4308.077148,4321.025879,4316.282227,4310.000000,4307.179688,4309.102539,4318.974121,4297.179688,4278.077148,4489.102539,4505.128418,4402.179688,4414.358887,2975.000000,2.000000,49.000000,,,,0.000000,4.000000,4.000000,4.000000,4.000000,4.000000,4.000000,4.000000,4.000000,4.000000,4.000000,4.000000,4.000000,4.000000,4.000000,100.000000,,,,,,,,,,,,,,,,,,,,,,,,,,,,,,,,,,,,,,,,,,,,,,,
1665774605.472342,1665774605.473079,106.000000,0.000000,4335.128418,4311.410156,4331.538574,4321.922852,4308.974121,4310.897461,4312.563965,4330.512695,4315.256348,4285.512695,4493.846191,4512.307617,4407.436035,4423.717773,2565.000000,2.000000,49.000000,,,,0.000000,4.000000,4.000000,4.000000,4.000000,4.000000,4.000000,4.000000,4.000000,4.000000,4.000000,4.000000,4.000000,4.000000,4.000000,100.000000,,,,,,,,,,,,,,,,,,,,,,,,,,,,,,,,,,,,,,,,,,,,,,,
1665774605.480150,1665774605.480887,107.000000,0.000000,4331.922852,4310.512695,4323.077148,4322.436035,4299.358887,4296.410156,4297.948730,4312.051270,4304.230957,4277.692383,4482.563965,4506.794922,4397.948730,4417.436035,1786.000000,2.000000,49.000000,,,,0.000000,4.000000,4.000000,4.000000,4.000000,4.000000,4.000000,4.000000,4.000000,4.000000,4.000000,4.000000,4.000000,4.000000,4.000000,100.000000,,,,,,,,,,,,,,,,,,,,,,,,,,,,,,,,,,,,,,,,,,,,,,,
1665774605.487959,1665774605.488596,108.000000,0.000000,4325.128418,4298.974121,4312.051270,4313.717773,4297.948730,4289.743652,4279.615234,4283.077148,4282.692383,4263.589844,4473.333496,4489.487305,4394.743652,4411.538574,2510.000000,2.000000,49.000000,,,,0.000000,4.000000,4.000000,4.000000,4.000000,4.000000,4.000000,4.000000,4.000000,4.000000,4.000000,4.000000,4.000000,4.000000,4.000000,100.000000,1.000000,100.000000,4.000000,4.000000,4.000000,4.000000,4.000000,4.000000,4.000000,4.000000,4.000000,4.000000,4.000000,4.000000,4.000000,4.000000,1.000000,0.475269,-0.740450,-1.281034,0.015111,1.000000,0.064300,1.827810,1.365900,8.549534,0.064040,1.000000,0.363763,55.070950,-6.767602,152.533646,1.000000,0.488768,0.124776,0.054411,0.384146,1.000000,0.478260,5.525139,-3.247118,17.282393,1.000000,0.169885,0.169885,0.000000,1.000000
1665774605.495767,1665774605.496404,109.000000,0.000000,4325.641113,4292.820313,4317.179688,4309.871582,4303.589844,4299.230957,4281.538574,4280.128418,4286.538574,4273.717773,4473.717773,4491.153809,4401.025879,4414.102539,2975.000000,2.000000,49.000000,,,,0.000000,4.000000,4.000000,4.000000,4.000000,4.000000,4.000000,4.000000,4.000000,4.000000,4.000000,4.000000,4.000000,4.000000,4.000000,100.000000,,,,,,,,,,,,,,,,,,,,,,,,,,,,,,,,,,,,,,,,,,,,,,,
1665774605.503576,1665774605.504113,110.000000,0.000000,4334.743652,4307.436035,4325.128418,4321.666504,4306.538574,4306.922852,4284.871582,4284.743652,4290.384766,4289.615234,4477.948730,4507.436035,4404.358887,4417.307617,2565.000000,2.000000,49.000000,,,,0.000000,4.000000,4.000000,4.000000,4.000000,4.000000,4.000000,4.000000,4.000000,4.000000,4.000000,4.000000,4.000000,4.000000,4.000000,100.000000,,,,,,,,,,,,,,,,,,,,,,,,,,,,,,,,,,,,,,,,,,,,,,,
1665774605.511384,1665774605.511921,111.000000,0.000000,4343.589844,4322.051270,4326.666504,4329.871582,4310.384766,4309.230957,4280.128418,4281.025879,4286.153809,4288.717773,4483.846191,4510.256348,4408.077148,4421.282227,1786.000000,2.000000,49.000000,,,,0.000000,4.000000,4.000000,4.000000,4.000000,4.000000,4.000000,4.000000,4.000000,4.000000,4.000000,4.000000,4.000000,4.000000,4.000000,100.000000,,,,,,,,,,,,,,,,,,,,,,,,,,,,,,,,,,,,,,,,,,,,,,,
1665774605.519192,1665774605.519630,112.000000,0.000000,4346.282227,4319.358887,4329.743652,4325.128418,4312.563965,4307.307617,4282.820313,4283.974121,4293.974121,4289.487305,4491.794922,4508.205078,4416.025879,4424.615234,2510.000000,2.000000,49.000000,,,,0.000000,4.000000,4.000000,4.000000,4.000000,4.000000,4.000000,4.000000,4.000000,4.000000,4.000000,4.000000,4.000000,4.000000,4.000000,100.000000,,,,,,,,,,,,,,,,,,,,,,,,,,,,,,,,,,,,,,,,,,,,,,,
1665774605.527001,1665774605.527438,113.000000,0.000000,4340.128418,4315.000000,4331.410156,4327.307617,4304.487305,4301.025879,4289.743652,4292.307617,4300.641113,4293.717773,4492.436035,4512.692383,4415.512695,4422.948730,2975.000000,2.000000,49.000000,,,,0.000000,4.000000,4.000000,4.000000,4.000000,4.000000,4.000000,4.000000,4.000000,4.000000,4.000000,4.000000,4.000000,4.000000,4.000000,100.000000,,,,,,,,,,,,,,,,,,,,,,,,,,,,,,,,,,,,,,,,,,,,,,,
1665774605.534809,1665774605.535147,114.000000,0.000000,4327.820313,4310.000000,4327.051270,4326.666504,4298.589844,4291.410156,4288.205078,4291.922852,4291.153809,4284.743652,4482.563965,4508.461426,4400.897461,4418.974121,2565.000000,2.000000,49.000000,,,,0.000000,4.000000,4.000000,4.000000,4.000000,4.000000,4.000000,4.000000,4.000000,4.000000,4.000000,4.000000,4.000000,4.000000,4.000000,100.000000,,,,,,,,,,,,,,,,,,,,,,,,,,,,,,,,,,,,,,,,,,,,,,,
1665774605.542617,1665774605.542955,115.000000,0.000000,4323.077148,4305.641113,4325.384766,4318.077148,4305.897461,4291.666504,4297.307617,4292.820313,4287.948730,4274.230957,4481.538574,4506.153809,4394.102539,4420.897461,1786.000000,2.000000,49.000000,,,,0.000000,4.000000,4.000000,4.000000,4.000000,4.000000,4.000000,4.000000,4.000000,4.000000,4.000000,4.000000,4.000000,4.000000,4.000000,100.000000,,,,,,,,,,,,,,,,,,,,,,,,,,,,,,,,,,,,,,,,,,,,,,,
1665774605.550426,1665774605.550664,116.000000,0.000000,4328.077148,4314.358887,4329.230957,4323.717773,4313.333496,4307.563965,4323.717773,4310.897461,4296.538574,4281.538574,4495.512695,4517.436035,4408.333496,4426.666504,2510.000000,2.000000,49.000000,,,,0.000000,4.000000,4.000000,4.000000,4.000000,4.000000,4.000000,4.000000,4.000000,4.000000,4.000000,4.000000,4.000000,4.000000,4.000000,100.000000,,,,,,,,,,,,,,,,,,,,,,,,,,,,,,,,,,,,,,,,,,,,,,,
1665774605.558234,1665774605.558472,117.000000,0.000000,4324.615234,4314.615234,4326.794922,4332.436035,4309.615234,4310.897461,4325.128418,4316.922852,4294.487305,4285.897461,4498.077148,4516.282227,4412.820313,4425.384766,2975.000000,2.000000,49.000000,,,,0.000000,4.000000,4.000000,4.000000,4.000000,4.000000,4.000000,4.000000,4.000000,4.000000,4.000000,4.000000,4.000000,4.000000,4.000000,100.000000,,,,,,,,,,,,,,,,,,,,,,,,,,,,,,,,,,,,,,,,,,,,,,,
1665774605.566043,1665774605.566181,118.000000,0.000000,4308.205078,4295.256348,4315.897461,4317.436035,4300.384766,4295.641113,4298.717773,4300.256348,4290.256348,4270.000000,4480.897461,4496.025879,4387.051270,4413.077148,2565.000000,2.000000,49.000000,,,,0.000000,4.000000,4.000000,4.000000,4.000000,4.000000,4.000000,4.000000,4.000000,4.000000,4.000000,4.000000,4.000000,4.000000,4.000000,100.000000,,,,,,,,,,,,,,,,,,,,,,,,,,,,,,,,,,,,,,,,,,,,,,,
1665774605.573851,1665774605.574089,119.000000,0.000000,4299.102539,4286.410156,4309.358887,4306.282227,4295.512695,4286.794922,4285.641113,4299.358887,4290.512695,4261.922852,4471.794922,4486.794922,4370.256348,4400.256348,1786.000000,2.000000,49.000000,,,,0.000000,4.000000,4.000000,4.000000,4.000000,4.000000,4.000000,4.000000,4.000000,4.000000,4.000000,4.000000,4.000000,4.000000,4.000000,100.000000,,,,,,,,,,,,,,,,,,,,,,,,,,,,,,,,,,,,,,,,,,,,,,,
1665774605.581659,1665774605.581897,120.000000,0.000000,4305.256348,4293.846191,4311.538574,4319.743652,4294.230957,4290.512695,4296.922852,4317.436035,4295.897461,4275.641113,4476.025879,4493.589844,4378.717773,4397.820313,2510.000000,2.000000,49.000000,,,,0.000000,4.000000,4.000000,4.000000,4.000000,4.000000,4.000000,4.000000,4.000000,4.000000,4.000000,4.000000,4.000000,4.000000,4.000000,100.000000,,,,,,,,,,,,,,,,,,,,,,,,,,,,,,,,,,,,,,,,,,,,,,,
1665774605.589468,1665774605.589806,121.000000,0.000000,4314.102539,4297.692383,4315.641113,4328.077148,4297.820313,4296.794922,4303.846191,4307.179688,4296.922852,4284.871582,4477.436035,4496.410156,4386.025879,4405.897461,2975.000000,2.000000,49.000000,,,,0.000000,4.000000,4.000000,4.000000,4.000000,4.000000,4.000000,4.000000,4.000000,4.000000,4.000000,4.000000,4.000000,4.000000,4.000000,100.000000,,,,,,,,,,,,,,,,,,,,,,,,,,,,,,,,,,,,,,,,,,,,,,,
1665774605.597276,1665774605.597615,122.000000,0.000000,4316.153809,4300.641113,4317.051270,4323.333496,4304.871582,4300.384766,4291.410156,4281.025879,4289.358887,4281.153809,4476.666504,4496.538574,4386.025879,4408.974121,2565.000000,2.000000,49.000000,,,,0.000000,4.000000,4.000000,4.000000,4.000000,4.000000,4.000000,4.000000,4.000000,4.000000,4.000000,4.000000,4.000000,4.000000,4.000000,100.000000,,,,,,,,,,,,,,,,,,,,,,,,,,,,,,,,,,,,,,,,,,,,,,,
1665774605.605085,1665774605.605523,123.000000,0.000000,4309.102539,4297.436035,4311.922852,4319.102539,4302.948730,4289.743652,4274.230957,4272.820313,4280.000000,4277.563965,4470.128418,4494.230957,4384.230957,4394.487305,1786.000000,2.000000,49.000000,,,,0.000000,4.000000,4.000000,4.000000,4.000000,4.000000,4.000000,4.000000,4.000000,4.000000,4.000000,4.000000,4.000000,4.000000,4.000000,100.000000,,,,,,,,,,,,,,,,,,,,,,,,,,,,,,,,,,,,,,,,,,,,,,,
1665774605.612893,1665774605.613331,124.000000,0.000000,4304.743652,4289.358887,4308.846191,4316.794922,4295.897461,4278.589844,4271.410156,4273.717773,4279.743652,4279.358887,4467.436035,4492.051270,4384.487305,4386.666504,2510.000000,2.000000,49.000000,,,,0.000000,4.000000,4.000000,4.000000,4.000000,4.000000,4.000000,4.000000,4.000000,4.000000,4.000000,4.000000,4.000000,4.000000,4.000000,100.000000,,,,,,,,,,,,,,,,,,,,,,,,,,,,,,,,,,,,,,,,,,,,,,,
1665774605.620701,1665774605.621240,125.000000,0.000000,4311.538574,4298.846191,4317.692383,4320.769043,4297.436035,4286.153809,4281.538574,4277.563965,4286.282227,4285.256348,4474.102539,4498.589844,4389.871582,4395.641113,2975.000000,2.000000,49.000000,,,,0.000000,4.000000,4.000000,4.000000,4.000000,4.000000,4.000000,4.000000,4.000000,4.000000,4.000000,4.000000,4.000000,4.000000,4.000000,100.000000,,,,,,,,,,,,,,,,,,,,,,,,,,,,,,,,,,,,,,,,,,,,,,,
1665774605.628510,1665774605.629048,126.000000,0.000000,4314.743652,4306.410156,4318.333496,4321.410156,4295.512695,4283.333496,4272.436035,4275.128418,4278.077148,4276.666504,4472.563965,4491.538574,4390.256348,4394.615234,2565.000000,2.000000,49.000000,,,,0.000000,4.000000,4.000000,4.000000,4.000000,4.000000,4.000000,4.000000,4.000000,4.000000,4.000000,4.000000,4.000000,4.000000,4.000000,100.000000,,,,,,,,,,,,,,,,,,,,,,,,,,,,,,,,,,,,,,,,,,,,,,,
1665774605.636318,1665774605.636957,127.000000,0.000000,4310.128418,4295.769043,4311.025879,4318.589844,4295.128418,4275.000000,4267.307617,4272.051270,4271.282227,4263.717773,4468.589844,4480.256348,4384.615234,4391.666504,49.000000,2.000000,49.000000,,,,0.000000,4.000000,4.000000,4.000000,4.000000,4.000000,4.000000,4.000000,4.000000,4.000000,4.000000,4.000000,4.000000,4.000000,4.000000,100.000000,,,,,,,,,,,,,,,,,,,,,,,,,,,,,,,,,,,,,,,,,,,,,,,
1665774605.644127,1665774605.644765,0.000000,0.000000,4309.743652,4294.230957,4316.666504,4326.025879,4310.128418,4290.769043,4293.205078,4281.922852,4282.307617,4273.846191,4474.743652,4488.589844,4385.000000,4401.794922,2030.000000,2.000000,49.000000,,,,0.000000,4.000000,4.000000,4.000000,4.000000,4.000000,4.000000,4.000000,4.000000,4.000000,4.000000,4.000000,4.000000,4.000000,4.000000,100.000000,,,,,,,,,,,,,,,,,,,,,,,,,,,,,,,,,,,,,,,,,,,,,,,
1665774605.651935,1665774605.652673,1.000000,0.000000,4303.846191,4296.282227,4316.666504,4324.615234,4309.615234,4302.179688,4302.692383,4286.282227,4282.948730,4277.692383,4471.410156,4489.615234,4377.563965,4402.436035,2169.000000,2.000000,49.000000,,,,0.000000,4.000000,4.000000,4.000000,4.000000,4.000000,4.000000,4.000000,4.000000,4.000000,4.000000,4.000000,4.000000,4.000000,4.000000,100.000000,,,,,,,,,,,,,,,,,,,,,,,,,,,,,,,,,,,,,,,,,,,,,,,
1665774605.659743,1665774605.660482,2.000000,0.000000,4286.794922,4283.205078,4300.641113,4308.077148,4297.307617,4293.333496,4290.769043,4281.538574,4273.589844,4261.410156,4457.948730,4471.410156,4360.128418,4395.384766,2197.000000,2.000000,49.000000,,,,0.000000,4.000000,4.000000,4.000000,4.000000,4.000000,4.000000,4.000000,4.000000,4.000000,4.000000,4.000000,4.000000,4.000000,4.000000,100.000000,,,,,,,,,,,,,,,,,,,,,,,,,,,,,,,,,,,,,,,,,,,,,,,
1665774605.667552,1665774605.668190,3.000000,0.000000,4279.102539,4276.922852,4294.615234,4304.102539,4300.769043,4293.846191,4301.794922,4292.948730,4279.358887,4260.128418,4458.717773,4468.974121,4360.000000,4393.333496,2276.000000,2.000000,49.000000,,,,0.000000,4.000000,4.000000,4.000000,4.000000,4.000000,4.000000,4.000000,4.000000,4.000000,4.000000,4.000000,4.000000,4.000000,4.000000,100.000000,,,,,,,,,,,,,,,,,,,,,,,,,,,,,,,,,,,,,,,,,,,,,,,
1665774605.675360,1665774605.675999,4.000000,0.000000,4278.461426,4275.897461,4296.410156,4303.205078,4301.153809,4296.410156,4312.820313,4306.538574,4290.000000,4265.897461,4465.769043,4475.128418,4366.922852,4388.461426,2272.000000,2.000000,49.000000,,,,0.000000,4.000000,4.000000,4.000000,4.000000,4.000000,4.000000,4.000000,4.000000,4.000000,4.000000,4.000000,4.000000,4.000000,4.000000,100.000000,,,,,,,,,,,,,,,,,,,,,,,,,,,,,,,,,,,,,,,,,,,,,,,
1665774605.683168,1665774605.683707,5.000000,0.000000,4282.948730,4276.666504,4295.000000,4295.897461,4291.410156,4288.461426,4299.358887,4302.948730,4287.692383,4260.641113,4467.820313,4471.794922,4370.512695,4392.051270,2287.000000,2.000000,49.000000,,,,0.000000,4.000000,4.000000,4.000000,4.000000,4.000000,4.000000,4.000000,4.000000,4.000000,4.000000,4.000000,4.000000,4.000000,4.000000,100.000000,,,,,,,,,,,,,,,,,,,,,,,,,,,,,,,,,,,,,,,,,,,,,,,
