title:Psychopy_Kevin_Speakers_Blinking, start timestamp:1665771733.258385, stop timestamp:1665771794.273240, headset type:EPOCX, headset serial:E2020A42, headset firmware:720, channels:86, sampling rate:eeg_128;pm_2, samples:7815      , version:2.1, 
Timestamp,OriginalTimestamp,EEG.Counter,EEG.Interpolated,EEG.AF3,EEG.F7,EEG.F3,EEG.FC5,EEG.T7,EEG.P7,EEG.O1,EEG.O2,EEG.P8,EEG.T8,EEG.FC6,EEG.F4,EEG.F8,EEG.AF4,EEG.RawCq,EEG.Battery,EEG.BatteryPercent,MarkerIndex,MarkerType,MarkerValueInt,EEG.MarkerHardware,CQ.AF3,CQ.F7,CQ.F3,CQ.FC5,CQ.T7,CQ.P7,CQ.O1,CQ.O2,CQ.P8,CQ.T8,CQ.FC6,CQ.F4,CQ.F8,CQ.AF4,CQ.Overall,EQ.SampleRateQuality,EQ.OVERALL,EQ.AF3,EQ.F7,EQ.F3,EQ.FC5,EQ.T7,EQ.P7,EQ.O1,EQ.O2,EQ.P8,EQ.T8,EQ.FC6,EQ.F4,EQ.F8,EQ.AF4,PM.Engagement.IsActive,PM.Engagement.Scaled,PM.Engagement.Raw,PM.Engagement.Min,PM.Engagement.Max,PM.Excitement.IsActive,PM.Excitement.Scaled,PM.Excitement.Raw,PM.Excitement.Min,PM.Excitement.Max,PM.LongTermExcitement,PM.Stress.IsActive,PM.Stress.Scaled,PM.Stress.Raw,PM.Stress.Min,PM.Stress.Max,PM.Relaxation.IsActive,PM.Relaxation.Scaled,PM.Relaxation.Raw,PM.Relaxation.Min,PM.Relaxation.Max,PM.Interest.IsActive,PM.Interest.Scaled,PM.Interest.Raw,PM.Interest.Min,PM.Interest.Max,PM.Focus.IsActive,PM.Focus.Scaled,PM.Focus.Raw,PM.Focus.Min,PM.Focus.Max
1665771733.258385,1665771733.258649,52.000000,0.000000,4296.282227,4278.333496,4294.743652,4292.563965,4285.641113,4285.897461,4283.589844,4293.846191,4268.589844,4261.410156,4457.948730,4490.256348,4339.871582,4382.948730,0.000000,2.000000,52.000000,,,,0.000000,4.000000,4.000000,4.000000,4.000000,4.000000,4.000000,4.000000,4.000000,4.000000,4.000000,4.000000,4.000000,4.000000,4.000000,100.000000,,,,,,,,,,,,,,,,,,,,,,,,,,,,,,,,,,,,,,,,,,,,,,,
1665771733.266193,1665771733.266357,53.000000,0.000000,4296.410156,4284.230957,4308.589844,4303.974121,4294.102539,4295.512695,4291.794922,4301.922852,4280.897461,4271.282227,4469.743652,4503.333496,4348.333496,4397.436035,0.000000,2.000000,52.000000,,,,0.000000,4.000000,4.000000,4.000000,4.000000,4.000000,4.000000,4.000000,4.000000,4.000000,4.000000,4.000000,4.000000,4.000000,4.000000,100.000000,,,,,,,,,,,,,,,,,,,,,,,,,,,,,,,,,,,,,,,,,,,,,,,
1665771733.274001,1665771733.274266,54.000000,0.000000,4282.051270,4274.358887,4307.563965,4292.307617,4297.051270,4293.846191,4291.410156,4304.102539,4284.230957,4273.077148,4473.846191,4501.025879,4351.666504,4397.563965,0.000000,2.000000,52.000000,,,,0.000000,4.000000,4.000000,4.000000,4.000000,4.000000,4.000000,4.000000,4.000000,4.000000,4.000000,4.000000,4.000000,4.000000,4.000000,100.000000,,,,,,,,,,,,,,,,,,,,,,,,,,,,,,,,,,,,,,,,,,,,,,,
1665771733.281810,1665771733.282074,55.000000,0.000000,4253.717773,4259.871582,4297.692383,4274.358887,4285.000000,4279.743652,4282.692383,4297.563965,4275.512695,4263.205078,4466.025879,4488.461426,4341.794922,4389.102539,0.000000,2.000000,52.000000,,,,0.000000,4.000000,4.000000,4.000000,4.000000,4.000000,4.000000,4.000000,4.000000,4.000000,4.000000,4.000000,4.000000,4.000000,4.000000,100.000000,,,,,,,,,,,,,,,,,,,,,,,,,,,,,,,,,,,,,,,,,,,,,,,
1665771733.289618,1665771733.289983,56.000000,0.000000,4237.692383,4260.384766,4296.794922,4276.025879,4278.846191,4277.692383,4280.384766,4294.230957,4271.025879,4257.051270,4461.410156,4482.692383,4336.794922,4388.333496,0.000000,2.000000,52.000000,,,,0.000000,4.000000,4.000000,4.000000,4.000000,4.000000,4.000000,4.000000,4.000000,4.000000,4.000000,4.000000,4.000000,4.000000,4.000000,100.000000,,,,,,,,,,,,,,,,,,,,,,,,,,,,,,,,,,,,,,,,,,,,,,,
1665771733.297427,1665771733.297791,57.000000,0.000000,4232.820313,4267.692383,4301.794922,4287.307617,4280.512695,4281.153809,4284.487305,4296.410156,4272.307617,4254.615234,4459.871582,4483.077148,4338.974121,4390.769043,0.000000,2.000000,52.000000,,,,0.000000,4.000000,4.000000,4.000000,4.000000,4.000000,4.000000,4.000000,4.000000,4.000000,4.000000,4.000000,4.000000,4.000000,4.000000,100.000000,,,,,,,,,,,,,,,,,,,,,,,,,,,,,,,,,,,,,,,,,,,,,,,
1665771733.305235,1665771733.305699,58.000000,0.000000,4224.615234,4271.538574,4303.077148,4290.000000,4277.692383,4280.256348,4289.230957,4294.230957,4271.922852,4248.205078,4457.563965,4484.230957,4335.512695,4389.102539,0.000000,2.000000,52.000000,,,,0.000000,4.000000,4.000000,4.000000,4.000000,4.000000,4.000000,4.000000,4.000000,4.000000,4.000000,4.000000,4.000000,4.000000,4.000000,100.000000,,,,,,,,,,,,,,,,,,,,,,,,,,,,,,,,,,,,,,,,,,,,,,,
1665771733.313043,1665771733.313508,59.000000,0.000000,4218.333496,4275.897461,4305.641113,4288.974121,4276.410156,4283.077148,4291.282227,4291.794922,4271.922852,4246.410156,4457.692383,4486.282227,4333.205078,4388.333496,0.000000,2.000000,52.000000,,,,0.000000,4.000000,4.000000,4.000000,4.000000,4.000000,4.000000,4.000000,4.000000,4.000000,4.000000,4.000000,4.000000,4.000000,4.000000,100.000000,,,,,,,,,,,,,,,,,,,,,,,,,,,,,,,,,,,,,,,,,,,,,,,
1665771733.320852,1665771733.321416,60.000000,0.000000,4217.179688,4278.846191,4305.256348,4294.102539,4278.846191,4284.871582,4288.077148,4288.333496,4268.974121,4248.589844,4454.615234,4484.743652,4336.282227,4389.615234,0.000000,2.000000,52.000000,,,,0.000000,4.000000,4.000000,4.000000,4.000000,4.000000,4.000000,4.000000,4.000000,4.000000,4.000000,4.000000,4.000000,4.000000,4.000000,100.000000,,,,,,,,,,,,,,,,,,,,,,,,,,,,,,,,,,,,,,,,,,,,,,,
1665771733.328660,1665771733.329225,61.000000,0.000000,4212.436035,4276.794922,4302.179688,4297.179688,4277.436035,4281.922852,4284.871582,4284.102539,4264.487305,4248.461426,4452.051270,4482.820313,4340.897461,4392.820313,0.000000,2.000000,52.000000,,,,0.000000,4.000000,4.000000,4.000000,4.000000,4.000000,4.000000,4.000000,4.000000,4.000000,4.000000,4.000000,4.000000,4.000000,4.000000,100.000000,,,,,,,,,,,,,,,,,,,,,,,,,,,,,,,,,,,,,,,,,,,,,,,
1665771733.336469,1665771733.336933,62.000000,0.000000,4204.487305,4277.436035,4301.025879,4290.641113,4275.897461,4281.153809,4283.589844,4285.128418,4266.922852,4253.205078,4458.461426,4489.230957,4348.461426,4399.102539,0.000000,2.000000,52.000000,,,,0.000000,4.000000,4.000000,4.000000,4.000000,4.000000,4.000000,4.000000,4.000000,4.000000,4.000000,4.000000,4.000000,4.000000,4.000000,100.000000,,,,,,,,,,,,,,,,,,,,,,,,,,,,,,,,,,,,,,,,,,,,,,,
1665771733.344277,1665771733.344742,63.000000,0.000000,4203.974121,4276.666504,4301.410156,4288.974121,4279.102539,4282.179688,4281.666504,4288.077148,4275.641113,4261.538574,4464.230957,4495.769043,4353.205078,4407.563965,0.000000,2.000000,52.000000,,,,0.000000,4.000000,4.000000,4.000000,4.000000,4.000000,4.000000,4.000000,4.000000,4.000000,4.000000,4.000000,4.000000,4.000000,4.000000,100.000000,,,,,,,,,,,,,,,,,,,,,,,,,,,,,,,,,,,,,,,,,,,,,,,
1665771733.352085,1665771733.352450,64.000000,0.000000,4204.743652,4269.230957,4300.128418,4291.666504,4273.589844,4281.538574,4278.974121,4286.666504,4277.563965,4266.282227,4463.333496,4492.563965,4349.743652,4406.410156,1892.000000,2.000000,52.000000,,,,0.000000,4.000000,4.000000,4.000000,4.000000,4.000000,4.000000,4.000000,4.000000,4.000000,4.000000,4.000000,4.000000,4.000000,4.000000,100.000000,,,,,,,,,,,,,,,,,,,,,,,,,,,,,,,,,,,,,,,,,,,,,,,
1665771733.359894,1665771733.360259,65.000000,0.000000,4201.666504,4264.102539,4295.128418,4291.538574,4262.307617,4279.871582,4277.820313,4285.256348,4276.922852,4265.000000,4460.256348,4483.589844,4346.025879,4397.563965,1995.000000,2.000000,52.000000,,,,0.000000,4.000000,4.000000,4.000000,4.000000,4.000000,4.000000,4.000000,4.000000,4.000000,4.000000,4.000000,4.000000,4.000000,4.000000,100.000000,,,,,,,,,,,,,,,,,,,,,,,,,,,,,,,,,,,,,,,,,,,,,,,
1665771733.367702,1665771733.367967,66.000000,0.000000,4203.589844,4271.410156,4293.589844,4293.205078,4264.487305,4280.641113,4279.487305,4292.436035,4281.153809,4266.666504,4461.410156,4482.692383,4348.589844,4393.974121,2284.000000,2.000000,52.000000,,,,0.000000,4.000000,4.000000,4.000000,4.000000,4.000000,4.000000,4.000000,4.000000,4.000000,4.000000,4.000000,4.000000,4.000000,4.000000,100.000000,,,,,,,,,,,,,,,,,,,,,,,,,,,,,,,,,,,,,,,,,,,,,,,
1665771733.375511,1665771733.375776,67.000000,0.000000,4206.538574,4277.948730,4294.871582,4293.717773,4269.871582,4282.179688,4278.461426,4295.769043,4275.641113,4268.974121,4460.512695,4483.589844,4347.436035,4393.717773,2311.000000,2.000000,52.000000,,,,0.000000,4.000000,4.000000,4.000000,4.000000,4.000000,4.000000,4.000000,4.000000,4.000000,4.000000,4.000000,4.000000,4.000000,4.000000,100.000000,,,,,,,,,,,,,,,,,,,,,,,,,,,,,,,,,,,,,,,,,,,,,,,
1665771733.383319,1665771733.383484,68.000000,0.000000,4200.769043,4269.487305,4291.922852,4285.384766,4267.307617,4277.692383,4271.153809,4286.538574,4264.102539,4258.205078,4454.743652,4472.436035,4333.461426,4390.897461,2369.000000,2.000000,52.000000,,,,0.000000,4.000000,4.000000,4.000000,4.000000,4.000000,4.000000,4.000000,4.000000,4.000000,4.000000,4.000000,4.000000,4.000000,4.000000,100.000000,,,,,,,,,,,,,,,,,,,,,,,,,,,,,,,,,,,,,,,,,,,,,,,
1665771733.391127,1665771733.391293,69.000000,0.000000,4193.205078,4262.820313,4288.846191,4282.563965,4268.077148,4275.000000,4267.820313,4277.692383,4260.256348,4246.538574,4449.615234,4462.051270,4324.102539,4385.384766,2331.000000,2.000000,52.000000,,,,0.000000,4.000000,4.000000,4.000000,4.000000,4.000000,4.000000,4.000000,4.000000,4.000000,4.000000,4.000000,4.000000,4.000000,4.000000,100.000000,,,,,,,,,,,,,,,,,,,,,,,,,,,,,,,,,,,,,,,,,,,,,,,
1665771733.398936,1665771733.399001,70.000000,0.000000,4195.897461,4267.820313,4295.769043,4289.487305,4271.025879,4277.563965,4270.512695,4280.897461,4261.666504,4247.820313,4451.282227,4464.487305,4332.563965,4382.307617,2090.000000,2.000000,52.000000,,,,0.000000,4.000000,4.000000,4.000000,4.000000,4.000000,4.000000,4.000000,4.000000,4.000000,4.000000,4.000000,4.000000,4.000000,4.000000,100.000000,,,,,,,,,,,,,,,,,,,,,,,,,,,,,,,,,,,,,,,,,,,,,,,
1665771733.406744,1665771733.406810,71.000000,0.000000,4202.051270,4273.205078,4299.871582,4291.666504,4267.051270,4273.333496,4267.820313,4282.436035,4258.333496,4250.256348,4453.846191,4466.794922,4341.410156,4383.846191,1997.000000,2.000000,52.000000,,,,0.000000,4.000000,4.000000,4.000000,4.000000,4.000000,4.000000,4.000000,4.000000,4.000000,4.000000,4.000000,4.000000,4.000000,4.000000,100.000000,,,,,,,,,,,,,,,,,,,,,,,,,,,,,,,,,,,,,,,,,,,,,,,
1665771733.414553,1665771733.414518,72.000000,0.000000,4204.743652,4276.538574,4301.282227,4292.948730,4263.077148,4268.589844,4266.025879,4279.615234,4256.666504,4244.743652,4453.846191,4466.538574,4337.436035,4391.282227,2254.000000,2.000000,52.000000,,,,0.000000,4.000000,4.000000,4.000000,4.000000,4.000000,4.000000,4.000000,4.000000,4.000000,4.000000,4.000000,4.000000,4.000000,4.000000,100.000000,,,,,,,,,,,,,,,,,,,,,,,,,,,,,,,,,,,,,,,,,,,,,,,
1665771733.422361,1665771733.422327,73.000000,0.000000,4203.974121,4276.538574,4305.512695,4294.743652,4266.794922,4276.410156,4274.743652,4282.948730,4261.538574,4243.974121,4456.153809,4475.641113,4334.743652,4397.563965,2376.000000,2.000000,52.000000,,,,0.000000,4.000000,4.000000,4.000000,4.000000,4.000000,4.000000,4.000000,4.000000,4.000000,4.000000,4.000000,4.000000,4.000000,4.000000,100.000000,,,,,,,,,,,,,,,,,,,,,,,,,,,,,,,,,,,,,,,,,,,,,,,
1665771733.430169,1665771733.430035,74.000000,0.000000,4203.461426,4269.871582,4305.769043,4289.358887,4275.000000,4285.000000,4284.743652,4291.666504,4269.358887,4250.256348,4459.743652,4484.230957,4338.846191,4400.897461,2555.000000,2.000000,52.000000,,,,0.000000,4.000000,4.000000,4.000000,4.000000,4.000000,4.000000,4.000000,4.000000,4.000000,4.000000,4.000000,4.000000,4.000000,4.000000,100.000000,,,,,,,,,,,,,,,,,,,,,,,,,,,,,,,,,,,,,,,,,,,,,,,
1665771733.437978,1665771733.437944,75.000000,0.000000,4195.769043,4259.487305,4295.641113,4281.153809,4270.897461,4278.589844,4277.179688,4291.794922,4274.230957,4253.846191,4457.179688,4478.461426,4336.025879,4396.410156,2294.000000,2.000000,52.000000,,,,0.000000,4.000000,4.000000,4.000000,4.000000,4.000000,4.000000,4.000000,4.000000,4.000000,4.000000,4.000000,4.000000,4.000000,4.000000,100.000000,,,,,,,,,,,,,,,,,,,,,,,,,,,,,,,,,,,,,,,,,,,,,,,
1665771733.445786,1665771733.445752,76.000000,0.000000,4188.077148,4259.615234,4293.717773,4282.948730,4253.077148,4272.820313,4271.666504,4287.692383,4275.641113,4260.512695,4455.256348,4475.384766,4332.436035,4392.692383,2550.000000,2.000000,52.000000,,,,0.000000,4.000000,4.000000,4.000000,4.000000,4.000000,4.000000,4.000000,4.000000,4.000000,4.000000,4.000000,4.000000,4.000000,4.000000,100.000000,,,,,,,,,,,,,,,,,,,,,,,,,,,,,,,,,,,,,,,,,,,,,,,
1665771733.453595,1665771733.453660,77.000000,0.000000,4191.282227,4261.922852,4301.410156,4287.692383,4250.128418,4278.205078,4281.282227,4288.974121,4280.641113,4269.102539,4457.179688,4482.436035,4335.897461,4396.666504,3274.000000,2.000000,52.000000,,,,0.000000,4.000000,4.000000,4.000000,4.000000,4.000000,4.000000,4.000000,4.000000,4.000000,4.000000,4.000000,4.000000,4.000000,4.000000,100.000000,,,,,,,,,,,,,,,,,,,,,,,,,,,,,,,,,,,,,,,,,,,,,,,
1665771733.461403,1665771733.461469,78.000000,0.000000,4191.282227,4253.205078,4298.717773,4281.538574,4264.230957,4281.153809,4284.487305,4290.000000,4282.179688,4266.538574,4455.512695,4480.384766,4337.436035,4394.615234,2555.000000,2.000000,52.000000,,,,0.000000,4.000000,4.000000,4.000000,4.000000,4.000000,4.000000,4.000000,4.000000,4.000000,4.000000,4.000000,4.000000,4.000000,4.000000,100.000000,,,,,,,,,,,,,,,,,,,,,,,,,,,,,,,,,,,,,,,,,,,,,,,
1665771733.469211,1665771733.469377,79.000000,0.000000,4185.256348,4243.589844,4291.922852,4275.641113,4267.820313,4277.948730,4276.666504,4284.102539,4273.077148,4260.256348,4448.461426,4471.410156,4334.102539,4385.384766,2294.000000,2.000000,52.000000,,,,0.000000,4.000000,4.000000,4.000000,4.000000,4.000000,4.000000,4.000000,4.000000,4.000000,4.000000,4.000000,4.000000,4.000000,4.000000,100.000000,,,,,,,,,,,,,,,,,,,,,,,,,,,,,,,,,,,,,,,,,,,,,,,
1665771733.477020,1665771733.477186,80.000000,0.000000,4189.358887,4248.077148,4296.282227,4280.897461,4262.563965,4277.563965,4274.871582,4279.487305,4263.846191,4260.000000,4446.922852,4474.358887,4334.871582,4388.589844,2550.000000,2.000000,52.000000,,,,0.000000,4.000000,4.000000,4.000000,4.000000,4.000000,4.000000,4.000000,4.000000,4.000000,4.000000,4.000000,4.000000,4.000000,4.000000,100.000000,,,,,,,,,,,,,,,,,,,,,,,,,,,,,,,,,,,,,,,,,,,,,,,
1665771733.484828,1665771733.485094,81.000000,0.000000,4201.922852,4262.948730,4302.436035,4292.820313,4266.282227,4282.307617,4280.512695,4283.846191,4265.897461,4259.871582,4458.205078,4487.179688,4341.153809,4400.641113,3274.000000,2.000000,52.000000,,,,0.000000,4.000000,4.000000,4.000000,4.000000,4.000000,4.000000,4.000000,4.000000,4.000000,4.000000,4.000000,4.000000,4.000000,4.000000,100.000000,,,,,,,,,,,,,,,,,,,,,,,,,,,,,,,,,,,,,,,,,,,,,,,
1665771733.492637,1665771733.492902,82.000000,0.000000,4208.461426,4267.307617,4301.282227,4298.333496,4274.102539,4283.461426,4281.794922,4285.769043,4268.077148,4255.384766,4461.410156,4487.051270,4340.769043,4398.974121,2555.000000,2.000000,52.000000,,,,0.000000,4.000000,4.000000,4.000000,4.000000,4.000000,4.000000,4.000000,4.000000,4.000000,4.000000,4.000000,4.000000,4.000000,4.000000,100.000000,,,,,,,,,,,,,,,,,,,,,,,,,,,,,,,,,,,,,,,,,,,,,,,
1665771733.500445,1665771733.500811,83.000000,0.000000,4211.666504,4261.282227,4302.820313,4295.128418,4279.743652,4281.666504,4281.153809,4281.538574,4260.128418,4252.179688,4455.128418,4485.384766,4339.102539,4397.563965,2294.000000,2.000000,52.000000,,,,0.000000,4.000000,4.000000,4.000000,4.000000,4.000000,4.000000,4.000000,4.000000,4.000000,4.000000,4.000000,4.000000,4.000000,4.000000,100.000000,,,,,,,,,,,,,,,,,,,,,,,,,,,,,,,,,,,,,,,,,,,,,,,
1665771733.508253,1665771733.508619,84.000000,0.000000,4215.128418,4261.794922,4302.820313,4288.077148,4280.897461,4275.512695,4276.922852,4279.871582,4256.410156,4250.256348,4458.717773,4495.128418,4339.487305,4408.846191,2550.000000,2.000000,52.000000,,,,0.000000,4.000000,4.000000,4.000000,4.000000,4.000000,4.000000,4.000000,4.000000,4.000000,4.000000,4.000000,4.000000,4.000000,4.000000,100.000000,,,,,,,,,,,,,,,,,,,,,,,,,,,,,,,,,,,,,,,,,,,,,,,
1665771733.516062,1665771733.516527,85.000000,0.000000,4211.025879,4261.538574,4295.512695,4285.512695,4268.205078,4265.384766,4269.487305,4280.256348,4260.000000,4246.410156,4461.666504,4490.128418,4337.307617,4410.128418,3274.000000,2.000000,52.000000,,,,0.000000,4.000000,4.000000,4.000000,4.000000,4.000000,4.000000,4.000000,4.000000,4.000000,4.000000,4.000000,4.000000,4.000000,4.000000,100.000000,,,,,,,,,,,,,,,,,,,,,,,,,,,,,,,,,,,,,,,,,,,,,,,
1665771733.523870,1665771733.524336,86.000000,0.000000,4204.102539,4253.717773,4289.743652,4283.589844,4259.358887,4260.897461,4263.205078,4277.692383,4260.000000,4246.025879,4452.307617,4469.615234,4332.307617,4395.384766,2555.000000,2.000000,52.000000,,,,0.000000,4.000000,4.000000,4.000000,4.000000,4.000000,4.000000,4.000000,4.000000,4.000000,4.000000,4.000000,4.000000,4.000000,4.000000,100.000000,,,,,,,,,,,,,,,,,,,,,,,,,,,,,,,,,,,,,,,,,,,,,,,
1665771733.531679,1665771733.532244,87.000000,0.000000,4202.179688,4247.820313,4289.487305,4277.948730,4264.358887,4261.025879,4263.717773,4280.512695,4258.589844,4248.717773,4449.102539,4464.615234,4326.922852,4387.307617,2294.000000,2.000000,52.000000,,,,0.000000,4.000000,4.000000,4.000000,4.000000,4.000000,4.000000,4.000000,4.000000,4.000000,4.000000,4.000000,4.000000,4.000000,4.000000,100.000000,,,,,,,,,,,,,,,,,,,,,,,,,,,,,,,,,,,,,,,,,,,,,,,
1665771733.539487,1665771733.540053,88.000000,0.000000,4203.461426,4249.358887,4287.948730,4279.358887,4265.128418,4263.589844,4269.358887,4286.794922,4262.948730,4251.666504,4453.461426,4470.769043,4325.769043,4387.692383,2550.000000,2.000000,52.000000,,,,0.000000,4.000000,4.000000,4.000000,4.000000,4.000000,4.000000,4.000000,4.000000,4.000000,4.000000,4.000000,4.000000,4.000000,4.000000,100.000000,,,,,,,,,,,,,,,,,,,,,,,,,,,,,,,,,,,,,,,,,,,,,,,
1665771733.547295,1665771733.547761,89.000000,0.000000,4206.794922,4251.666504,4290.256348,4282.692383,4262.051270,4263.589844,4271.922852,4287.820313,4266.538574,4251.538574,4452.820313,4469.102539,4325.769043,4389.743652,3274.000000,2.000000,52.000000,,,,0.000000,4.000000,4.000000,4.000000,4.000000,4.000000,4.000000,4.000000,4.000000,4.000000,4.000000,4.000000,4.000000,4.000000,4.000000,100.000000,,,,,,,,,,,,,,,,,,,,,,,,,,,,,,,,,,,,,,,,,,,,,,,
1665771733.555104,1665771733.555570,90.000000,0.000000,4212.563965,4255.769043,4293.846191,4281.794922,4262.436035,4263.461426,4271.153809,4286.282227,4264.743652,4248.077148,4452.563965,4467.692383,4326.153809,4391.794922,2555.000000,2.000000,52.000000,,,,0.000000,4.000000,4.000000,4.000000,4.000000,4.000000,4.000000,4.000000,4.000000,4.000000,4.000000,4.000000,4.000000,4.000000,4.000000,100.000000,,,,,,,,,,,,,,,,,,,,,,,,,,,,,,,,,,,,,,,,,,,,,,,
1665771733.562912,1665771733.563278,91.000000,0.000000,4219.358887,4262.948730,4294.230957,4284.358887,4264.871582,4270.641113,4276.282227,4287.692383,4267.307617,4250.000000,4455.512695,4471.153809,4331.153809,4392.692383,2294.000000,2.000000,52.000000,,,,0.000000,4.000000,4.000000,4.000000,4.000000,4.000000,4.000000,4.000000,4.000000,4.000000,4.000000,4.000000,4.000000,4.000000,4.000000,100.000000,,,,,,,,,,,,,,,,,,,,,,,,,,,,,,,,,,,,,,,,,,,,,,,
1665771733.570721,1665771733.571187,92.000000,0.000000,4222.948730,4265.128418,4289.102539,4284.230957,4271.794922,4273.589844,4277.563965,4283.077148,4265.384766,4251.794922,4452.563965,4468.589844,4331.282227,4388.333496,2550.000000,2.000000,52.000000,,,,0.000000,4.000000,4.000000,4.000000,4.000000,4.000000,4.000000,4.000000,4.000000,4.000000,4.000000,4.000000,4.000000,4.000000,4.000000,100.000000,,,,,,,,,,,,,,,,,,,,,,,,,,,,,,,,,,,,,,,,,,,,,,,
1665771733.578529,1665771733.578995,93.000000,0.000000,4229.230957,4265.384766,4288.717773,4281.153809,4274.487305,4266.538574,4271.282227,4275.000000,4254.743652,4242.820313,4450.000000,4468.717773,4328.077148,4386.538574,3274.000000,2.000000,52.000000,,,,0.000000,4.000000,4.000000,4.000000,4.000000,4.000000,4.000000,4.000000,4.000000,4.000000,4.000000,4.000000,4.000000,4.000000,4.000000,100.000000,1.000000,100.000000,4.000000,4.000000,4.000000,4.000000,4.000000,4.000000,4.000000,4.000000,4.000000,4.000000,4.000000,4.000000,4.000000,4.000000,1.000000,0.387995,-0.570755,-1.473414,0.747029,1.000000,0.013829,3.322935,3.194592,12.475410,0.042210,1.000000,0.331486,60.457138,-85.135963,319.620056,1.000000,0.230150,0.166969,0.087009,0.257162,1.000000,0.342224,4.472173,-4.210921,18.218073,1.000000,0.277876,0.277876,0.000000,1.000000
1665771733.586337,1665771733.586903,94.000000,0.000000,4232.948730,4267.051270,4291.153809,4284.615234,4266.153809,4263.461426,4269.615234,4272.820313,4248.846191,4236.794922,4449.743652,4468.846191,4331.538574,4385.000000,2555.000000,2.000000,52.000000,,,,0.000000,4.000000,4.000000,4.000000,4.000000,4.000000,4.000000,4.000000,4.000000,4.000000,4.000000,4.000000,4.000000,4.000000,4.000000,100.000000,,,,,,,,,,,,,,,,,,,,,,,,,,,,,,,,,,,,,,,,,,,,,,,
1665771733.594146,1665771733.594712,95.000000,0.000000,4230.384766,4261.153809,4286.025879,4284.615234,4261.025879,4266.666504,4271.666504,4273.077148,4248.589844,4243.333496,4451.282227,4464.487305,4334.743652,4382.051270,2294.000000,2.000000,52.000000,,,,0.000000,4.000000,4.000000,4.000000,4.000000,4.000000,4.000000,4.000000,4.000000,4.000000,4.000000,4.000000,4.000000,4.000000,4.000000,100.000000,,,,,,,,,,,,,,,,,,,,,,,,,,,,,,,,,,,,,,,,,,,,,,,
1665771733.601954,1665771733.602520,96.000000,0.000000,4230.512695,4251.282227,4280.384766,4277.436035,4263.205078,4266.410156,4270.641113,4273.974121,4251.282227,4250.769043,4452.692383,4465.256348,4332.179688,4386.538574,2550.000000,2.000000,52.000000,,,,0.000000,4.000000,4.000000,4.000000,4.000000,4.000000,4.000000,4.000000,4.000000,4.000000,4.000000,4.000000,4.000000,4.000000,4.000000,100.000000,,,,,,,,,,,,,,,,,,,,,,,,,,,,,,,,,,,,,,,,,,,,,,,
1665771733.609763,1665771733.610229,97.000000,0.000000,4230.128418,4247.820313,4283.589844,4278.205078,4263.205078,4265.128418,4270.384766,4277.051270,4258.077148,4253.589844,4451.794922,4470.512695,4334.230957,4393.205078,3274.000000,2.000000,52.000000,,,,0.000000,4.000000,4.000000,4.000000,4.000000,4.000000,4.000000,4.000000,4.000000,4.000000,4.000000,4.000000,4.000000,4.000000,4.000000,100.000000,,,,,,,,,,,,,,,,,,,,,,,,,,,,,,,,,,,,,,,,,,,,,,,
1665771733.617571,1665771733.618037,98.000000,0.000000,4230.897461,4250.256348,4290.897461,4283.461426,4264.871582,4270.000000,4274.230957,4284.871582,4266.282227,4258.846191,4452.820313,4476.666504,4338.077148,4396.410156,2555.000000,2.000000,52.000000,,,,0.000000,4.000000,4.000000,4.000000,4.000000,4.000000,4.000000,4.000000,4.000000,4.000000,4.000000,4.000000,4.000000,4.000000,4.000000,100.000000,,,,,,,,,,,,,,,,,,,,,,,,,,,,,,,,,,,,,,,,,,,,,,,
1665771733.625379,1665771733.625746,99.000000,0.000000,4235.128418,4250.512695,4292.307617,4281.922852,4268.461426,4275.897461,4278.205078,4291.538574,4270.512695,4264.230957,4456.025879,4481.666504,4334.615234,4397.563965,2294.000000,2.000000,52.000000,,,,0.000000,4.000000,4.000000,4.000000,4.000000,4.000000,4.000000,4.000000,4.000000,4.000000,4.000000,4.000000,4.000000,4.000000,4.000000,100.000000,,,,,,,,,,,,,,,,,,,,,,,,,,,,,,,,,,,,,,,,,,,,,,,
1665771733.633188,1665771733.633554,100.000000,0.000000,4229.743652,4246.794922,4289.230957,4277.051270,4264.871582,4273.461426,4278.846191,4292.948730,4271.794922,4263.333496,4455.384766,4479.871582,4326.153809,4393.846191,2550.000000,2.000000,52.000000,,,,0.000000,4.000000,4.000000,4.000000,4.000000,4.000000,4.000000,4.000000,4.000000,4.000000,4.000000,4.000000,4.000000,4.000000,4.000000,100.000000,,,,,,,,,,,,,,,,,,,,,,,,,,,,,,,,,,,,,,,,,,,,,,,
1665771733.640996,1665771733.641263,101.000000,0.000000,4217.051270,4243.589844,4285.256348,4274.615234,4264.487305,4267.436035,4275.641113,4292.563965,4274.230957,4262.436035,4450.384766,4468.846191,4322.692383,4383.205078,3274.000000,2.000000,52.000000,,,,0.000000,4.000000,4.000000,4.000000,4.000000,4.000000,4.000000,4.000000,4.000000,4.000000,4.000000,4.000000,4.000000,4.000000,4.000000,100.000000,,,,,,,,,,,,,,,,,,,,,,,,,,,,,,,,,,,,,,,,,,,,,,,
1665771733.648805,1665771733.649171,102.000000,0.000000,4220.641113,4248.589844,4288.974121,4281.153809,4274.871582,4274.615234,4277.692383,4295.000000,4276.153809,4262.307617,4453.846191,4468.205078,4330.384766,4383.846191,2555.000000,2.000000,52.000000,,,,0.000000,4.000000,4.000000,4.000000,4.000000,4.000000,4.000000,4.000000,4.000000,4.000000,4.000000,4.000000,4.000000,4.000000,4.000000,100.000000,,,,,,,,,,,,,,,,,,,,,,,,,,,,,,,,,,,,,,,,,,,,,,,
1665771733.656613,1665771733.656980,103.000000,0.000000,4236.410156,4258.205078,4294.358887,4287.820313,4280.256348,4280.384766,4279.230957,4290.384766,4272.436035,4255.000000,4459.230957,4476.666504,4335.000000,4390.512695,2294.000000,2.000000,52.000000,,,,0.000000,4.000000,4.000000,4.000000,4.000000,4.000000,4.000000,4.000000,4.000000,4.000000,4.000000,4.000000,4.000000,4.000000,4.000000,100.000000,,,,,,,,,,,,,,,,,,,,,,,,,,,,,,,,,,,,,,,,,,,,,,,
1665771733.664422,1665771733.664888,104.000000,0.000000,4238.205078,4261.282227,4292.307617,4280.897461,4277.563965,4269.871582,4273.717773,4282.051270,4262.179688,4246.538574,4455.512695,4473.717773,4326.922852,4387.563965,2550.000000,2.000000,52.000000,,,,0.000000,4.000000,4.000000,4.000000,4.000000,4.000000,4.000000,4.000000,4.000000,4.000000,4.000000,4.000000,4.000000,4.000000,4.000000,100.000000,,,,,,,,,,,,,,,,,,,,,,,,,,,,,,,,,,,,,,,,,,,,,,,
1665771733.672230,1665771733.672696,105.000000,0.000000,4234.615234,4261.922852,4289.358887,4272.820313,4280.128418,4264.615234,4270.000000,4279.230957,4260.256348,4250.641113,4451.282227,4467.948730,4324.871582,4385.128418,3274.000000,2.000000,52.000000,,,,0.000000,4.000000,4.000000,4.000000,4.000000,4.000000,4.000000,4.000000,4.000000,4.000000,4.000000,4.000000,4.000000,4.000000,4.000000,100.000000,,,,,,,,,,,,,,,,,,,,,,,,,,,,,,,,,,,,,,,,,,,,,,,
1665771733.680038,1665771733.680605,106.000000,0.000000,4242.436035,4260.897461,4292.563965,4274.743652,4275.641113,4267.179688,4270.897461,4278.589844,4264.230957,4254.615234,4452.820313,4470.128418,4333.205078,4388.461426,2555.000000,2.000000,52.000000,,,,0.000000,4.000000,4.000000,4.000000,4.000000,4.000000,4.000000,4.000000,4.000000,4.000000,4.000000,4.000000,4.000000,4.000000,4.000000,100.000000,,,,,,,,,,,,,,,,,,,,,,,,,,,,,,,,,,,,,,,,,,,,,,,
1665771733.687847,1665771733.688413,107.000000,0.000000,4254.615234,4264.487305,4293.846191,4283.077148,4263.974121,4264.358887,4271.282227,4276.153809,4261.153809,4251.538574,4457.436035,4478.333496,4340.256348,4393.333496,2294.000000,2.000000,52.000000,,,,0.000000,4.000000,4.000000,4.000000,4.000000,4.000000,4.000000,4.000000,4.000000,4.000000,4.000000,4.000000,4.000000,4.000000,4.000000,100.000000,,,,,,,,,,,,,,,,,,,,,,,,,,,,,,,,,,,,,,,,,,,,,,,
1665771733.695655,1665771733.696322,108.000000,0.000000,4264.871582,4274.871582,4296.922852,4291.794922,4270.897461,4265.000000,4273.205078,4278.461426,4259.743652,4258.205078,4465.897461,4488.333496,4346.794922,4405.000000,2550.000000,2.000000,52.000000,,,,0.000000,4.000000,4.000000,4.000000,4.000000,4.000000,4.000000,4.000000,4.000000,4.000000,4.000000,4.000000,4.000000,4.000000,4.000000,100.000000,,,,,,,,,,,,,,,,,,,,,,,,,,,,,,,,,,,,,,,,,,,,,,,
1665771733.703464,1665771733.704230,109.000000,0.000000,4262.563965,4272.179688,4299.358887,4288.333496,4277.179688,4265.384766,4270.641113,4278.717773,4260.000000,4265.128418,4469.102539,4489.487305,4347.692383,4407.563965,3274.000000,2.000000,52.000000,,,,0.000000,4.000000,4.000000,4.000000,4.000000,4.000000,4.000000,4.000000,4.000000,4.000000,4.000000,4.000000,4.000000,4.000000,4.000000,100.000000,,,,,,,,,,,,,,,,,,,,,,,,,,,,,,,,,,,,,,,,,,,,,,,
1665771733.711272,1665771733.712038,110.000000,0.000000,4256.282227,4260.256348,4297.436035,4282.051270,4263.846191,4260.641113,4268.077148,4275.128418,4258.077148,4261.025879,4462.820313,4486.538574,4345.384766,4399.102539,2555.000000,2.000000,52.000000,,,,0.000000,4.000000,4.000000,4.000000,4.000000,4.000000,4.000000,4.000000,4.000000,4.000000,4.000000,4.000000,4.000000,4.000000,4.000000,100.000000,,,,,,,,,,,,,,,,,,,,,,,,,,,,,,,,,,,,,,,,,,,,,,,
1665771733.719080,1665771733.719847,111.000000,0.000000,4261.538574,4261.538574,4300.641113,4285.641113,4265.769043,4268.717773,4277.820313,4283.333496,4262.051270,4264.615234,4464.358887,4494.358887,4348.717773,4402.179688,2294.000000,2.000000,52.000000,,,,0.000000,4.000000,4.000000,4.000000,4.000000,4.000000,4.000000,4.000000,4.000000,4.000000,4.000000,4.000000,4.000000,4.000000,4.000000,100.000000,,,,,,,,,,,,,,,,,,,,,,,,,,,,,,,,,,,,,,,,,,,,,,,
1665771733.726889,1665771733.727555,112.000000,0.000000,4269.743652,4268.589844,4303.589844,4285.128418,4284.230957,4282.563965,4283.846191,4290.897461,4268.077148,4276.410156,4465.256348,4500.256348,4347.692383,4408.333496,2550.000000,2.000000,52.000000,,,,0.000000,4.000000,4.000000,4.000000,4.000000,4.000000,4.000000,4.000000,4.000000,4.000000,4.000000,4.000000,4.000000,4.000000,4.000000,100.000000,,,,,,,,,,,,,,,,,,,,,,,,,,,,,,,,,,,,,,,,,,,,,,,
1665771733.734697,1665771733.735364,113.000000,0.000000,4266.922852,4262.307617,4298.846191,4278.205078,4284.102539,4281.410156,4277.307617,4287.692383,4267.307617,4281.025879,4458.205078,4490.384766,4341.153809,4403.333496,3274.000000,2.000000,52.000000,,,,0.000000,4.000000,4.000000,4.000000,4.000000,4.000000,4.000000,4.000000,4.000000,4.000000,4.000000,4.000000,4.000000,4.000000,4.000000,100.000000,,,,,,,,,,,,,,,,,,,,,,,,,,,,,,,,,,,,,,,,,,,,,,,
1665771733.742506,1665771733.743072,114.000000,0.000000,4263.717773,4252.692383,4294.358887,4281.410156,4277.563965,4278.717773,4276.922852,4287.051270,4265.256348,4278.589844,4461.410156,4484.871582,4342.179688,4398.333496,2555.000000,2.000000,52.000000,,,,0.000000,4.000000,4.000000,4.000000,4.000000,4.000000,4.000000,4.000000,4.000000,4.000000,4.000000,4.000000,4.000000,4.000000,4.000000,100.000000,,,,,,,,,,,,,,,,,,,,,,,,,,,,,,,,,,,,,,,,,,,,,,,
1665771733.750314,1665771733.750881,115.000000,0.000000,4268.333496,4254.358887,4293.974121,4285.897461,4285.769043,4281.538574,4281.666504,4290.897461,4267.179688,4269.102539,4467.563965,4486.410156,4340.384766,4397.436035,2294.000000,2.000000,52.000000,,,,0.000000,4.000000,4.000000,4.000000,4.000000,4.000000,4.000000,4.000000,4.000000,4.000000,4.000000,4.000000,4.000000,4.000000,4.000000,100.000000,,,,,,,,,,,,,,,,,,,,,,,,,,,,,,,,,,,,,,,,,,,,,,,
1665771733.758122,1665771733.758589,116.000000,0.000000,4270.128418,4262.436035,4290.769043,4282.948730,4293.205078,4279.358887,4276.538574,4287.179688,4266.025879,4259.230957,4461.794922,4481.282227,4330.128418,4393.333496,2550.000000,2.000000,52.000000,,,,0.000000,4.000000,4.000000,4.000000,4.000000,4.000000,4.000000,4.000000,4.000000,4.000000,4.000000,4.000000,4.000000,4.000000,4.000000,100.000000,,,,,,,,,,,,,,,,,,,,,,,,,,,,,,,,,,,,,,,,,,,,,,,
1665771733.765931,1665771733.766398,117.000000,0.000000,4274.743652,4265.769043,4292.692383,4284.487305,4288.077148,4279.230957,4273.333496,4286.282227,4265.769043,4262.820313,4464.358887,4480.512695,4334.358887,4393.205078,3274.000000,2.000000,52.000000,,,,0.000000,4.000000,4.000000,4.000000,4.000000,4.000000,4.000000,4.000000,4.000000,4.000000,4.000000,4.000000,4.000000,4.000000,4.000000,100.000000,,,,,,,,,,,,,,,,,,,,,,,,,,,,,,,,,,,,,,,,,,,,,,,
1665771733.773739,1665771733.774106,118.000000,0.000000,4281.794922,4262.051270,4294.487305,4284.615234,4279.230957,4276.794922,4274.230957,4287.820313,4266.410156,4268.717773,4472.051270,4483.205078,4346.153809,4395.641113,2555.000000,2.000000,52.000000,,,,0.000000,4.000000,4.000000,4.000000,4.000000,4.000000,4.000000,4.000000,4.000000,4.000000,4.000000,4.000000,4.000000,4.000000,4.000000,100.000000,,,,,,,,,,,,,,,,,,,,,,,,,,,,,,,,,,,,,,,,,,,,,,,
1665771733.781548,1665771733.781915,119.000000,0.000000,4285.000000,4264.102539,4292.051270,4280.769043,4280.897461,4265.384766,4272.051270,4284.487305,4262.820313,4263.333496,4467.051270,4480.897461,4342.692383,4398.333496,2294.000000,2.000000,52.000000,,,,0.000000,4.000000,4.000000,4.000000,4.000000,4.000000,4.000000,4.000000,4.000000,4.000000,4.000000,4.000000,4.000000,4.000000,4.000000,100.000000,,,,,,,,,,,,,,,,,,,,,,,,,,,,,,,,,,,,,,,,,,,,,,,
1665771733.789356,1665771733.789623,120.000000,0.000000,4283.589844,4266.410156,4293.077148,4282.051270,4280.512695,4261.666504,4271.025879,4284.102539,4261.025879,4260.128418,4462.563965,4480.512695,4338.717773,4400.128418,2550.000000,2.000000,52.000000,,,,0.000000,4.000000,4.000000,4.000000,4.000000,4.000000,4.000000,4.000000,4.000000,4.000000,4.000000,4.000000,4.000000,4.000000,4.000000,100.000000,,,,,,,,,,,,,,,,,,,,,,,,,,,,,,,,,,,,,,,,,,,,,,,
1665771733.797164,1665771733.797432,121.000000,0.000000,4277.436035,4262.179688,4298.974121,4286.666504,4267.692383,4265.512695,4275.512695,4288.205078,4263.461426,4265.000000,4468.461426,4485.000000,4347.948730,4398.846191,3274.000000,2.000000,52.000000,,,,0.000000,4.000000,4.000000,4.000000,4.000000,4.000000,4.000000,4.000000,4.000000,4.000000,4.000000,4.000000,4.000000,4.000000,4.000000,100.000000,,,,,,,,,,,,,,,,,,,,,,,,,,,,,,,,,,,,,,,,,,,,,,,
1665771733.804973,1665771733.805140,122.000000,0.000000,4274.743652,4264.358887,4300.897461,4289.230957,4265.384766,4269.358887,4279.487305,4287.563965,4264.743652,4266.153809,4472.948730,4491.282227,4355.128418,4400.384766,2555.000000,2.000000,52.000000,,,,0.000000,4.000000,4.000000,4.000000,4.000000,4.000000,4.000000,4.000000,4.000000,4.000000,4.000000,4.000000,4.000000,4.000000,4.000000,100.000000,,,,,,,,,,,,,,,,,,,,,,,,,,,,,,,,,,,,,,,,,,,,,,,
1665771733.812781,1665771733.813049,123.000000,0.000000,4279.102539,4267.563965,4301.538574,4289.102539,4277.051270,4276.153809,4283.333496,4288.333496,4264.615234,4265.897461,4474.487305,4498.846191,4354.358887,4405.256348,2294.000000,2.000000,52.000000,,,,0.000000,4.000000,4.000000,4.000000,4.000000,4.000000,4.000000,4.000000,4.000000,4.000000,4.000000,4.000000,4.000000,4.000000,4.000000,100.000000,,,,,,,,,,,,,,,,,,,,,,,,,,,,,,,,,,,,,,,,,,,,,,,
1665771733.820590,1665771733.820857,124.000000,0.000000,4280.897461,4265.000000,4299.230957,4285.897461,4282.051270,4280.897461,4285.000000,4289.487305,4266.666504,4267.051270,4472.307617,4497.692383,4352.820313,4398.461426,2550.000000,2.000000,52.000000,,,,0.000000,4.000000,4.000000,4.000000,4.000000,4.000000,4.000000,4.000000,4.000000,4.000000,4.000000,4.000000,4.000000,4.000000,4.000000,100.000000,,,,,,,,,,,,,,,,,,,,,,,,,,,,,,,,,,,,,,,,,,,,,,,
1665771733.828398,1665771733.828765,125.000000,0.000000,4282.307617,4265.256348,4294.358887,4281.794922,4279.102539,4280.128418,4283.205078,4286.922852,4267.692383,4264.743652,4465.384766,4488.461426,4348.077148,4387.051270,3274.000000,2.000000,52.000000,,,,0.000000,4.000000,4.000000,4.000000,4.000000,4.000000,4.000000,4.000000,4.000000,4.000000,4.000000,4.000000,4.000000,4.000000,4.000000,100.000000,,,,,,,,,,,,,,,,,,,,,,,,,,,,,,,,,,,,,,,,,,,,,,,
1665771733.836206,1665771733.836574,126.000000,0.000000,4286.282227,4262.051270,4287.692383,4277.436035,4277.948730,4278.974121,4279.230957,4285.641113,4263.717773,4261.922852,4457.948730,4481.922852,4338.461426,4382.436035,2555.000000,2.000000,52.000000,,,,0.000000,4.000000,4.000000,4.000000,4.000000,4.000000,4.000000,4.000000,4.000000,4.000000,4.000000,4.000000,4.000000,4.000000,4.000000,100.000000,,,,,,,,,,,,,,,,,,,,,,,,,,,,,,,,,,,,,,,,,,,,,,,
1665771733.844015,1665771733.844482,127.000000,0.000000,4287.436035,4253.461426,4284.358887,4275.384766,4277.820313,4278.461426,4276.410156,4286.410156,4267.820313,4264.230957,4453.205078,4480.128418,4336.538574,4381.794922,52.000000,2.000000,52.000000,,,,0.000000,4.000000,4.000000,4.000000,4.000000,4.000000,4.000000,4.000000,4.000000,4.000000,4.000000,4.000000,4.000000,4.000000,4.000000,100.000000,,,,,,,,,,,,,,,,,,,,,,,,,,,,,,,,,,,,,,,,,,,,,,,
1665771733.851823,1665771733.852291,0.000000,0.000000,4292.051270,4257.820313,4284.230957,4280.256348,4279.230957,4280.384766,4277.692383,4287.563965,4276.153809,4266.282227,4456.153809,4481.282227,4341.794922,4385.256348,1905.000000,2.000000,52.000000,,,,0.000000,4.000000,4.000000,4.000000,4.000000,4.000000,4.000000,4.000000,4.000000,4.000000,4.000000,4.000000,4.000000,4.000000,4.000000,100.000000,,,,,,,,,,,,,,,,,,,,,,,,,,,,,,,,,,,,,,,,,,,,,,,
1665771733.859632,1665771733.860199,1.000000,0.000000,4297.563965,4266.666504,4284.358887,4284.615234,4280.512695,4282.307617,4275.641113,4287.820313,4271.025879,4265.000000,4459.102539,4482.436035,4339.102539,4390.128418,2007.000000,2.000000,52.000000,,,,0.000000,4.000000,4.000000,4.000000,4.000000,4.000000,4.000000,4.000000,4.000000,4.000000,4.000000,4.000000,4.000000,4.000000,4.000000,100.000000,,,,,,,,,,,,,,,,,,,,,,,,,,,,,,,,,,,,,,,,,,,,,,,
1665771733.867440,1665771733.868007,2.000000,0.000000,4297.692383,4262.820313,4282.948730,4282.692383,4277.820313,4277.179688,4269.230957,4285.128418,4263.205078,4265.897461,4456.153809,4478.205078,4332.051270,4392.307617,2282.000000,2.000000,52.000000,,,,0.000000,4.000000,4.000000,4.000000,4.000000,4.000000,4.000000,4.000000,4.000000,4.000000,4.000000,4.000000,4.000000,4.000000,4.000000,100.000000,,,,,,,,,,,,,,,,,,,,,,,,,,,,,,,,,,,,,,,,,,,,,,,
1665771733.875249,1665771733.875916,3.000000,0.000000,4303.461426,4262.051270,4286.153809,4284.358887,4276.922852,4274.615234,4268.205078,4281.538574,4266.538574,4266.410156,4458.333496,4478.333496,4336.794922,4397.692383,2326.000000,2.000000,52.000000,,,,0.000000,4.000000,4.000000,4.000000,4.000000,4.000000,4.000000,4.000000,4.000000,4.000000,4.000000,4.000000,4.000000,4.000000,4.000000,100.000000,,,,,,,,,,,,,,,,,,,,,,,,,,,,,,,,,,,,,,,,,,,,,,,
1665771733.883057,1665771733.883724,4.000000,0.000000,4314.487305,4267.307617,4296.025879,4291.025879,4281.922852,4277.179688,4272.820313,4283.846191,4266.153809,4264.102539,4468.461426,4492.307617,4351.666504,4408.717773,2378.000000,2.000000,52.000000,,,,0.000000,4.000000,4.000000,4.000000,4.000000,4.000000,4.000000,4.000000,4.000000,4.000000,4.000000,4.000000,4.000000,4.000000,4.000000,100.000000,,,,,,,,,,,,,,,,,,,,,,,,,,,,,,,,,,,,,,,,,,,,,,,
1665771733.890865,1665771733.891633,5.000000,0.000000,4316.410156,4267.051270,4300.000000,4290.128418,4289.230957,4277.948730,4275.512695,4286.922852,4262.051270,4268.077148,4476.666504,4500.512695,4359.487305,4413.077148,2329.000000,2.000000,52.000000,,,,0.000000,4.000000,4.000000,4.000000,4.000000,4.000000,4.000000,4.000000,4.000000,4.000000,4.000000,4.000000,4.000000,4.000000,4.000000,100.000000,,,,,,,,,,,,,,,,,,,,,,,,,,,,,,,,,,,,,,,,,,,,,,,
1665771733.898674,1665771733.899441,6.000000,0.000000,4314.358887,4267.820313,4303.077148,4289.743652,4289.102539,4280.384766,4280.384766,4291.153809,4271.153809,4278.461426,4482.436035,4502.436035,4359.230957,4416.666504,2100.000000,2.000000,52.000000,,,,0.000000,4.000000,4.000000,4.000000,4.000000,4.000000,4.000000,4.000000,4.000000,4.000000,4.000000,4.000000,4.000000,4.000000,4.000000,100.000000,,,,,,,,,,,,,,,,,,,,,,,,,,,,,,,,,,,,,,,,,,,,,,,
1665771733.906482,1665771733.907150,7.000000,0.000000,4316.153809,4275.769043,4308.974121,4298.333496,4283.589844,4281.538574,4285.128418,4294.230957,4280.000000,4281.538574,4482.436035,4507.820313,4360.512695,4417.307617,2022.000000,2.000000,52.000000,,,,0.000000,4.000000,4.000000,4.000000,4.000000,4.000000,4.000000,4.000000,4.000000,4.000000,4.000000,4.000000,4.000000,4.000000,4.000000,100.000000,,,,,,,,,,,,,,,,,,,,,,,,,,,,,,,,,,,,,,,,,,,,,,,
1665771733.914291,1665771733.914958,8.000000,0.000000,4317.307617,4282.179688,4311.153809,4303.333496,4289.871582,4280.128418,4288.077148,4294.102539,4277.436035,4277.948730,4477.307617,4509.615234,4356.153809,4412.563965,2254.000000,2.000000,52.000000,,,,0.000000,4.000000,4.000000,4.000000,4.000000,4.000000,4.000000,4.000000,4.000000,4.000000,4.000000,4.000000,4.000000,4.000000,4.000000,100.000000,,,,,,,,,,,,,,,,,,,,,,,,,,,,,,,,,,,,,,,,,,,,,,,
1665771733.922099,1665771733.922667,9.000000,0.000000,4318.974121,4286.410156,4307.563965,4294.871582,4305.641113,4285.769043,4289.743652,4293.589844,4278.846191,4280.128418,4480.512695,4505.128418,4350.897461,4410.641113,2376.000000,2.000000,52.000000,,,,0.000000,4.000000,4.000000,4.000000,4.000000,4.000000,4.000000,4.000000,4.000000,4.000000,4.000000,4.000000,4.000000,4.000000,4.000000,100.000000,,,,,,,,,,,,,,,,,,,,,,,,,,,,,,,,,,,,,,,,,,,,,,,
1665771733.929907,1665771733.930475,10.000000,0.000000,4316.025879,4283.589844,4300.256348,4282.051270,4307.307617,4290.641113,4286.282227,4293.589844,4282.948730,4282.436035,4481.153809,4496.666504,4351.025879,4408.077148,2555.000000,2.000000,52.000000,,,,0.000000,4.000000,4.000000,4.000000,4.000000,4.000000,4.000000,4.000000,4.000000,4.000000,4.000000,4.000000,4.000000,4.000000,4.000000,100.000000,,,,,,,,,,,,,,,,,,,,,,,,,,,,,,,,,,,,,,,,,,,,,,,
1665771733.937716,1665771733.938184,11.000000,0.000000,4303.461426,4271.666504,4285.897461,4276.922852,4294.487305,4282.436035,4278.077148,4289.102539,4280.256348,4277.692383,4464.871582,4484.487305,4343.846191,4395.000000,2294.000000,2.000000,52.000000,,,,0.000000,4.000000,4.000000,4.000000,4.000000,4.000000,4.000000,4.000000,4.000000,4.000000,4.000000,4.000000,4.000000,4.000000,4.000000,100.000000,,,,,,,,,,,,,,,,,,,,,,,,,,,,,,,,,,,,,,,,,,,,,,,
1665771733.945524,1665771733.945992,12.000000,0.000000,4295.512695,4268.846191,4277.563965,4279.743652,4283.846191,4275.769043,4276.922852,4288.974121,4277.051270,4275.256348,4456.538574,4478.717773,4337.051270,4387.307617,2558.000000,2.000000,52.000000,,,,0.000000,4.000000,4.000000,4.000000,4.000000,4.000000,4.000000,4.000000,4.000000,4.000000,4.000000,4.000000,4.000000,4.000000,4.000000,100.000000,,,,,,,,,,,,,,,,,,,,,,,,,,,,,,,,,,,,,,,,,,,,,,,
1665771733.953333,1665771733.953701,13.000000,0.000000,4297.563965,4276.922852,4281.922852,4282.563965,4282.307617,4280.256348,4279.487305,4293.333496,4279.743652,4279.615234,4464.487305,4483.589844,4342.307617,4392.563965,3283.000000,2.000000,52.000000,,,,0.000000,4.000000,4.000000,4.000000,4.000000,4.000000,4.000000,4.000000,4.000000,4.000000,4.000000,4.000000,4.000000,4.000000,4.000000,100.000000,,,,,,,,,,,,,,,,,,,,,,,,,,,,,,,,,,,,,,,,,,,,,,,
1665771733.961141,1665771733.961509,14.000000,0.000000,4304.102539,4279.487305,4286.282227,4280.000000,4286.025879,4283.333496,4280.897461,4290.769043,4282.051270,4279.871582,4466.538574,4484.871582,4345.641113,4396.538574,2555.000000,2.000000,52.000000,,,,0.000000,4.000000,4.000000,4.000000,4.000000,4.000000,4.000000,4.000000,4.000000,4.000000,4.000000,4.000000,4.000000,4.000000,4.000000,100.000000,,,,,,,,,,,,,,,,,,,,,,,,,,,,,,,,,,,,,,,,,,,,,,,
1665771733.968949,1665771733.969218,15.000000,0.000000,4309.358887,4276.153809,4287.436035,4280.641113,4289.230957,4282.820313,4281.410156,4287.179688,4279.743652,4277.948730,4462.051270,4484.230957,4346.282227,4399.743652,2294.000000,2.000000,52.000000,,,,0.000000,4.000000,4.000000,4.000000,4.000000,4.000000,4.000000,4.000000,4.000000,4.000000,4.000000,4.000000,4.000000,4.000000,4.000000,100.000000,,,,,,,,,,,,,,,,,,,,,,,,,,,,,,,,,,,,,,,,,,,,,,,
1665771733.976758,1665771733.977026,16.000000,0.000000,4313.846191,4275.897461,4288.974121,4286.153809,4287.820313,4283.589844,4280.256348,4285.641113,4277.820313,4283.205078,4466.153809,4491.794922,4352.307617,4407.563965,0.000000,2.000000,52.000000,,,,0.000000,4.000000,4.000000,4.000000,4.000000,4.000000,4.000000,4.000000,4.000000,4.000000,4.000000,4.000000,4.000000,4.000000,4.000000,100.000000,,,,,,,,,,,,,,,,,,,,,,,,,,,,,,,,,,,,,,,,,,,,,,,
1665771733.984566,1665771733.984735,17.000000,0.000000,4315.512695,4271.282227,4290.384766,4284.615234,4283.589844,4282.051270,4278.205078,4281.538574,4275.384766,4291.410156,4471.282227,4498.077148,4351.538574,4413.461426,0.000000,2.000000,52.000000,,,,0.000000,4.000000,4.000000,4.000000,4.000000,4.000000,4.000000,4.000000,4.000000,4.000000,4.000000,4.000000,4.000000,4.000000,4.000000,100.000000,,,,,,,,,,,,,,,,,,,,,,,,,,,,,,,,,,,,,,,,,,,,,,,
1665771733.992375,1665771733.992543,18.000000,0.000000,4315.641113,4265.897461,4291.410156,4282.436035,4281.282227,4277.692383,4274.487305,4279.102539,4269.487305,4292.051270,4469.871582,4498.205078,4344.615234,4413.974121,0.000000,2.000000,52.000000,,,,0.000000,4.000000,4.000000,4.000000,4.000000,4.000000,4.000000,4.000000,4.000000,4.000000,4.000000,4.000000,4.000000,4.000000,4.000000,100.000000,,,,,,,,,,,,,,,,,,,,,,,,,,,,,,,,,,,,,,,,,,,,,,,
1665771734.000183,1665771734.000252,19.000000,0.000000,4321.282227,4274.230957,4296.282227,4293.846191,4283.333496,4277.051270,4273.717773,4283.333496,4263.333496,4284.615234,4467.051270,4497.563965,4342.436035,4411.922852,0.000000,2.000000,52.000000,,,,0.000000,4.000000,4.000000,4.000000,4.000000,4.000000,4.000000,4.000000,4.000000,4.000000,4.000000,4.000000,4.000000,4.000000,4.000000,100.000000,,,,,,,,,,,,,,,,,,,,,,,,,,,,,,,,,,,,,,,,,,,,,,,
1665771734.007991,1665771734.008060,20.000000,0.000000,4325.384766,4280.769043,4297.820313,4301.538574,4291.025879,4279.102539,4276.538574,4284.871582,4261.282227,4276.794922,4465.512695,4496.794922,4342.179688,4407.051270,0.000000,2.000000,52.000000,,,,0.000000,4.000000,4.000000,4.000000,4.000000,4.000000,4.000000,4.000000,4.000000,4.000000,4.000000,4.000000,4.000000,4.000000,4.000000,100.000000,,,,,,,,,,,,,,,,,,,,,,,,,,,,,,,,,,,,,,,,,,,,,,,
1665771734.015800,1665771734.015769,21.000000,0.000000,4322.307617,4281.153809,4298.333496,4296.025879,4297.051270,4280.897461,4281.153809,4287.436035,4265.256348,4278.077148,4468.846191,4498.846191,4348.589844,4406.025879,0.000000,2.000000,52.000000,,,,0.000000,4.000000,4.000000,4.000000,4.000000,4.000000,4.000000,4.000000,4.000000,4.000000,4.000000,4.000000,4.000000,4.000000,4.000000,100.000000,,,,,,,,,,,,,,,,,,,,,,,,,,,,,,,,,,,,,,,,,,,,,,,
1665771734.023608,1665771734.023677,22.000000,0.000000,4314.871582,4280.000000,4293.974121,4290.128418,4296.410156,4281.025879,4281.666504,4290.256348,4270.512695,4278.846191,4470.512695,4500.000000,4350.128418,4407.820313,0.000000,2.000000,52.000000,,,,0.000000,4.000000,4.000000,4.000000,4.000000,4.000000,4.000000,4.000000,4.000000,4.000000,4.000000,4.000000,4.000000,4.000000,4.000000,100.000000,,,,,,,,,,,,,,,,,,,,,,,,,,,,,,,,,,,,,,,,,,,,,,,
1665771734.031417,1665771734.031485,23.000000,0.000000,4305.897461,4277.692383,4286.282227,4285.641113,4295.384766,4278.974121,4279.487305,4288.974121,4271.538574,4270.384766,4469.871582,4492.307617,4340.512695,4405.769043,0.000000,2.000000,52.000000,,,,0.000000,4.000000,4.000000,4.000000,4.000000,4.000000,4.000000,4.000000,4.000000,4.000000,4.000000,4.000000,4.000000,4.000000,4.000000,100.000000,,,,,,,,,,,,,,,,,,,,,,,,,,,,,,,,,,,,,,,,,,,,,,,
1665771734.039225,1665771734.039394,24.000000,0.000000,4299.743652,4276.666504,4283.461426,4283.077148,4295.512695,4277.307617,4278.717773,4286.410156,4272.820313,4270.000000,4470.769043,4481.538574,4339.487305,4401.922852,0.000000,2.000000,52.000000,,,,0.000000,4.000000,4.000000,4.000000,4.000000,4.000000,4.000000,4.000000,4.000000,4.000000,4.000000,4.000000,4.000000,4.000000,4.000000,100.000000,,,,,,,,,,,,,,,,,,,,,,,,,,,,,,,,,,,,,,,,,,,,,,,
1665771734.047033,1665771734.047202,25.000000,0.000000,4300.384766,4277.307617,4288.846191,4287.948730,4291.025879,4278.333496,4280.512695,4287.436035,4276.794922,4279.871582,4468.974121,4480.641113,4342.051270,4403.333496,0.000000,2.000000,52.000000,,,,0.000000,4.000000,4.000000,4.000000,4.000000,4.000000,4.000000,4.000000,4.000000,4.000000,4.000000,4.000000,4.000000,4.000000,4.000000,100.000000,,,,,,,,,,,,,,,,,,,,,,,,,,,,,,,,,,,,,,,,,,,,,,,
1665771734.054842,1665771734.055111,26.000000,0.000000,4305.512695,4279.358887,4291.410156,4289.487305,4286.410156,4280.256348,4282.820313,4291.922852,4280.769043,4281.410156,4466.922852,4489.615234,4338.205078,4403.974121,0.000000,2.000000,52.000000,,,,0.000000,4.000000,4.000000,4.000000,4.000000,4.000000,4.000000,4.000000,4.000000,4.000000,4.000000,4.000000,4.000000,4.000000,4.000000,100.000000,,,,,,,,,,,,,,,,,,,,,,,,,,,,,,,,,,,,,,,,,,,,,,,
1665771734.062650,1665771734.062919,27.000000,0.000000,4306.153809,4276.410156,4289.230957,4280.128418,4285.000000,4279.871582,4283.589844,4297.307617,4285.000000,4281.282227,4471.153809,4495.128418,4340.512695,4400.512695,0.000000,2.000000,52.000000,,,,0.000000,4.000000,4.000000,4.000000,4.000000,4.000000,4.000000,4.000000,4.000000,4.000000,4.000000,4.000000,4.000000,4.000000,4.000000,100.000000,,,,,,,,,,,,,,,,,,,,,,,,,,,,,,,,,,,,,,,,,,,,,,,
1665771734.070459,1665771734.070827,28.000000,0.000000,4300.000000,4268.846191,4288.717773,4270.897461,4284.487305,4280.769043,4285.384766,4295.512695,4288.333496,4289.102539,4473.974121,4490.384766,4345.512695,4394.487305,0.000000,2.000000,52.000000,,,,0.000000,4.000000,4.000000,4.000000,4.000000,4.000000,4.000000,4.000000,4.000000,4.000000,4.000000,4.000000,4.000000,4.000000,4.000000,100.000000,,,,,,,,,,,,,,,,,,,,,,,,,,,,,,,,,,,,,,,,,,,,,,,
1665771734.078267,1665771734.078636,29.000000,0.000000,4299.743652,4263.846191,4289.358887,4271.025879,4286.666504,4286.025879,4286.922852,4292.563965,4290.128418,4295.128418,4471.025879,4485.384766,4345.512695,4394.230957,0.000000,2.000000,52.000000,,,,0.000000,4.000000,4.000000,4.000000,4.000000,4.000000,4.000000,4.000000,4.000000,4.000000,4.000000,4.000000,4.000000,4.000000,4.000000,100.000000,1.000000,91.666664,3.000000,4.000000,4.000000,4.000000,4.000000,4.000000,4.000000,4.000000,4.000000,4.000000,4.000000,4.000000,4.000000,4.000000,1.000000,0.380681,-0.501441,-1.473479,0.746965,1.000000,0.027597,3.450711,3.194592,12.475410,0.041269,1.000000,0.326598,58.656120,-85.134056,319.592468,1.000000,0.242280,0.105497,0.087013,0.257144,1.000000,0.352088,4.720867,-4.211527,18.217102,1.000000,0.270565,0.270565,0.000000,1.000000
1665771734.086075,1665771734.086544,30.000000,0.000000,4310.256348,4266.410156,4285.384766,4276.025879,4293.077148,4291.282227,4287.179688,4296.153809,4293.077148,4295.384766,4469.871582,4487.948730,4348.589844,4398.589844,0.000000,2.000000,52.000000,,,,0.000000,4.000000,4.000000,4.000000,4.000000,4.000000,4.000000,4.000000,4.000000,4.000000,4.000000,4.000000,4.000000,4.000000,4.000000,100.000000,,,,,,,,,,,,,,,,,,,,,,,,,,,,,,,,,,,,,,,,,,,,,,,
1665771734.093884,1665771734.094353,31.000000,0.000000,4322.179688,4274.102539,4285.000000,4283.461426,4296.794922,4294.615234,4286.794922,4298.333496,4293.589844,4296.153809,4469.871582,4490.128418,4352.692383,4400.000000,0.000000,2.000000,52.000000,,,,0.000000,4.000000,4.000000,4.000000,4.000000,4.000000,4.000000,4.000000,4.000000,4.000000,4.000000,4.000000,4.000000,4.000000,4.000000,100.000000,,,,,,,,,,,,,,,,,,,,,,,,,,,,,,,,,,,,,,,,,,,,,,,
1665771734.101692,1665771734.102261,32.000000,0.000000,4323.846191,4278.974121,4289.358887,4288.846191,4295.256348,4296.282227,4285.897461,4295.897461,4287.436035,4293.974121,4471.025879,4490.769043,4351.666504,4401.538574,0.000000,2.000000,52.000000,,,,0.000000,4.000000,4.000000,4.000000,4.000000,4.000000,4.000000,4.000000,4.000000,4.000000,4.000000,4.000000,4.000000,4.000000,4.000000,100.000000,,,,,,,,,,,,,,,,,,,,,,,,,,,,,,,,,,,,,,,,,,,,,,,
1665771734.109501,1665771734.110069,33.000000,0.000000,4320.897461,4280.897461,4286.538574,4288.077148,4299.743652,4295.512695,4283.589844,4294.102539,4281.794922,4292.820313,4470.384766,4491.922852,4350.641113,4404.230957,0.000000,2.000000,52.000000,,,,0.000000,4.000000,4.000000,4.000000,4.000000,4.000000,4.000000,4.000000,4.000000,4.000000,4.000000,4.000000,4.000000,4.000000,4.000000,100.000000,,,,,,,,,,,,,,,,,,,,,,,,,,,,,,,,,,,,,,,,,,,,,,,
1665771734.117309,1665771734.117778,34.000000,0.000000,4318.846191,4278.077148,4282.179688,4282.948730,4305.897461,4292.948730,4282.307617,4293.846191,4281.666504,4292.692383,4469.743652,4493.461426,4352.692383,4408.077148,0.000000,2.000000,52.000000,1,1,1,0.000000,4.000000,4.000000,4.000000,4.000000,4.000000,4.000000,4.000000,4.000000,4.000000,4.000000,4.000000,4.000000,4.000000,4.000000,100.000000,,,,,,,,,,,,,,,,,,,,,,,,,,,,,,,,,,,,,,,,,,,,,,,
1665771734.125117,1665771734.125586,35.000000,0.000000,4318.333496,4275.256348,4286.025879,4279.871582,4302.051270,4292.179688,4280.769043,4290.897461,4280.384766,4288.461426,4474.102539,4494.743652,4355.256348,4409.615234,0.000000,2.000000,52.000000,,,,0.000000,4.000000,4.000000,4.000000,4.000000,4.000000,4.000000,4.000000,4.000000,4.000000,4.000000,4.000000,4.000000,4.000000,4.000000,100.000000,,,,,,,,,,,,,,,,,,,,,,,,,,,,,,,,,,,,,,,,,,,,,,,
1665771734.132926,1665771734.133295,36.000000,0.000000,4326.794922,4280.897461,4295.897461,4288.846191,4302.820313,4292.692383,4284.102539,4292.179688,4280.256348,4288.717773,4481.282227,4498.846191,4357.692383,4414.358887,0.000000,2.000000,52.000000,,,,0.000000,4.000000,4.000000,4.000000,4.000000,4.000000,4.000000,4.000000,4.000000,4.000000,4.000000,4.000000,4.000000,4.000000,4.000000,100.000000,,,,,,,,,,,,,,,,,,,,,,,,,,,,,,,,,,,,,,,,,,,,,,,
1665771734.140734,1665771734.141203,37.000000,0.000000,4337.563965,4286.153809,4301.025879,4298.974121,4312.948730,4292.307617,4291.025879,4298.205078,4288.205078,4297.307617,4483.974121,4508.205078,4360.512695,4424.743652,0.000000,2.000000,52.000000,,,,0.000000,4.000000,4.000000,4.000000,4.000000,4.000000,4.000000,4.000000,4.000000,4.000000,4.000000,4.000000,4.000000,4.000000,4.000000,100.000000,,,,,,,,,,,,,,,,,,,,,,,,,,,,,,,,,,,,,,,,,,,,,,,
1665771734.148543,1665771734.149012,38.000000,0.000000,4337.436035,4282.436035,4305.512695,4295.897461,4308.461426,4291.922852,4294.871582,4304.871582,4296.282227,4301.153809,4482.820313,4517.179688,4359.358887,4432.436035,0.000000,2.000000,52.000000,,,,0.000000,4.000000,4.000000,4.000000,4.000000,4.000000,4.000000,4.000000,4.000000,4.000000,4.000000,4.000000,4.000000,4.000000,4.000000,100.000000,,,,,,,,,,,,,,,,,,,,,,,,,,,,,,,,,,,,,,,,,,,,,,,
1665771734.156351,1665771734.156920,39.000000,0.000000,4330.897461,4277.307617,4306.666504,4286.666504,4298.333496,4291.410156,4295.512695,4307.948730,4295.512695,4301.922852,4481.153809,4516.794922,4350.897461,4428.846191,0.000000,2.000000,52.000000,,,,0.000000,4.000000,4.000000,4.000000,4.000000,4.000000,4.000000,4.000000,4.000000,4.000000,4.000000,4.000000,4.000000,4.000000,4.000000,100.000000,,,,,,,,,,,,,,,,,,,,,,,,,,,,,,,,,,,,,,,,,,,,,,,
1665771734.164159,1665771734.164728,40.000000,0.000000,4335.128418,4278.333496,4306.153809,4288.846191,4300.256348,4292.692383,4299.743652,4310.641113,4297.692383,4309.871582,4485.512695,4515.641113,4351.794922,4426.666504,0.000000,2.000000,52.000000,,,,0.000000,4.000000,4.000000,4.000000,4.000000,4.000000,4.000000,4.000000,4.000000,4.000000,4.000000,4.000000,4.000000,4.000000,4.000000,100.000000,,,,,,,,,,,,,,,,,,,,,,,,,,,,,,,,,,,,,,,,,,,,,,,
1665771734.171968,1665771734.172537,41.000000,0.000000,4339.871582,4280.641113,4303.461426,4295.256348,4301.538574,4293.333496,4299.871582,4311.282227,4304.487305,4313.461426,4492.820313,4519.230957,4362.436035,4430.512695,0.000000,2.000000,52.000000,,,,0.000000,4.000000,4.000000,4.000000,4.000000,4.000000,4.000000,4.000000,4.000000,4.000000,4.000000,4.000000,4.000000,4.000000,4.000000,100.000000,,,,,,,,,,,,,,,,,,,,,,,,,,,,,,,,,,,,,,,,,,,,,,,
1665771734.179776,1665771734.180245,42.000000,0.000000,4339.743652,4286.410156,4300.641113,4293.846191,4302.692383,4296.282227,4298.974121,4309.358887,4307.948730,4311.922852,4494.487305,4519.487305,4366.794922,4430.128418,0.000000,2.000000,52.000000,,,,0.000000,4.000000,4.000000,4.000000,4.000000,4.000000,4.000000,4.000000,4.000000,4.000000,4.000000,4.000000,4.000000,4.000000,4.000000,100.000000,,,,,,,,,,,,,,,,,,,,,,,,,,,,,,,,,,,,,,,,,,,,,,,
1665771734.187585,1665771734.188054,43.000000,0.000000,4345.897461,4296.666504,4301.410156,4291.538574,4313.974121,4303.077148,4300.897461,4307.436035,4310.384766,4314.358887,4490.897461,4512.179688,4365.000000,4424.871582,0.000000,2.000000,52.000000,,,,0.000000,4.000000,4.000000,4.000000,4.000000,4.000000,4.000000,4.000000,4.000000,4.000000,4.000000,4.000000,4.000000,4.000000,4.000000,100.000000,,,,,,,,,,,,,,,,,,,,,,,,,,,,,,,,,,,,,,,,,,,,,,,
1665771734.195393,1665771734.195762,44.000000,0.000000,4345.897461,4297.692383,4298.461426,4286.922852,4315.000000,4301.410156,4294.487305,4299.615234,4306.153809,4307.307617,4476.538574,4498.333496,4355.128418,4418.974121,0.000000,2.000000,52.000000,,,,0.000000,4.000000,4.000000,4.000000,4.000000,4.000000,4.000000,4.000000,4.000000,4.000000,4.000000,4.000000,4.000000,4.000000,4.000000,100.000000,,,,,,,,,,,,,,,,,,,,,,,,,,,,,,,,,,,,,,,,,,,,,,,
1665771734.203201,1665771734.203571,45.000000,0.000000,4335.000000,4284.487305,4286.538574,4276.282227,4305.384766,4291.794922,4283.974121,4288.846191,4288.077148,4293.333496,4460.641113,4481.538574,4340.384766,4410.256348,0.000000,2.000000,52.000000,,,,0.000000,4.000000,4.000000,4.000000,4.000000,4.000000,4.000000,4.000000,4.000000,4.000000,4.000000,4.000000,4.000000,4.000000,4.000000,100.000000,,,,,,,,,,,,,,,,,,,,,,,,,,,,,,,,,,,,,,,,,,,,,,,
1665771734.211010,1665771734.211279,46.000000,0.000000,4336.538574,4281.410156,4283.846191,4275.000000,4310.256348,4294.487305,4286.025879,4289.358887,4278.974121,4287.436035,4464.615234,4481.153809,4342.820313,4408.461426,0.000000,2.000000,52.000000,,,,0.000000,4.000000,4.000000,4.000000,4.000000,4.000000,4.000000,4.000000,4.000000,4.000000,4.000000,4.000000,4.000000,4.000000,4.000000,100.000000,,,,,,,,,,,,,,,,,,,,,,,,,,,,,,,,,,,,,,,,,,,,,,,
1665771734.218818,1665771734.219188,47.000000,0.000000,4352.051270,4292.051270,4293.589844,4285.512695,4313.333496,4303.333496,4293.589844,4295.897461,4290.512695,4291.794922,4472.692383,4494.615234,4355.641113,4416.794922,0.000000,2.000000,52.000000,,,,0.000000,4.000000,4.000000,4.000000,4.000000,4.000000,4.000000,4.000000,4.000000,4.000000,4.000000,4.000000,4.000000,4.000000,4.000000,100.000000,,,,,,,,,,,,,,,,,,,,,,,,,,,,,,,,,,,,,,,,,,,,,,,
1665771734.226627,1665771734.226996,48.000000,0.000000,4356.410156,4289.743652,4294.487305,4284.743652,4300.256348,4299.743652,4290.128418,4296.666504,4298.461426,4298.333496,4470.000000,4500.769043,4360.512695,4422.692383,0.000000,2.000000,52.000000,,,,0.000000,4.000000,4.000000,4.000000,4.000000,4.000000,4.000000,4.000000,4.000000,4.000000,4.000000,4.000000,4.000000,4.000000,4.000000,100.000000,,,,,,,,,,,,,,,,,,,,,,,,,,,,,,,,,,,,,,,,,,,,,,,
1665771734.234435,1665771734.234905,49.000000,0.000000,4351.922852,4278.461426,4291.922852,4278.077148,4291.666504,4294.358887,4286.538574,4295.512695,4293.461426,4301.538574,4472.692383,4502.051270,4363.461426,4424.615234,0.000000,2.000000,52.000000,,,,0.000000,4.000000,4.000000,4.000000,4.000000,4.000000,4.000000,4.000000,4.000000,4.000000,4.000000,4.000000,4.000000,4.000000,4.000000,100.000000,,,,,,,,,,,,,,,,,,,,,,,,,,,,,,,,,,,,,,,,,,,,,,,
1665771734.242243,1665771734.242713,50.000000,0.000000,4350.384766,4279.358887,4294.871582,4279.615234,4293.717773,4295.641113,4288.205078,4296.282227,4292.436035,4302.820313,4477.051270,4504.358887,4364.487305,4426.025879,0.000000,2.000000,52.000000,,,,0.000000,4.000000,4.000000,4.000000,4.000000,4.000000,4.000000,4.000000,4.000000,4.000000,4.000000,4.000000,4.000000,4.000000,4.000000,100.000000,,,,,,,,,,,,,,,,,,,,,,,,,,,,,,,,,,,,,,,,,,,,,,,
1665771734.250052,1665771734.250621,51.000000,0.000000,4347.948730,4282.820313,4292.051270,4281.794922,4297.948730,4293.205078,4286.794922,4298.589844,4296.794922,4303.974121,4473.205078,4503.205078,4357.563965,4423.205078,0.000000,2.000000,52.000000,,,,0.000000,4.000000,4.000000,4.000000,4.000000,4.000000,4.000000,4.000000,4.000000,4.000000,4.000000,4.000000,4.000000,4.000000,4.000000,100.000000,,,,,,,,,,,,,,,,,,,,,,,,,,,,,,,,,,,,,,,,,,,,,,,
1665771734.257860,1665771734.258430,52.000000,0.000000,4340.384766,4277.307617,4282.820313,4277.820313,4301.153809,4289.615234,4285.512695,4298.589844,4295.256348,4305.384766,4472.948730,4494.358887,4350.128418,4413.461426,0.000000,2.000000,52.000000,,,,0.000000,4.000000,4.000000,4.000000,4.000000,4.000000,4.000000,4.000000,4.000000,4.000000,4.000000,4.000000,4.000000,4.000000,4.000000,100.000000,,,,,,,,,,,,,,,,,,,,,,,,,,,,,,,,,,,,,,,,,,,,,,,
1665771734.265669,1665771734.266338,53.000000,0.000000,4341.282227,4277.179688,4286.410156,4279.102539,4305.641113,4293.205078,4292.051270,4302.692383,4296.666504,4308.974121,4483.461426,4494.871582,4354.102539,4411.922852,0.000000,2.000000,52.000000,,,,0.000000,4.000000,4.000000,4.000000,4.000000,4.000000,4.000000,4.000000,4.000000,4.000000,4.000000,4.000000,4.000000,4.000000,4.000000,100.000000,,,,,,,,,,,,,,,,,,,,,,,,,,,,,,,,,,,,,,,,,,,,,,,
1665771734.273477,1665771734.274147,54.000000,0.000000,4351.538574,4280.641113,4293.461426,4281.282227,4310.128418,4296.794922,4297.051270,4308.333496,4303.589844,4315.128418,4489.487305,4506.538574,4365.641113,4419.230957,0.000000,2.000000,52.000000,,,,0.000000,4.000000,4.000000,4.000000,4.000000,4.000000,4.000000,4.000000,4.000000,4.000000,4.000000,4.000000,4.000000,4.000000,4.000000,100.000000,,,,,,,,,,,,,,,,,,,,,,,,,,,,,,,,,,,,,,,,,,,,,,,
1665771734.281285,1665771734.282055,55.000000,0.000000,4355.128418,4281.922852,4295.384766,4279.615234,4308.077148,4294.743652,4293.846191,4309.743652,4300.897461,4317.051270,4488.589844,4508.077148,4372.179688,4425.897461,0.000000,2.000000,52.000000,,,,0.000000,4.000000,4.000000,4.000000,4.000000,4.000000,4.000000,4.000000,4.000000,4.000000,4.000000,4.000000,4.000000,4.000000,4.000000,100.000000,,,,,,,,,,,,,,,,,,,,,,,,,,,,,,,,,,,,,,,,,,,,,,,
1665771734.289094,1665771734.289863,56.000000,0.000000,4354.230957,4287.436035,4297.692383,4280.897461,4302.051270,4292.563965,4290.384766,4304.102539,4292.820313,4308.974121,4489.487305,4503.717773,4373.077148,4427.948730,0.000000,2.000000,52.000000,,,,0.000000,4.000000,4.000000,4.000000,4.000000,4.000000,4.000000,4.000000,4.000000,4.000000,4.000000,4.000000,4.000000,4.000000,4.000000,100.000000,,,,,,,,,,,,,,,,,,,,,,,,,,,,,,,,,,,,,,,,,,,,,,,
1665771734.296902,1665771734.297772,57.000000,0.000000,4358.846191,4291.025879,4299.743652,4279.487305,4304.615234,4291.794922,4293.333496,4299.615234,4291.025879,4299.871582,4491.922852,4510.512695,4373.717773,4427.436035,0.000000,2.000000,52.000000,,,,0.000000,4.000000,4.000000,4.000000,4.000000,4.000000,4.000000,4.000000,4.000000,4.000000,4.000000,4.000000,4.000000,4.000000,4.000000,100.000000,,,,,,,,,,,,,,,,,,,,,,,,,,,,,,,,,,,,,,,,,,,,,,,
1665771734.304711,1665771734.305580,58.000000,0.000000,4362.692383,4291.922852,4300.384766,4276.410156,4309.230957,4291.794922,4296.410156,4299.102539,4292.307617,4301.794922,4487.948730,4515.000000,4372.179688,4422.820313,0.000000,2.000000,52.000000,,,,0.000000,4.000000,4.000000,4.000000,4.000000,4.000000,4.000000,4.000000,4.000000,4.000000,4.000000,4.000000,4.000000,4.000000,4.000000,100.000000,,,,,,,,,,,,,,,,,,,,,,,,,,,,,,,,,,,,,,,,,,,,,,,
1665771734.312519,1665771734.313289,59.000000,0.000000,4361.538574,4295.897461,4308.205078,4278.974121,4301.666504,4293.717773,4297.692383,4300.128418,4293.205078,4309.230957,4482.692383,4513.333496,4372.307617,4422.179688,0.000000,2.000000,52.000000,,,,0.000000,4.000000,4.000000,4.000000,4.000000,4.000000,4.000000,4.000000,4.000000,4.000000,4.000000,4.000000,4.000000,4.000000,4.000000,100.000000,,,,,,,,,,,,,,,,,,,,,,,,,,,,,,,,,,,,,,,,,,,,,,,
1665771734.320327,1665771734.321097,60.000000,0.000000,4354.102539,4292.820313,4310.384766,4278.717773,4295.641113,4293.077148,4298.717773,4301.794922,4294.615234,4306.922852,4482.948730,4515.256348,4372.563965,4423.077148,0.000000,2.000000,52.000000,,,,0.000000,4.000000,4.000000,4.000000,4.000000,4.000000,4.000000,4.000000,4.000000,4.000000,4.000000,4.000000,4.000000,4.000000,4.000000,100.000000,,,,,,,,,,,,,,,,,,,,,,,,,,,,,,,,,,,,,,,,,,,,,,,
1665771734.328136,1665771734.328806,61.000000,0.000000,4346.153809,4282.436035,4302.179688,4278.589844,4297.179688,4290.256348,4301.922852,4303.974121,4298.461426,4304.743652,4484.358887,4516.410156,4368.077148,4418.077148,0.000000,2.000000,52.000000,,,,0.000000,4.000000,4.000000,4.000000,4.000000,4.000000,4.000000,4.000000,4.000000,4.000000,4.000000,4.000000,4.000000,4.000000,4.000000,100.000000,,,,,,,,,,,,,,,,,,,,,,,,,,,,,,,,,,,,,,,,,,,,,,,
1665771734.335944,1665771734.336614,62.000000,0.000000,4343.077148,4277.436035,4298.461426,4283.717773,4295.384766,4291.025879,4302.436035,4304.743652,4300.769043,4308.461426,4484.102539,4510.384766,4365.897461,4412.692383,0.000000,2.000000,52.000000,,,,0.000000,4.000000,4.000000,4.000000,4.000000,4.000000,4.000000,4.000000,4.000000,4.000000,4.000000,4.000000,4.000000,4.000000,4.000000,100.000000,,,,,,,,,,,,,,,,,,,,,,,,,,,,,,,,,,,,,,,,,,,,,,,
1665771734.343753,1665771734.344323,63.000000,0.000000,4340.641113,4279.743652,4296.410156,4287.436035,4293.846191,4293.461426,4298.589844,4302.051270,4300.512695,4303.205078,4479.615234,4502.948730,4360.769043,4412.563965,0.000000,2.000000,52.000000,,,,0.000000,4.000000,4.000000,4.000000,4.000000,4.000000,4.000000,4.000000,4.000000,4.000000,4.000000,4.000000,4.000000,4.000000,4.000000,100.000000,,,,,,,,,,,,,,,,,,,,,,,,,,,,,,,,,,,,,,,,,,,,,,,
1665771734.351561,1665771734.352131,64.000000,0.000000,4333.333496,4280.128418,4291.666504,4289.102539,4296.538574,4297.051270,4297.948730,4301.538574,4300.641113,4295.897461,4473.077148,4500.000000,4353.461426,4417.307617,1922.000000,2.000000,52.000000,,,,0.000000,4.000000,4.000000,4.000000,4.000000,4.000000,4.000000,4.000000,4.000000,4.000000,4.000000,4.000000,4.000000,4.000000,4.000000,100.000000,,,,,,,,,,,,,,,,,,,,,,,,,,,,,,,,,,,,,,,,,,,,,,,
1665771734.359369,1665771734.359840,65.000000,0.000000,4328.077148,4278.205078,4292.948730,4297.563965,4300.128418,4301.282227,4297.948730,4302.436035,4302.692383,4300.256348,4471.922852,4499.358887,4358.461426,4420.512695,2024.000000,2.000000,52.000000,,,,0.000000,4.000000,4.000000,4.000000,4.000000,4.000000,4.000000,4.000000,4.000000,4.000000,4.000000,4.000000,4.000000,4.000000,4.000000,100.000000,,,,,,,,,,,,,,,,,,,,,,,,,,,,,,,,,,,,,,,,,,,,,,,
1665771734.367178,1665771734.367648,66.000000,0.000000,4322.820313,4277.948730,4296.025879,4298.589844,4299.230957,4300.256348,4290.897461,4296.025879,4298.461426,4301.025879,4470.000000,4490.384766,4358.077148,4416.410156,2296.000000,2.000000,52.000000,,,,0.000000,4.000000,4.000000,4.000000,4.000000,4.000000,4.000000,4.000000,4.000000,4.000000,4.000000,4.000000,4.000000,4.000000,4.000000,100.000000,,,,,,,,,,,,,,,,,,,,,,,,,,,,,,,,,,,,,,,,,,,,,,,
1665771734.374986,1665771734.375357,67.000000,0.000000,4309.230957,4279.615234,4292.436035,4294.487305,4295.769043,4295.256348,4281.025879,4284.358887,4285.256348,4287.307617,4462.179688,4476.538574,4343.205078,4411.025879,2346.000000,2.000000,52.000000,,,,0.000000,4.000000,4.000000,4.000000,4.000000,4.000000,4.000000,4.000000,4.000000,4.000000,4.000000,4.000000,4.000000,4.000000,4.000000,100.000000,,,,,,,,,,,,,,,,,,,,,,,,,,,,,,,,,,,,,,,,,,,,,,,
1665771734.382795,1665771734.383165,68.000000,0.000000,4294.871582,4281.282227,4297.563965,4301.282227,4296.282227,4294.358887,4281.282227,4283.333496,4276.025879,4274.743652,4466.410156,4479.487305,4344.102539,4417.051270,2389.000000,2.000000,52.000000,,,,0.000000,4.000000,4.000000,4.000000,4.000000,4.000000,4.000000,4.000000,4.000000,4.000000,4.000000,4.000000,4.000000,4.000000,4.000000,100.000000,,,,,,,,,,,,,,,,,,,,,,,,,,,,,,,,,,,,,,,,,,,,,,,
1665771734.390603,1665771734.390874,69.000000,0.000000,4281.666504,4279.230957,4306.153809,4306.794922,4296.025879,4294.358887,4285.000000,4288.333496,4275.769043,4276.282227,4477.692383,4492.051270,4360.384766,4425.000000,2329.000000,2.000000,52.000000,,,,0.000000,4.000000,4.000000,4.000000,4.000000,4.000000,4.000000,4.000000,4.000000,4.000000,4.000000,4.000000,4.000000,4.000000,4.000000,100.000000,,,,,,,,,,,,,,,,,,,,,,,,,,,,,,,,,,,,,,,,,,,,,,,
1665771734.398411,1665771734.398782,70.000000,0.000000,4270.769043,4279.743652,4307.692383,4308.333496,4291.922852,4290.256348,4285.769043,4290.384766,4276.922852,4276.922852,4476.282227,4495.128418,4363.974121,4428.077148,2112.000000,2.000000,52.000000,,,,0.000000,4.000000,4.000000,4.000000,4.000000,4.000000,4.000000,4.000000,4.000000,4.000000,4.000000,4.000000,4.000000,4.000000,4.000000,100.000000,,,,,,,,,,,,,,,,,,,,,,,,,,,,,,,,,,,,,,,,,,,,,,,
1665771734.406220,1665771734.406591,71.000000,0.000000,4264.230957,4284.102539,4309.230957,4308.589844,4290.897461,4290.256348,4288.333496,4290.897461,4275.384766,4271.794922,4472.820313,4493.974121,4358.717773,4430.897461,2035.000000,2.000000,52.000000,,,,0.000000,4.000000,4.000000,4.000000,4.000000,4.000000,4.000000,4.000000,4.000000,4.000000,4.000000,4.000000,4.000000,4.000000,4.000000,100.000000,,,,,,,,,,,,,,,,,,,,,,,,,,,,,,,,,,,,,,,,,,,,,,,
1665771734.414028,1665771734.414499,72.000000,0.000000,4260.512695,4282.436035,4314.871582,4300.641113,4287.179688,4291.282227,4293.077148,4293.717773,4275.897461,4275.897461,4475.641113,4495.897461,4358.717773,4432.436035,2257.000000,2.000000,52.000000,,,,0.000000,4.000000,4.000000,4.000000,4.000000,4.000000,4.000000,4.000000,4.000000,4.000000,4.000000,4.000000,4.000000,4.000000,4.000000,100.000000,,,,,,,,,,,,,,,,,,,,,,,,,,,,,,,,,,,,,,,,,,,,,,,
1665771734.421837,1665771734.422307,73.000000,0.000000,4251.410156,4277.179688,4312.820313,4291.666504,4278.846191,4283.077148,4287.820313,4293.077148,4282.436035,4281.666504,4475.512695,4496.153809,4357.820313,4430.641113,2389.000000,2.000000,52.000000,,,,0.000000,4.000000,4.000000,4.000000,4.000000,4.000000,4.000000,4.000000,4.000000,4.000000,4.000000,4.000000,4.000000,4.000000,4.000000,100.000000,,,,,,,,,,,,,,,,,,,,,,,,,,,,,,,,,,,,,,,,,,,,,,,
1665771734.429645,1665771734.430216,74.000000,0.000000,4243.461426,4279.871582,4312.436035,4294.871582,4279.358887,4281.538574,4284.615234,4295.641113,4291.282227,4279.358887,4479.102539,4497.820313,4357.692383,4433.846191,2568.000000,2.000000,52.000000,,,,0.000000,4.000000,4.000000,4.000000,4.000000,4.000000,4.000000,4.000000,4.000000,4.000000,4.000000,4.000000,4.000000,4.000000,4.000000,100.000000,,,,,,,,,,,,,,,,,,,,,,,,,,,,,,,,,,,,,,,,,,,,,,,
1665771734.437453,1665771734.438024,75.000000,0.000000,4245.000000,4281.794922,4314.871582,4295.769043,4283.717773,4291.922852,4291.922852,4302.563965,4298.589844,4283.717773,4486.410156,4503.846191,4365.000000,4433.974121,2321.000000,2.000000,52.000000,,,,0.000000,4.000000,4.000000,4.000000,4.000000,4.000000,4.000000,4.000000,4.000000,4.000000,4.000000,4.000000,4.000000,4.000000,4.000000,100.000000,,,,,,,,,,,,,,,,,,,,,,,,,,,,,,,,,,,,,,,,,,,,,,,
1665771734.445262,1665771734.445932,76.000000,0.000000,4243.077148,4276.025879,4308.589844,4291.153809,4280.641113,4292.692383,4292.563965,4299.743652,4298.717773,4287.820313,4478.589844,4496.282227,4365.769043,4425.897461,2576.000000,2.000000,52.000000,,,,0.000000,4.000000,4.000000,4.000000,4.000000,4.000000,4.000000,4.000000,4.000000,4.000000,4.000000,4.000000,4.000000,4.000000,4.000000,100.000000,,,,,,,,,,,,,,,,,,,,,,,,,,,,,,,,,,,,,,,,,,,,,,,
1665771734.453070,1665771734.453741,77.000000,0.000000,4242.307617,4282.436035,4306.025879,4298.846191,4281.153809,4287.179688,4288.333496,4293.205078,4297.051270,4287.820313,4469.487305,4484.743652,4361.153809,4422.563965,3299.000000,2.000000,52.000000,,,,0.000000,4.000000,4.000000,4.000000,4.000000,4.000000,4.000000,4.000000,4.000000,4.000000,4.000000,4.000000,4.000000,4.000000,4.000000,100.000000,,,,,,,,,,,,,,,,,,,,,,,,,,,,,,,,,,,,,,,,,,,,,,,
1665771734.460878,1665771734.461649,78.000000,0.000000,4256.922852,4297.051270,4316.410156,4304.230957,4290.512695,4293.974121,4291.922852,4296.153809,4299.743652,4292.179688,4480.384766,4495.897461,4370.000000,4435.256348,2568.000000,2.000000,52.000000,,,,0.000000,4.000000,4.000000,4.000000,4.000000,4.000000,4.000000,4.000000,4.000000,4.000000,4.000000,4.000000,4.000000,4.000000,4.000000,100.000000,,,,,,,,,,,,,,,,,,,,,,,,,,,,,,,,,,,,,,,,,,,,,,,
1665771734.468687,1665771734.469458,79.000000,0.000000,4269.743652,4296.538574,4319.871582,4295.384766,4297.179688,4297.307617,4295.128418,4297.563965,4298.589844,4290.384766,4488.461426,4507.820313,4379.743652,4444.102539,2321.000000,2.000000,52.000000,,,,0.000000,4.000000,4.000000,4.000000,4.000000,4.000000,4.000000,4.000000,4.000000,4.000000,4.000000,4.000000,4.000000,4.000000,4.000000,100.000000,,,,,,,,,,,,,,,,,,,,,,,,,,,,,,,,,,,,,,,,,,,,,,,
1665771734.476495,1665771734.477166,80.000000,0.000000,4266.025879,4289.743652,4313.589844,4292.948730,4293.205078,4288.077148,4288.205078,4287.051270,4287.820313,4279.743652,4481.025879,4496.922852,4372.692383,4436.794922,2576.000000,2.000000,52.000000,,,,0.000000,4.000000,4.000000,4.000000,4.000000,4.000000,4.000000,4.000000,4.000000,4.000000,4.000000,4.000000,4.000000,4.000000,4.000000,100.000000,,,,,,,,,,,,,,,,,,,,,,,,,,,,,,,,,,,,,,,,,,,,,,,
1665771734.484304,1665771734.484975,81.000000,0.000000,4266.410156,4289.615234,4318.589844,4302.563965,4280.256348,4287.692383,4285.000000,4281.410156,4279.102539,4277.692383,4475.769043,4493.974121,4364.487305,4435.384766,3299.000000,2.000000,52.000000,,,,0.000000,4.000000,4.000000,4.000000,4.000000,4.000000,4.000000,4.000000,4.000000,4.000000,4.000000,4.000000,4.000000,4.000000,4.000000,100.000000,,,,,,,,,,,,,,,,,,,,,,,,,,,,,,,,,,,,,,,,,,,,,,,
1665771734.492112,1665771734.492683,82.000000,0.000000,4282.563965,4291.922852,4330.384766,4312.051270,4278.717773,4294.871582,4289.871582,4285.000000,4278.846191,4281.282227,4480.128418,4511.666504,4366.538574,4450.512695,2568.000000,2.000000,52.000000,,,,0.000000,4.000000,4.000000,4.000000,4.000000,4.000000,4.000000,4.000000,4.000000,4.000000,4.000000,4.000000,4.000000,4.000000,4.000000,100.000000,,,,,,,,,,,,,,,,,,,,,,,,,,,,,,,,,,,,,,,,,,,,,,,
1665771734.499921,1665771734.500492,83.000000,0.000000,4291.025879,4296.922852,4333.974121,4315.384766,4295.256348,4296.538574,4292.948730,4286.794922,4279.871582,4280.000000,4483.846191,4518.717773,4371.538574,4457.563965,2321.000000,2.000000,52.000000,,,,0.000000,4.000000,4.000000,4.000000,4.000000,4.000000,4.000000,4.000000,4.000000,4.000000,4.000000,4.000000,4.000000,4.000000,4.000000,100.000000,,,,,,,,,,,,,,,,,,,,,,,,,,,,,,,,,,,,,,,,,,,,,,,
1665771734.507729,1665771734.508200,84.000000,0.000000,4278.333496,4297.948730,4325.897461,4310.256348,4296.410156,4295.000000,4289.102539,4283.333496,4276.922852,4281.282227,4477.692383,4504.615234,4371.666504,4442.436035,2576.000000,2.000000,52.000000,,,,0.000000,4.000000,4.000000,4.000000,4.000000,4.000000,4.000000,4.000000,4.000000,4.000000,4.000000,4.000000,4.000000,4.000000,4.000000,100.000000,,,,,,,,,,,,,,,,,,,,,,,,,,,,,,,,,,,,,,,,,,,,,,,
1665771734.515537,1665771734.516009,85.000000,0.000000,4265.897461,4287.307617,4318.589844,4306.794922,4282.563965,4293.974121,4284.230957,4286.666504,4276.538574,4283.077148,4470.897461,4495.128418,4365.384766,4432.692383,3299.000000,2.000000,52.000000,,,,0.000000,4.000000,4.000000,4.000000,4.000000,4.000000,4.000000,4.000000,4.000000,4.000000,4.000000,4.000000,4.000000,4.000000,4.000000,100.000000,,,,,,,,,,,,,,,,,,,,,,,,,,,,,,,,,,,,,,,,,,,,,,,
1665771734.523346,1665771734.523717,86.000000,0.000000,4265.769043,4280.512695,4316.666504,4308.589844,4285.769043,4295.512695,4286.025879,4295.769043,4285.769043,4280.897461,4475.256348,4497.820313,4362.948730,4434.615234,2568.000000,2.000000,52.000000,,,,0.000000,4.000000,4.000000,4.000000,4.000000,4.000000,4.000000,4.000000,4.000000,4.000000,4.000000,4.000000,4.000000,4.000000,4.000000,100.000000,,,,,,,,,,,,,,,,,,,,,,,,,,,,,,,,,,,,,,,,,,,,,,,
1665771734.531154,1665771734.531526,87.000000,0.000000,4261.666504,4279.871582,4316.153809,4297.563965,4291.794922,4291.538574,4288.461426,4299.102539,4295.256348,4279.102539,4481.282227,4494.358887,4365.256348,4429.102539,2321.000000,2.000000,52.000000,,,,0.000000,4.000000,4.000000,4.000000,4.000000,4.000000,4.000000,4.000000,4.000000,4.000000,4.000000,4.000000,4.000000,4.000000,4.000000,100.000000,,,,,,,,,,,,,,,,,,,,,,,,,,,,,,,,,,,,,,,,,,,,,,,
1665771734.538963,1665771734.539334,88.000000,0.000000,4254.358887,4277.948730,4319.615234,4288.717773,4282.820313,4286.922852,4285.128418,4296.922852,4296.922852,4284.102539,4480.128418,4489.743652,4361.538574,4421.538574,2576.000000,2.000000,52.000000,,,,0.000000,4.000000,4.000000,4.000000,4.000000,4.000000,4.000000,4.000000,4.000000,4.000000,4.000000,4.000000,4.000000,4.000000,4.000000,100.000000,,,,,,,,,,,,,,,,,,,,,,,,,,,,,,,,,,,,,,,,,,,,,,,
1665771734.546771,1665771734.547143,89.000000,0.000000,4253.333496,4276.794922,4323.974121,4299.358887,4277.051270,4287.179688,4282.436035,4296.922852,4295.641113,4289.743652,4476.282227,4493.333496,4356.794922,4422.948730,3299.000000,2.000000,52.000000,,,,0.000000,4.000000,4.000000,4.000000,4.000000,4.000000,4.000000,4.000000,4.000000,4.000000,4.000000,4.000000,4.000000,4.000000,4.000000,100.000000,,,,,,,,,,,,,,,,,,,,,,,,,,,,,,,,,,,,,,,,,,,,,,,
1665771734.554579,1665771734.554851,90.000000,0.000000,4248.205078,4274.871582,4319.230957,4302.051270,4276.666504,4282.436035,4280.769043,4294.615234,4294.358887,4283.717773,4469.871582,4486.666504,4355.000000,4418.205078,2568.000000,2.000000,52.000000,,,,0.000000,4.000000,4.000000,4.000000,4.000000,4.000000,4.000000,4.000000,4.000000,4.000000,4.000000,4.000000,4.000000,4.000000,4.000000,100.000000,,,,,,,,,,,,,,,,,,,,,,,,,,,,,,,,,,,,,,,,,,,,,,,
1665771734.562388,1665771734.562660,91.000000,0.000000,4246.666504,4277.692383,4319.615234,4300.256348,4279.743652,4281.410156,4285.641113,4293.461426,4294.358887,4282.179688,4467.948730,4478.461426,4350.641113,4412.820313,2321.000000,2.000000,52.000000,,,,0.000000,4.000000,4.000000,4.000000,4.000000,4.000000,4.000000,4.000000,4.000000,4.000000,4.000000,4.000000,4.000000,4.000000,4.000000,100.000000,,,,,,,,,,,,,,,,,,,,,,,,,,,,,,,,,,,,,,,,,,,,,,,
1665771734.570196,1665771734.570368,92.000000,0.000000,4254.487305,4281.538574,4325.641113,4305.384766,4286.922852,4289.871582,4292.692383,4297.820313,4295.897461,4283.589844,4472.692383,4482.436035,4349.358887,4415.384766,2576.000000,2.000000,52.000000,,,,0.000000,4.000000,4.000000,4.000000,4.000000,4.000000,4.000000,4.000000,4.000000,4.000000,4.000000,4.000000,4.000000,4.000000,4.000000,100.000000,,,,,,,,,,,,,,,,,,,,,,,,,,,,,,,,,,,,,,,,,,,,,,,
1665771734.578005,1665771734.578276,93.000000,0.000000,4255.897461,4279.230957,4321.538574,4299.615234,4285.000000,4289.230957,4290.897461,4293.333496,4289.102539,4269.102539,4471.538574,4482.820313,4351.025879,4413.461426,3299.000000,2.000000,52.000000,,,,0.000000,4.000000,4.000000,4.000000,4.000000,4.000000,4.000000,4.000000,4.000000,4.000000,4.000000,4.000000,4.000000,4.000000,4.000000,100.000000,1.000000,91.666664,3.000000,4.000000,4.000000,4.000000,4.000000,4.000000,4.000000,4.000000,4.000000,4.000000,4.000000,4.000000,4.000000,4.000000,1.000000,0.377642,-0.582860,-1.473549,0.746903,1.000000,0.018867,3.369692,3.194592,12.475410,0.040210,1.000000,0.321695,56.835686,-85.133011,319.564941,1.000000,0.253563,0.118827,0.087019,0.257126,1.000000,0.357694,4.630849,-4.212045,18.216103,1.000000,0.262368,0.262368,0.000000,1.000000
1665771734.585813,1665771734.586085,94.000000,0.000000,4254.743652,4286.538574,4316.282227,4295.256348,4282.179688,4279.487305,4286.153809,4284.743652,4279.743652,4262.820313,4465.512695,4475.384766,4349.615234,4409.230957,2568.000000,2.000000,52.000000,,,,0.000000,4.000000,4.000000,4.000000,4.000000,4.000000,4.000000,4.000000,4.000000,4.000000,4.000000,4.000000,4.000000,4.000000,4.000000,100.000000,,,,,,,,,,,,,,,,,,,,,,,,,,,,,,,,,,,,,,,,,,,,,,,
1665771734.593621,1665771734.593993,95.000000,0.000000,4258.846191,4299.358887,4322.179688,4300.384766,4292.948730,4280.000000,4285.897461,4284.230957,4281.794922,4276.282227,4463.461426,4477.179688,4347.436035,4411.410156,2321.000000,2.000000,52.000000,,,,0.000000,4.000000,4.000000,4.000000,4.000000,4.000000,4.000000,4.000000,4.000000,4.000000,4.000000,4.000000,4.000000,4.000000,4.000000,100.000000,,,,,,,,,,,,,,,,,,,,,,,,,,,,,,,,,,,,,,,,,,,,,,,
1665771734.601430,1665771734.601802,96.000000,0.000000,4262.307617,4291.794922,4324.102539,4296.282227,4299.358887,4287.051270,4287.179688,4286.666504,4283.461426,4278.846191,4464.102539,4485.897461,4351.922852,4417.948730,2576.000000,2.000000,52.000000,,,,0.000000,4.000000,4.000000,4.000000,4.000000,4.000000,4.000000,4.000000,4.000000,4.000000,4.000000,4.000000,4.000000,4.000000,4.000000,100.000000,,,,,,,,,,,,,,,,,,,,,,,,,,,,,,,,,,,,,,,,,,,,,,,
1665771734.609238,1665771734.609710,97.000000,0.000000,4265.641113,4279.102539,4318.077148,4293.589844,4291.922852,4291.025879,4287.692383,4288.974121,4281.282227,4273.333496,4466.153809,4487.563965,4362.563965,4422.179688,3299.000000,2.000000,52.000000,,,,0.000000,4.000000,4.000000,4.000000,4.000000,4.000000,4.000000,4.000000,4.000000,4.000000,4.000000,4.000000,4.000000,4.000000,4.000000,100.000000,,,,,,,,,,,,,,,,,,,,,,,,,,,,,,,,,,,,,,,,,,,,,,,
1665771734.617047,1665771734.617518,98.000000,0.000000,4267.692383,4281.794922,4316.538574,4299.230957,4288.717773,4292.563965,4290.384766,4292.307617,4286.666504,4278.846191,4471.410156,4484.487305,4370.256348,4421.153809,2568.000000,2.000000,52.000000,,,,0.000000,4.000000,4.000000,4.000000,4.000000,4.000000,4.000000,4.000000,4.000000,4.000000,4.000000,4.000000,4.000000,4.000000,4.000000,100.000000,,,,,,,,,,,,,,,,,,,,,,,,,,,,,,,,,,,,,,,,,,,,,,,
1665771734.624855,1665771734.625427,99.000000,0.000000,4266.153809,4283.077148,4317.307617,4296.410156,4294.615234,4291.025879,4289.615234,4291.922852,4291.538574,4281.666504,4475.384766,4488.974121,4372.948730,4421.025879,2321.000000,2.000000,52.000000,,,,0.000000,4.000000,4.000000,4.000000,4.000000,4.000000,4.000000,4.000000,4.000000,4.000000,4.000000,4.000000,4.000000,4.000000,4.000000,100.000000,,,,,,,,,,,,,,,,,,,,,,,,,,,,,,,,,,,,,,,,,,,,,,,
1665771734.632663,1665771734.633235,100.000000,0.000000,4275.641113,4280.641113,4325.897461,4299.358887,4295.384766,4292.948730,4292.436035,4297.179688,4291.410156,4282.436035,4484.230957,4507.820313,4380.128418,4435.000000,2576.000000,2.000000,52.000000,,,,0.000000,4.000000,4.000000,4.000000,4.000000,4.000000,4.000000,4.000000,4.000000,4.000000,4.000000,4.000000,4.000000,4.000000,4.000000,100.000000,,,,,,,,,,,,,,,,,,,,,,,,,,,,,,,,,,,,,,,,,,,,,,,
1665771734.640472,1665771734.641144,101.000000,0.000000,4286.410156,4282.692383,4331.153809,4310.512695,4288.974121,4296.282227,4298.333496,4302.948730,4294.615234,4287.051270,4488.461426,4512.948730,4384.743652,4443.333496,3299.000000,2.000000,52.000000,,,,0.000000,4.000000,4.000000,4.000000,4.000000,4.000000,4.000000,4.000000,4.000000,4.000000,4.000000,4.000000,4.000000,4.000000,4.000000,100.000000,,,,,,,,,,,,,,,,,,,,,,,,,,,,,,,,,,,,,,,,,,,,,,,
1665771734.648280,1665771734.648952,102.000000,0.000000,4280.256348,4281.666504,4325.641113,4309.487305,4288.461426,4292.692383,4297.051270,4299.743652,4294.615234,4283.846191,4480.000000,4497.307617,4371.538574,4435.512695,2568.000000,2.000000,52.000000,,,,0.000000,4.000000,4.000000,4.000000,4.000000,4.000000,4.000000,4.000000,4.000000,4.000000,4.000000,4.000000,4.000000,4.000000,4.000000,100.000000,,,,,,,,,,,,,,,,,,,,,,,,,,,,,,,,,,,,,,,,,,,,,,,
1665771734.656089,1665771734.656860,103.000000,0.000000,4271.282227,4281.666504,4321.025879,4305.897461,4294.230957,4286.153809,4291.666504,4295.641113,4287.307617,4277.307617,4474.615234,4491.153809,4356.153809,4430.769043,2321.000000,2.000000,52.000000,,,,0.000000,4.000000,4.000000,4.000000,4.000000,4.000000,4.000000,4.000000,4.000000,4.000000,4.000000,4.000000,4.000000,4.000000,4.000000,100.000000,,,,,,,,,,,,,,,,,,,,,,,,,,,,,,,,,,,,,,,,,,,,,,,
1665771734.663897,1665771734.664669,104.000000,0.000000,4271.153809,4280.000000,4322.948730,4306.538574,4294.743652,4280.769043,4287.436035,4297.051270,4283.333496,4270.641113,4476.794922,4494.230957,4357.436035,4430.641113,2576.000000,2.000000,52.000000,,,,0.000000,4.000000,4.000000,4.000000,4.000000,4.000000,4.000000,4.000000,4.000000,4.000000,4.000000,4.000000,4.000000,4.000000,4.000000,100.000000,,,,,,,,,,,,,,,,,,,,,,,,,,,,,,,,,,,,,,,,,,,,,,,
1665771734.671705,1665771734.672377,105.000000,0.000000,4269.102539,4270.256348,4319.487305,4301.410156,4291.666504,4280.256348,4283.333496,4294.102539,4281.410156,4265.000000,4470.256348,4485.512695,4358.974121,4423.333496,3299.000000,2.000000,52.000000,,,,0.000000,4.000000,4.000000,4.000000,4.000000,4.000000,4.000000,4.000000,4.000000,4.000000,4.000000,4.000000,4.000000,4.000000,4.000000,100.000000,,,,,,,,,,,,,,,,,,,,,,,,,,,,,,,,,,,,,,,,,,,,,,,
1665771734.679514,1665771734.680186,106.000000,0.000000,4263.589844,4268.077148,4314.615234,4299.615234,4285.769043,4279.358887,4284.358887,4288.333496,4276.282227,4263.205078,4459.230957,4474.358887,4347.436035,4414.487305,2568.000000,2.000000,52.000000,,,,0.000000,4.000000,4.000000,4.000000,4.000000,4.000000,4.000000,4.000000,4.000000,4.000000,4.000000,4.000000,4.000000,4.000000,4.000000,100.000000,,,,,,,,,,,,,,,,,,,,,,,,,,,,,,,,,,,,,,,,,,,,,,,
1665771734.687322,1665771734.687894,107.000000,0.000000,4265.769043,4278.205078,4316.282227,4307.307617,4285.256348,4280.000000,4289.743652,4289.743652,4276.282227,4261.922852,4462.051270,4477.820313,4345.384766,4416.666504,2321.000000,2.000000,52.000000,,,,0.000000,4.000000,4.000000,4.000000,4.000000,4.000000,4.000000,4.000000,4.000000,4.000000,4.000000,4.000000,4.000000,4.000000,4.000000,100.000000,,,,,,,,,,,,,,,,,,,,,,,,,,,,,,,,,,,,,,,,,,,,,,,
1665771734.695131,1665771734.695703,108.000000,0.000000,4271.794922,4282.948730,4317.692383,4312.436035,4296.922852,4289.102539,4293.205078,4296.025879,4281.666504,4261.922852,4471.282227,4484.102539,4358.846191,4422.179688,2576.000000,2.000000,52.000000,,,,0.000000,4.000000,4.000000,4.000000,4.000000,4.000000,4.000000,4.000000,4.000000,4.000000,4.000000,4.000000,4.000000,4.000000,4.000000,100.000000,,,,,,,,,,,,,,,,,,,,,,,,,,,,,,,,,,,,,,,,,,,,,,,
1665771734.702939,1665771734.703411,109.000000,0.000000,4268.974121,4280.000000,4314.487305,4305.256348,4302.307617,4289.743652,4291.538574,4294.743652,4281.153809,4262.820313,4467.307617,4480.128418,4358.717773,4415.384766,3299.000000,2.000000,52.000000,,,,0.000000,4.000000,4.000000,4.000000,4.000000,4.000000,4.000000,4.000000,4.000000,4.000000,4.000000,4.000000,4.000000,4.000000,4.000000,100.000000,,,,,,,,,,,,,,,,,,,,,,,,,,,,,,,,,,,,,,,,,,,,,,,
1665771734.710747,1665771734.711320,110.000000,0.000000,4263.205078,4280.000000,4311.282227,4296.794922,4291.666504,4281.153809,4287.436035,4287.563965,4279.743652,4259.487305,4462.436035,4476.025879,4349.615234,4412.948730,2568.000000,2.000000,52.000000,,,,0.000000,4.000000,4.000000,4.000000,4.000000,4.000000,4.000000,4.000000,4.000000,4.000000,4.000000,4.000000,4.000000,4.000000,4.000000,100.000000,,,,,,,,,,,,,,,,,,,,,,,,,,,,,,,,,,,,,,,,,,,,,,,
1665771734.718556,1665771734.719128,111.000000,0.000000,4270.769043,4282.307617,4313.974121,4300.512695,4287.179688,4287.307617,4289.102539,4291.282227,4289.871582,4265.641113,4474.230957,4484.230957,4359.102539,4425.256348,2321.000000,2.000000,52.000000,,,,0.000000,4.000000,4.000000,4.000000,4.000000,4.000000,4.000000,4.000000,4.000000,4.000000,4.000000,4.000000,4.000000,4.000000,4.000000,100.000000,,,,,,,,,,,,,,,,,,,,,,,,,,,,,,,,,,,,,,,,,,,,,,,
1665771734.726364,1665771734.727037,112.000000,0.000000,4279.743652,4281.794922,4317.692383,4307.692383,4294.102539,4297.820313,4294.102539,4297.307617,4297.820313,4277.436035,4480.897461,4490.769043,4371.153809,4430.128418,2576.000000,2.000000,52.000000,,,,0.000000,4.000000,4.000000,4.000000,4.000000,4.000000,4.000000,4.000000,4.000000,4.000000,4.000000,4.000000,4.000000,4.000000,4.000000,100.000000,,,,,,,,,,,,,,,,,,,,,,,,,,,,,,,,,,,,,,,,,,,,,,,
1665771734.734173,1665771734.734845,113.000000,0.000000,4277.307617,4280.256348,4315.256348,4306.025879,4296.666504,4293.846191,4290.769043,4293.461426,4293.846191,4272.436035,4472.436035,4486.153809,4362.563965,4421.153809,3299.000000,2.000000,52.000000,,,,0.000000,4.000000,4.000000,4.000000,4.000000,4.000000,4.000000,4.000000,4.000000,4.000000,4.000000,4.000000,4.000000,4.000000,4.000000,100.000000,,,,,,,,,,,,,,,,,,,,,,,,,,,,,,,,,,,,,,,,,,,,,,,
1665771734.741981,1665771734.742653,114.000000,0.000000,4280.384766,4280.000000,4313.846191,4300.384766,4296.538574,4292.051270,4285.384766,4291.538574,4291.794922,4270.512695,4472.948730,4488.077148,4358.333496,4420.897461,2568.000000,2.000000,52.000000,,,,0.000000,4.000000,4.000000,4.000000,4.000000,4.000000,4.000000,4.000000,4.000000,4.000000,4.000000,4.000000,4.000000,4.000000,4.000000,100.000000,,,,,,,,,,,,,,,,,,,,,,,,,,,,,,,,,,,,,,,,,,,,,,,
1665771734.749790,1665771734.750362,115.000000,0.000000,4289.358887,4281.666504,4316.538574,4300.897461,4296.153809,4297.563965,4290.256348,4296.410156,4295.000000,4282.948730,4480.000000,4495.512695,4368.974121,4427.307617,2321.000000,2.000000,52.000000,,,,0.000000,4.000000,4.000000,4.000000,4.000000,4.000000,4.000000,4.000000,4.000000,4.000000,4.000000,4.000000,4.000000,4.000000,4.000000,100.000000,,,,,,,,,,,,,,,,,,,,,,,,,,,,,,,,,,,,,,,,,,,,,,,
1665771734.757598,1665771734.758170,116.000000,0.000000,4288.077148,4281.538574,4314.102539,4303.717773,4294.230957,4295.256348,4293.077148,4298.205078,4294.615234,4285.000000,4478.077148,4497.307617,4373.589844,4427.179688,2576.000000,2.000000,52.000000,,,,0.000000,4.000000,4.000000,4.000000,4.000000,4.000000,4.000000,4.000000,4.000000,4.000000,4.000000,4.000000,4.000000,4.000000,4.000000,100.000000,,,,,,,,,,,,,,,,,,,,,,,,,,,,,,,,,,,,,,,,,,,,,,,
1665771734.765406,1665771734.765879,117.000000,0.000000,4286.922852,4282.051270,4314.615234,4304.102539,4292.948730,4292.820313,4289.487305,4298.589844,4293.077148,4278.461426,4480.512695,4502.436035,4371.666504,4435.897461,3299.000000,2.000000,52.000000,,,,0.000000,4.000000,4.000000,4.000000,4.000000,4.000000,4.000000,4.000000,4.000000,4.000000,4.000000,4.000000,4.000000,4.000000,4.000000,100.000000,,,,,,,,,,,,,,,,,,,,,,,,,,,,,,,,,,,,,,,,,,,,,,,
1665771734.773215,1665771734.773687,118.000000,0.000000,4294.230957,4285.769043,4320.000000,4306.794922,4295.512695,4295.512695,4291.153809,4299.102539,4291.794922,4280.384766,4484.487305,4508.461426,4372.051270,4442.948730,2568.000000,2.000000,52.000000,,,,0.000000,4.000000,4.000000,4.000000,4.000000,4.000000,4.000000,4.000000,4.000000,4.000000,4.000000,4.000000,4.000000,4.000000,4.000000,100.000000,,,,,,,,,,,,,,,,,,,,,,,,,,,,,,,,,,,,,,,,,,,,,,,
1665771734.781023,1665771734.781396,119.000000,0.000000,4297.307617,4289.743652,4324.358887,4313.589844,4294.487305,4296.538574,4297.179688,4298.974121,4288.077148,4281.410156,4478.846191,4505.000000,4367.307617,4434.230957,2321.000000,2.000000,52.000000,,,,0.000000,4.000000,4.000000,4.000000,4.000000,4.000000,4.000000,4.000000,4.000000,4.000000,4.000000,4.000000,4.000000,4.000000,4.000000,100.000000,,,,,,,,,,,,,,,,,,,,,,,,,,,,,,,,,,,,,,,,,,,,,,,
1665771734.788832,1665771734.789304,120.000000,0.000000,4293.333496,4291.922852,4324.615234,4315.769043,4295.384766,4295.512695,4297.820313,4296.794922,4286.538574,4276.153809,4476.282227,4499.358887,4363.846191,4424.230957,2576.000000,2.000000,52.000000,,,,0.000000,4.000000,4.000000,4.000000,4.000000,4.000000,4.000000,4.000000,4.000000,4.000000,4.000000,4.000000,4.000000,4.000000,4.000000,100.000000,,,,,,,,,,,,,,,,,,,,,,,,,,,,,,,,,,,,,,,,,,,,,,,
1665771734.796640,1665771734.797113,121.000000,0.000000,4291.666504,4293.461426,4321.794922,4308.974121,4307.820313,4296.666504,4296.410156,4299.102539,4289.743652,4276.410156,4481.794922,4496.538574,4374.743652,4429.487305,3299.000000,2.000000,52.000000,,,,0.000000,4.000000,4.000000,4.000000,4.000000,4.000000,4.000000,4.000000,4.000000,4.000000,4.000000,4.000000,4.000000,4.000000,4.000000,100.000000,,,,,,,,,,,,,,,,,,,,,,,,,,,,,,,,,,,,,,,,,,,,,,,
1665771734.804448,1665771734.805021,122.000000,0.000000,4291.282227,4293.461426,4316.025879,4304.615234,4315.769043,4295.256348,4292.307617,4299.615234,4292.563965,4278.461426,4482.563965,4491.538574,4380.000000,4429.871582,2568.000000,2.000000,52.000000,,,,0.000000,4.000000,4.000000,4.000000,4.000000,4.000000,4.000000,4.000000,4.000000,4.000000,4.000000,4.000000,4.000000,4.000000,4.000000,100.000000,,,,,,,,,,,,,,,,,,,,,,,,,,,,,,,,,,,,,,,,,,,,,,,
1665771734.812257,1665771734.812830,123.000000,0.000000,4297.436035,4295.128418,4318.589844,4311.153809,4311.666504,4293.589844,4295.384766,4299.615234,4294.487305,4278.846191,4482.948730,4494.102539,4374.487305,4423.717773,2321.000000,2.000000,52.000000,,,,0.000000,4.000000,4.000000,4.000000,4.000000,4.000000,4.000000,4.000000,4.000000,4.000000,4.000000,4.000000,4.000000,4.000000,4.000000,100.000000,,,,,,,,,,,,,,,,,,,,,,,,,,,,,,,,,,,,,,,,,,,,,,,
1665771734.820065,1665771734.820738,124.000000,0.000000,4302.436035,4297.820313,4323.846191,4312.948730,4311.153809,4296.025879,4302.692383,4302.948730,4296.282227,4279.743652,4486.282227,4501.538574,4372.307617,4426.153809,2576.000000,2.000000,52.000000,,,,0.000000,4.000000,4.000000,4.000000,4.000000,4.000000,4.000000,4.000000,4.000000,4.000000,4.000000,4.000000,4.000000,4.000000,4.000000,100.000000,,,,,,,,,,,,,,,,,,,,,,,,,,,,,,,,,,,,,,,,,,,,,,,
1665771734.827874,1665771734.828546,125.000000,0.000000,4297.692383,4294.743652,4317.563965,4305.512695,4312.307617,4296.410156,4297.948730,4302.179688,4295.641113,4279.487305,4481.538574,4497.051270,4368.077148,4425.384766,3299.000000,2.000000,52.000000,,,,0.000000,4.000000,4.000000,4.000000,4.000000,4.000000,4.000000,4.000000,4.000000,4.000000,4.000000,4.000000,4.000000,4.000000,4.000000,100.000000,,,,,,,,,,,,,,,,,,,,,,,,,,,,,,,,,,,,,,,,,,,,,,,
1665771734.835682,1665771734.836455,126.000000,0.000000,4292.948730,4289.102539,4308.846191,4306.153809,4307.820313,4293.333496,4293.461426,4298.717773,4293.974121,4276.153809,4471.666504,4484.615234,4358.077148,4414.871582,2568.000000,2.000000,52.000000,,,,0.000000,4.000000,4.000000,4.000000,4.000000,4.000000,4.000000,4.000000,4.000000,4.000000,4.000000,4.000000,4.000000,4.000000,4.000000,100.000000,,,,,,,,,,,,,,,,,,,,,,,,,,,,,,,,,,,,,,,,,,,,,,,
1665771734.843490,1665771734.844363,127.000000,0.000000,4297.179688,4286.922852,4306.538574,4304.615234,4308.846191,4294.871582,4299.871582,4298.333496,4294.615234,4272.563965,4467.179688,4478.205078,4354.615234,4407.179688,52.000000,2.000000,52.000000,,,,0.000000,4.000000,4.000000,4.000000,4.000000,4.000000,4.000000,4.000000,4.000000,4.000000,4.000000,4.000000,4.000000,4.000000,4.000000,100.000000,,,,,,,,,,,,,,,,,,,,,,,,,,,,,,,,,,,,,,,,,,,,,,,
1665771734.851299,1665771734.852171,0.000000,0.000000,4303.333496,4283.846191,4309.358887,4295.256348,4308.205078,4297.820313,4301.153809,4299.487305,4295.128418,4269.230957,4472.051270,4484.743652,4360.384766,4413.333496,1910.000000,2.000000,52.000000,,,,0.000000,4.000000,4.000000,4.000000,4.000000,4.000000,4.000000,4.000000,4.000000,4.000000,4.000000,4.000000,4.000000,4.000000,4.000000,100.000000,,,,,,,,,,,,,,,,,,,,,,,,,,,,,,,,,,,,,,,,,,,,,,,
1665771734.859107,1665771734.859980,1.000000,0.000000,4304.102539,4280.000000,4311.794922,4292.820313,4296.025879,4294.487305,4293.846191,4295.256348,4293.589844,4265.128418,4477.179688,4493.333496,4363.205078,4421.025879,2020.000000,2.000000,52.000000,,,,0.000000,4.000000,4.000000,4.000000,4.000000,4.000000,4.000000,4.000000,4.000000,4.000000,4.000000,4.000000,4.000000,4.000000,4.000000,100.000000,,,,,,,,,,,,,,,,,,,,,,,,,,,,,,,,,,,,,,,,,,,,,,,
1665771734.866916,1665771734.867688,2.000000,0.000000,4303.333496,4278.077148,4307.948730,4295.256348,4292.307617,4291.410156,4293.461426,4292.436035,4290.256348,4263.974121,4472.948730,4489.230957,4364.358887,4416.153809,2284.000000,2.000000,52.000000,,,,0.000000,4.000000,4.000000,4.000000,4.000000,4.000000,4.000000,4.000000,4.000000,4.000000,4.000000,4.000000,4.000000,4.000000,4.000000,100.000000,,,,,,,,,,,,,,,,,,,,,,,,,,,,,,,,,,,,,,,,,,,,,,,
1665771734.874724,1665771734.875497,3.000000,0.000000,4307.692383,4279.871582,4300.384766,4293.589844,4299.871582,4294.102539,4295.256348,4293.461426,4290.384766,4267.307617,4467.563965,4483.846191,4365.256348,4412.692383,2326.000000,2.000000,52.000000,,,,0.000000,4.000000,4.000000,4.000000,4.000000,4.000000,4.000000,4.000000,4.000000,4.000000,4.000000,4.000000,4.000000,4.000000,4.000000,100.000000,,,,,,,,,,,,,,,,,,,,,,,,,,,,,,,,,,,,,,,,,,,,,,,
1665771734.882532,1665771734.883205,4.000000,0.000000,4316.153809,4287.051270,4304.743652,4295.641113,4300.384766,4296.666504,4296.025879,4298.461426,4294.230957,4272.563965,4472.563965,4494.871582,4364.102539,4423.461426,2398.000000,2.000000,52.000000,,,,0.000000,4.000000,4.000000,4.000000,4.000000,4.000000,4.000000,4.000000,4.000000,4.000000,4.000000,4.000000,4.000000,4.000000,4.000000,100.000000,,,,,,,,,,,,,,,,,,,,,,,,,,,,,,,,,,,,,,,,,,,,,,,
1665771734.890341,1665771734.891014,5.000000,0.000000,4318.974121,4292.051270,4310.512695,4301.153809,4296.922852,4296.794922,4296.666504,4301.410156,4295.897461,4275.512695,4481.025879,4500.641113,4371.410156,4427.179688,2317.000000,2.000000,52.000000,,,,0.000000,4.000000,4.000000,4.000000,4.000000,4.000000,4.000000,4.000000,4.000000,4.000000,4.000000,4.000000,4.000000,4.000000,4.000000,100.000000,,,,,,,,,,,,,,,,,,,,,,,,,,,,,,,,,,,,,,,,,,,,,,,
1665771734.898149,1665771734.898722,6.000000,0.000000,4320.256348,4291.282227,4313.205078,4301.410156,4302.692383,4296.153809,4296.922852,4302.307617,4294.230957,4279.487305,4484.743652,4496.538574,4380.769043,4423.846191,2097.000000,2.000000,52.000000,,,,0.000000,4.000000,4.000000,4.000000,4.000000,4.000000,4.000000,4.000000,4.000000,4.000000,4.000000,4.000000,4.000000,4.000000,4.000000,100.000000,,,,,,,,,,,,,,,,,,,,,,,,,,,,,,,,,,,,,,,,,,,,,,,
1665771734.905958,1665771734.906531,7.000000,0.000000,4327.563965,4291.282227,4316.666504,4301.922852,4309.871582,4296.025879,4297.051270,4305.769043,4295.897461,4287.179688,4484.743652,4499.487305,4378.333496,4428.205078,2029.000000,2.000000,52.000000,,,,0.000000,4.000000,4.000000,4.000000,4.000000,4.000000,4.000000,4.000000,4.000000,4.000000,4.000000,4.000000,4.000000,4.000000,4.000000,100.000000,,,,,,,,,,,,,,,,,,,,,,,,,,,,,,,,,,,,,,,,,,,,,,,
1665771734.913766,1665771734.914239,8.000000,0.000000,4327.436035,4291.922852,4317.820313,4303.461426,4304.487305,4295.128418,4297.948730,4307.179688,4297.563965,4288.589844,4481.922852,4498.461426,4369.743652,4428.846191,2256.000000,2.000000,52.000000,,,,0.000000,4.000000,4.000000,4.000000,4.000000,4.000000,4.000000,4.000000,4.000000,4.000000,4.000000,4.000000,4.000000,4.000000,4.000000,100.000000,,,,,,,,,,,,,,,,,,,,,,,,,,,,,,,,,,,,,,,,,,,,,,,
1665771734.921574,1665771734.922048,9.000000,0.000000,4315.512695,4287.179688,4313.461426,4302.051270,4297.563965,4294.102539,4295.641113,4298.846191,4287.307617,4276.025879,4475.897461,4481.922852,4365.000000,4413.589844,2398.000000,2.000000,52.000000,,,,0.000000,4.000000,4.000000,4.000000,4.000000,4.000000,4.000000,4.000000,4.000000,4.000000,4.000000,4.000000,4.000000,4.000000,4.000000,100.000000,,,,,,,,,,,,,,,,,,,,,,,,,,,,,,,,,,,,,,,,,,,,,,,
1665771734.929383,1665771734.929756,10.000000,0.000000,4312.820313,4289.487305,4312.436035,4302.820313,4305.000000,4293.589844,4296.538574,4291.794922,4278.077148,4266.025879,4475.384766,4474.615234,4362.948730,4406.025879,2550.000000,2.000000,52.000000,,,,0.000000,4.000000,4.000000,4.000000,4.000000,4.000000,4.000000,4.000000,4.000000,4.000000,4.000000,4.000000,4.000000,4.000000,4.000000,100.000000,,,,,,,,,,,,,,,,,,,,,,,,,,,,,,,,,,,,,,,,,,,,,,,
1665771734.937191,1665771734.937565,11.000000,0.000000,4323.205078,4301.666504,4315.897461,4307.563965,4314.230957,4297.307617,4301.538574,4296.410156,4283.077148,4262.820313,4478.461426,4484.358887,4361.410156,4415.256348,2334.000000,2.000000,52.000000,,,,0.000000,4.000000,4.000000,4.000000,4.000000,4.000000,4.000000,4.000000,4.000000,4.000000,4.000000,4.000000,4.000000,4.000000,4.000000,100.000000,,,,,,,,,,,,,,,,,,,,,,,,,,,,,,,,,,,,,,,,,,,,,,,
1665771734.945000,1665771734.945273,12.000000,0.000000,4328.461426,4303.974121,4321.282227,4310.512695,4312.820313,4305.897461,4301.282227,4302.563965,4288.974121,4263.589844,4483.589844,4494.615234,4368.846191,4425.897461,2583.000000,2.000000,52.000000,,,,0.000000,4.000000,4.000000,4.000000,4.000000,4.000000,4.000000,4.000000,4.000000,4.000000,4.000000,4.000000,4.000000,4.000000,4.000000,100.000000,,,,,,,,,,,,,,,,,,,,,,,,,,,,,,,,,,,,,,,,,,,,,,,
1665771734.952808,1665771734.953082,13.000000,0.000000,4328.846191,4297.051270,4325.641113,4305.128418,4307.820313,4306.153809,4299.358887,4303.589844,4290.512695,4273.077148,4487.051270,4500.256348,4377.436035,4433.461426,3298.000000,2.000000,52.000000,,,,0.000000,4.000000,4.000000,4.000000,4.000000,4.000000,4.000000,4.000000,4.000000,4.000000,4.000000,4.000000,4.000000,4.000000,4.000000,100.000000,,,,,,,,,,,,,,,,,,,,,,,,,,,,,,,,,,,,,,,,,,,,,,,
1665771734.960616,1665771734.960790,14.000000,0.000000,4332.948730,4296.282227,4322.692383,4302.179688,4309.230957,4299.615234,4302.692383,4302.948730,4293.846191,4279.487305,4487.051270,4502.436035,4378.717773,4437.051270,2550.000000,2.000000,52.000000,,,,0.000000,4.000000,4.000000,4.000000,4.000000,4.000000,4.000000,4.000000,4.000000,4.000000,4.000000,4.000000,4.000000,4.000000,4.000000,100.000000,,,,,,,,,,,,,,,,,,,,,,,,,,,,,,,,,,,,,,,,,,,,,,,
1665771734.968425,1665771734.968599,15.000000,0.000000,4333.717773,4297.307617,4315.384766,4306.538574,4310.641113,4295.384766,4302.692383,4303.205078,4295.641113,4275.128418,4485.128418,4500.256348,4376.794922,4433.205078,2334.000000,2.000000,52.000000,,,,0.000000,4.000000,4.000000,4.000000,4.000000,4.000000,4.000000,4.000000,4.000000,4.000000,4.000000,4.000000,4.000000,4.000000,4.000000,100.000000,,,,,,,,,,,,,,,,,,,,,,,,,,,,,,,,,,,,,,,,,,,,,,,
1665771734.976233,1665771734.976307,16.000000,0.000000,4330.512695,4292.948730,4314.615234,4309.487305,4307.436035,4294.487305,4296.153809,4301.794922,4294.743652,4275.128418,4482.436035,4498.461426,4376.282227,4431.025879,0.000000,2.000000,52.000000,,,,0.000000,4.000000,4.000000,4.000000,4.000000,4.000000,4.000000,4.000000,4.000000,4.000000,4.000000,4.000000,4.000000,4.000000,4.000000,100.000000,,,,,,,,,,,,,,,,,,,,,,,,,,,,,,,,,,,,,,,,,,,,,,,
1665771734.984042,1665771734.984216,17.000000,0.000000,4334.743652,4294.487305,4322.563965,4310.512695,4309.871582,4303.846191,4301.025879,4304.743652,4300.256348,4282.051270,4486.410156,4505.512695,4377.307617,4440.128418,0.000000,2.000000,52.000000,,,,0.000000,4.000000,4.000000,4.000000,4.000000,4.000000,4.000000,4.000000,4.000000,4.000000,4.000000,4.000000,4.000000,4.000000,4.000000,100.000000,,,,,,,,,,,,,,,,,,,,,,,,,,,,,,,,,,,,,,,,,,,,,,,
1665771734.991850,1665771734.992024,18.000000,0.000000,4336.410156,4296.025879,4317.692383,4304.102539,4315.769043,4310.128418,4305.256348,4301.666504,4300.769043,4281.922852,4481.794922,4502.563965,4371.666504,4432.692383,0.000000,2.000000,52.000000,,,,0.000000,4.000000,4.000000,4.000000,4.000000,4.000000,4.000000,4.000000,4.000000,4.000000,4.000000,4.000000,4.000000,4.000000,4.000000,100.000000,,,,,,,,,,,,,,,,,,,,,,,,,,,,,,,,,,,,,,,,,,,,,,,
1665771734.999658,1665771734.999933,19.000000,0.000000,4328.205078,4289.230957,4304.230957,4297.563965,4306.794922,4300.769043,4298.974121,4293.077148,4292.179688,4276.282227,4471.153809,4487.692383,4364.487305,4413.589844,0.000000,2.000000,52.000000,,,,0.000000,4.000000,4.000000,4.000000,4.000000,4.000000,4.000000,4.000000,4.000000,4.000000,4.000000,4.000000,4.000000,4.000000,4.000000,100.000000,,,,,,,,,,,,,,,,,,,,,,,,,,,,,,,,,,,,,,,,,,,,,,,
1665771735.007467,1665771735.007741,20.000000,0.000000,4326.922852,4289.615234,4304.487305,4303.974121,4301.025879,4299.230957,4300.384766,4296.410156,4292.948730,4277.179688,4473.461426,4486.922852,4365.384766,4416.410156,0.000000,2.000000,52.000000,,,,0.000000,4.000000,4.000000,4.000000,4.000000,4.000000,4.000000,4.000000,4.000000,4.000000,4.000000,4.000000,4.000000,4.000000,4.000000,100.000000,,,,,,,,,,,,,,,,,,,,,,,,,,,,,,,,,,,,,,,,,,,,,,,
1665771735.015275,1665771735.015649,21.000000,0.000000,4333.205078,4295.384766,4311.153809,4313.846191,4316.410156,4314.743652,4308.846191,4306.538574,4298.717773,4282.692383,4482.820313,4493.333496,4371.153809,4426.410156,0.000000,2.000000,52.000000,,,,0.000000,4.000000,4.000000,4.000000,4.000000,4.000000,4.000000,4.000000,4.000000,4.000000,4.000000,4.000000,4.000000,4.000000,4.000000,100.000000,,,,,,,,,,,,,,,,,,,,,,,,,,,,,,,,,,,,,,,,,,,,,,,
1665771735.023084,1665771735.023458,22.000000,0.000000,4335.512695,4297.820313,4306.153809,4312.051270,4321.538574,4317.051270,4307.307617,4303.974121,4294.358887,4283.589844,4480.769043,4488.589844,4370.897461,4422.820313,0.000000,2.000000,52.000000,,,,0.000000,4.000000,4.000000,4.000000,4.000000,4.000000,4.000000,4.000000,4.000000,4.000000,4.000000,4.000000,4.000000,4.000000,4.000000,100.000000,,,,,,,,,,,,,,,,,,,,,,,,,,,,,,,,,,,,,,,,,,,,,,,
1665771735.030892,1665771735.031366,23.000000,0.000000,4332.563965,4292.820313,4300.384766,4308.077148,4307.051270,4302.436035,4299.871582,4296.025879,4285.769043,4276.666504,4473.077148,4481.794922,4363.717773,4421.282227,0.000000,2.000000,52.000000,,,,0.000000,4.000000,4.000000,4.000000,4.000000,4.000000,4.000000,4.000000,4.000000,4.000000,4.000000,4.000000,4.000000,4.000000,4.000000,100.000000,,,,,,,,,,,,,,,,,,,,,,,,,,,,,,,,,,,,,,,,,,,,,,,
1665771735.038700,1665771735.039175,24.000000,0.000000,4329.487305,4285.384766,4298.589844,4303.461426,4309.358887,4296.922852,4295.769043,4297.051270,4288.205078,4274.102539,4474.743652,4484.743652,4364.743652,4426.025879,0.000000,2.000000,52.000000,,,,0.000000,4.000000,4.000000,4.000000,4.000000,4.000000,4.000000,4.000000,4.000000,4.000000,4.000000,4.000000,4.000000,4.000000,4.000000,100.000000,,,,,,,,,,,,,,,,,,,,,,,,,,,,,,,,,,,,,,,,,,,,,,,
1665771735.046509,1665771735.047083,25.000000,0.000000,4330.512695,4285.512695,4297.820313,4297.179688,4319.230957,4298.077148,4295.128418,4301.922852,4293.589844,4277.563965,4475.512695,4488.589844,4369.871582,4430.000000,0.000000,2.000000,52.000000,,,,0.000000,4.000000,4.000000,4.000000,4.000000,4.000000,4.000000,4.000000,4.000000,4.000000,4.000000,4.000000,4.000000,4.000000,4.000000,100.000000,,,,,,,,,,,,,,,,,,,,,,,,,,,,,,,,,,,,,,,,,,,,,,,
1665771735.054317,1665771735.054891,26.000000,0.000000,4331.025879,4291.794922,4301.538574,4297.436035,4313.205078,4296.410156,4295.384766,4300.512695,4289.615234,4280.897461,4475.384766,4486.794922,4368.846191,4429.743652,0.000000,2.000000,52.000000,,,,0.000000,4.000000,4.000000,4.000000,4.000000,4.000000,4.000000,4.000000,4.000000,4.000000,4.000000,4.000000,4.000000,4.000000,4.000000,100.000000,,,,,,,,,,,,,,,,,,,,,,,,,,,,,,,,,,,,,,,,,,,,,,,
1665771735.062126,1665771735.062600,27.000000,0.000000,4331.410156,4295.000000,4306.538574,4301.410156,4305.641113,4293.077148,4295.256348,4298.717773,4288.205078,4276.025879,4479.102539,4485.512695,4365.769043,4427.692383,0.000000,2.000000,52.000000,,,,0.000000,4.000000,4.000000,4.000000,4.000000,4.000000,4.000000,4.000000,4.000000,4.000000,4.000000,4.000000,4.000000,4.000000,4.000000,100.000000,,,,,,,,,,,,,,,,,,,,,,,,,,,,,,,,,,,,,,,,,,,,,,,
1665771735.069934,1665771735.070408,28.000000,0.000000,4343.333496,4294.871582,4303.974121,4300.769043,4305.512695,4291.282227,4293.333496,4298.974121,4291.794922,4267.948730,4480.512695,4486.794922,4364.743652,4428.077148,0.000000,2.000000,52.000000,,,,0.000000,4.000000,4.000000,4.000000,4.000000,4.000000,4.000000,4.000000,4.000000,4.000000,4.000000,4.000000,4.000000,4.000000,4.000000,100.000000,,,,,,,,,,,,,,,,,,,,,,,,,,,,,,,,,,,,,,,,,,,,,,,
1665771735.077742,1665771735.078117,29.000000,0.000000,4361.666504,4295.384766,4301.025879,4298.461426,4308.461426,4292.692383,4293.205078,4297.307617,4293.077148,4270.256348,4474.615234,4485.769043,4362.436035,4429.743652,0.000000,2.000000,52.000000,,,,0.000000,4.000000,4.000000,4.000000,4.000000,4.000000,4.000000,4.000000,4.000000,4.000000,4.000000,4.000000,4.000000,4.000000,4.000000,100.000000,1.000000,100.000000,4.000000,4.000000,4.000000,4.000000,4.000000,4.000000,4.000000,4.000000,4.000000,4.000000,4.000000,4.000000,4.000000,4.000000,1.000000,0.374921,-0.744242,-1.473624,0.746844,1.000000,0.002002,3.213167,3.194592,12.475410,0.038895,1.000000,0.316285,54.810581,-85.132942,319.537537,1.000000,0.257776,0.130899,0.087024,0.257109,1.000000,0.356304,4.283294,-4.212584,18.215109,1.000000,0.256996,0.256996,0.000000,1.000000
1665771735.085551,1665771735.085925,30.000000,0.000000,4367.692383,4295.769043,4305.384766,4297.563965,4313.717773,4295.128418,4297.179688,4298.717773,4293.461426,4278.589844,4470.512695,4484.102539,4360.256348,4426.922852,0.000000,2.000000,52.000000,,,,0.000000,4.000000,4.000000,4.000000,4.000000,4.000000,4.000000,4.000000,4.000000,4.000000,4.000000,4.000000,4.000000,4.000000,4.000000,100.000000,,,,,,,,,,,,,,,,,,,,,,,,,,,,,,,,,,,,,,,,,,,,,,,
1665771735.093359,1665771735.093634,31.000000,0.000000,4364.358887,4299.743652,4308.717773,4299.871582,4310.641113,4297.563965,4302.307617,4302.948730,4295.897461,4281.410156,4480.641113,4491.666504,4367.563965,4425.769043,0.000000,2.000000,52.000000,,,,0.000000,4.000000,4.000000,4.000000,4.000000,4.000000,4.000000,4.000000,4.000000,4.000000,4.000000,4.000000,4.000000,4.000000,4.000000,100.000000,,,,,,,,,,,,,,,,,,,,,,,,,,,,,,,,,,,,,,,,,,,,,,,
1665771735.101168,1665771735.101442,32.000000,0.000000,4366.153809,4300.000000,4307.436035,4304.871582,4299.358887,4296.922852,4301.025879,4303.205078,4297.692383,4280.000000,4488.077148,4498.717773,4377.692383,4431.282227,0.000000,2.000000,52.000000,,,,0.000000,4.000000,4.000000,4.000000,4.000000,4.000000,4.000000,4.000000,4.000000,4.000000,4.000000,4.000000,4.000000,4.000000,4.000000,100.000000,,,,,,,,,,,,,,,,,,,,,,,,,,,,,,,,,,,,,,,,,,,,,,,
1665771735.108976,1665771735.109151,33.000000,0.000000,4375.769043,4300.512695,4309.487305,4305.512695,4301.666504,4296.666504,4295.769043,4298.333496,4296.025879,4284.487305,4485.384766,4497.436035,4380.128418,4439.102539,0.000000,2.000000,52.000000,,,,0.000000,4.000000,4.000000,4.000000,4.000000,4.000000,4.000000,4.000000,4.000000,4.000000,4.000000,4.000000,4.000000,4.000000,4.000000,100.000000,,,,,,,,,,,,,,,,,,,,,,,,,,,,,,,,,,,,,,,,,,,,,,,
1665771735.116784,1665771735.116959,34.000000,0.000000,4386.282227,4308.461426,4315.769043,4306.153809,4311.153809,4295.384766,4296.153809,4296.922852,4294.487305,4288.205078,4485.128418,4501.410156,4380.000000,4445.769043,0.000000,2.000000,52.000000,,,,0.000000,4.000000,4.000000,4.000000,4.000000,4.000000,4.000000,4.000000,4.000000,4.000000,4.000000,4.000000,4.000000,4.000000,4.000000,100.000000,,,,,,,,,,,,,,,,,,,,,,,,,,,,,,,,,,,,,,,,,,,,,,,
1665771735.124593,1665771735.124668,35.000000,0.000000,4383.461426,4307.692383,4313.846191,4306.025879,4308.846191,4295.000000,4297.051270,4298.077148,4294.743652,4287.563965,4487.948730,4508.846191,4381.666504,4445.641113,0.000000,2.000000,52.000000,,,,0.000000,4.000000,4.000000,4.000000,4.000000,4.000000,4.000000,4.000000,4.000000,4.000000,4.000000,4.000000,4.000000,4.000000,4.000000,100.000000,,,,,,,,,,,,,,,,,,,,,,,,,,,,,,,,,,,,,,,,,,,,,,,
1665771735.132401,1665771735.132476,36.000000,0.000000,4371.538574,4300.769043,4310.384766,4299.743652,4307.692383,4300.128418,4298.974121,4302.307617,4295.641113,4291.153809,4488.589844,4511.538574,4384.230957,4445.384766,0.000000,2.000000,52.000000,,,,0.000000,4.000000,4.000000,4.000000,4.000000,4.000000,4.000000,4.000000,4.000000,4.000000,4.000000,4.000000,4.000000,4.000000,4.000000,100.000000,,,,,,,,,,,,,,,,,,,,,,,,,,,,,,,,,,,,,,,,,,,,,,,
1665771735.140210,1665771735.140185,37.000000,0.000000,4364.358887,4302.179688,4310.769043,4296.922852,4308.974121,4301.666504,4299.358887,4303.717773,4297.436035,4292.307617,4485.897461,4508.846191,4381.025879,4441.794922,0.000000,2.000000,52.000000,,,,0.000000,4.000000,4.000000,4.000000,4.000000,4.000000,4.000000,4.000000,4.000000,4.000000,4.000000,4.000000,4.000000,4.000000,4.000000,100.000000,,,,,,,,,,,,,,,,,,,,,,,,,,,,,,,,,,,,,,,,,,,,,,,
1665771735.148018,1665771735.148093,38.000000,0.000000,4355.641113,4297.948730,4307.051270,4297.948730,4303.589844,4295.897461,4294.230957,4298.974121,4295.641113,4284.615234,4480.128418,4500.000000,4367.948730,4429.871582,0.000000,2.000000,52.000000,,,,0.000000,4.000000,4.000000,4.000000,4.000000,4.000000,4.000000,4.000000,4.000000,4.000000,4.000000,4.000000,4.000000,4.000000,4.000000,100.000000,,,,,,,,,,,,,,,,,,,,,,,,,,,,,,,,,,,,,,,,,,,,,,,
1665771735.155826,1665771735.155902,39.000000,0.000000,4340.384766,4284.358887,4297.051270,4292.436035,4306.538574,4293.846191,4289.358887,4293.717773,4288.717773,4280.000000,4470.128418,4485.897461,4356.794922,4417.820313,0.000000,2.000000,52.000000,,,,0.000000,4.000000,4.000000,4.000000,4.000000,4.000000,4.000000,4.000000,4.000000,4.000000,4.000000,4.000000,4.000000,4.000000,4.000000,100.000000,,,,,,,,,,,,,,,,,,,,,,,,,,,,,,,,,,,,,,,,,,,,,,,
1665771735.163635,1665771735.163810,40.000000,0.000000,4331.794922,4280.384766,4294.871582,4287.948730,4310.128418,4295.384766,4289.743652,4296.153809,4282.948730,4280.512695,4467.051270,4480.256348,4356.538574,4415.512695,0.000000,2.000000,52.000000,,,,0.000000,4.000000,4.000000,4.000000,4.000000,4.000000,4.000000,4.000000,4.000000,4.000000,4.000000,4.000000,4.000000,4.000000,4.000000,100.000000,,,,,,,,,,,,,,,,,,,,,,,,,,,,,,,,,,,,,,,,,,,,,,,
1665771735.171443,1665771735.171619,41.000000,0.000000,4331.025879,4284.743652,4295.512695,4293.333496,4300.256348,4295.000000,4290.384766,4299.102539,4283.974121,4276.666504,4471.153809,4482.436035,4358.077148,4413.846191,0.000000,2.000000,52.000000,,,,0.000000,4.000000,4.000000,4.000000,4.000000,4.000000,4.000000,4.000000,4.000000,4.000000,4.000000,4.000000,4.000000,4.000000,4.000000,100.000000,,,,,,,,,,,,,,,,,,,,,,,,,,,,,,,,,,,,,,,,,,,,,,,
1665771735.179252,1665771735.179527,42.000000,0.000000,4331.794922,4285.641113,4295.512695,4296.794922,4298.846191,4295.384766,4292.820313,4298.717773,4285.384766,4276.153809,4470.256348,4480.384766,4351.538574,4411.538574,0.000000,2.000000,52.000000,,,,0.000000,4.000000,4.000000,4.000000,4.000000,4.000000,4.000000,4.000000,4.000000,4.000000,4.000000,4.000000,4.000000,4.000000,4.000000,100.000000,,,,,,,,,,,,,,,,,,,,,,,,,,,,,,,,,,,,,,,,,,,,,,,
1665771735.187060,1665771735.187335,43.000000,0.000000,4331.666504,4285.641113,4297.179688,4293.333496,4310.769043,4296.794922,4295.000000,4301.025879,4285.128418,4280.641113,4466.410156,4478.205078,4348.461426,4412.948730,0.000000,2.000000,52.000000,,,,0.000000,4.000000,4.000000,4.000000,4.000000,4.000000,4.000000,4.000000,4.000000,4.000000,4.000000,4.000000,4.000000,4.000000,4.000000,100.000000,,,,,,,,,,,,,,,,,,,,,,,,,,,,,,,,,,,,,,,,,,,,,,,
1665771735.194868,1665771735.195244,44.000000,0.000000,4333.333496,4290.128418,4300.256348,4292.436035,4317.820313,4297.436035,4296.922852,4303.717773,4290.769043,4278.974121,4471.538574,4482.948730,4355.641113,4415.769043,0.000000,2.000000,52.000000,,,,0.000000,4.000000,4.000000,4.000000,4.000000,4.000000,4.000000,4.000000,4.000000,4.000000,4.000000,4.000000,4.000000,4.000000,4.000000,100.000000,,,,,,,,,,,,,,,,,,,,,,,,,,,,,,,,,,,,,,,,,,,,,,,
1665771735.202677,1665771735.203052,45.000000,0.000000,4332.051270,4295.897461,4302.820313,4297.563965,4313.846191,4297.307617,4302.436035,4304.615234,4294.871582,4276.922852,4479.743652,4488.461426,4358.974121,4415.897461,0.000000,2.000000,52.000000,,,,0.000000,4.000000,4.000000,4.000000,4.000000,4.000000,4.000000,4.000000,4.000000,4.000000,4.000000,4.000000,4.000000,4.000000,4.000000,100.000000,,,,,,,,,,,,,,,,,,,,,,,,,,,,,,,,,,,,,,,,,,,,,,,
1665771735.210485,1665771735.210960,46.000000,0.000000,4335.256348,4296.153809,4307.436035,4302.051270,4302.179688,4293.846191,4304.615234,4303.589844,4293.205078,4279.102539,4482.820313,4491.666504,4360.000000,4416.025879,0.000000,2.000000,52.000000,,,,0.000000,4.000000,4.000000,4.000000,4.000000,4.000000,4.000000,4.000000,4.000000,4.000000,4.000000,4.000000,4.000000,4.000000,4.000000,100.000000,,,,,,,,,,,,,,,,,,,,,,,,,,,,,,,,,,,,,,,,,,,,,,,
1665771735.218294,1665771735.218769,47.000000,0.000000,4341.794922,4294.487305,4307.179688,4295.256348,4296.922852,4291.666504,4299.487305,4300.128418,4294.358887,4279.487305,4483.846191,4493.333496,4369.102539,4421.025879,0.000000,2.000000,52.000000,,,,0.000000,4.000000,4.000000,4.000000,4.000000,4.000000,4.000000,4.000000,4.000000,4.000000,4.000000,4.000000,4.000000,4.000000,4.000000,100.000000,,,,,,,,,,,,,,,,,,,,,,,,,,,,,,,,,,,,,,,,,,,,,,,
1665771735.226102,1665771735.226677,48.000000,0.000000,4337.051270,4294.615234,4296.666504,4286.025879,4300.384766,4293.077148,4293.333496,4292.692383,4294.871582,4274.230957,4477.307617,4485.384766,4372.307617,4418.205078,0.000000,2.000000,52.000000,,,,0.000000,4.000000,4.000000,4.000000,4.000000,4.000000,4.000000,4.000000,4.000000,4.000000,4.000000,4.000000,4.000000,4.000000,4.000000,100.000000,,,,,,,,,,,,,,,,,,,,,,,,,,,,,,,,,,,,,,,,,,,,,,,
1665771735.233910,1665771735.234486,49.000000,0.000000,4331.538574,4293.333496,4292.820313,4287.436035,4297.820313,4293.589844,4294.487305,4292.563965,4291.666504,4272.307617,4469.102539,4481.538574,4362.563965,4413.205078,0.000000,2.000000,52.000000,,,,0.000000,4.000000,4.000000,4.000000,4.000000,4.000000,4.000000,4.000000,4.000000,4.000000,4.000000,4.000000,4.000000,4.000000,4.000000,100.000000,,,,,,,,,,,,,,,,,,,,,,,,,,,,,,,,,,,,,,,,,,,,,,,
1665771735.241719,1665771735.242394,50.000000,0.000000,4336.794922,4290.384766,4295.897461,4287.948730,4295.256348,4293.461426,4301.410156,4298.974121,4291.282227,4276.922852,4471.025879,4493.077148,4360.128418,4419.358887,0.000000,2.000000,52.000000,,,,0.000000,4.000000,4.000000,4.000000,4.000000,4.000000,4.000000,4.000000,4.000000,4.000000,4.000000,4.000000,4.000000,4.000000,4.000000,100.000000,,,,,,,,,,,,,,,,,,,,,,,,,,,,,,,,,,,,,,,,,,,,,,,
1665771735.249527,1665771735.250202,51.000000,0.000000,4344.102539,4293.974121,4299.871582,4287.692383,4303.846191,4301.025879,4308.461426,4304.743652,4301.666504,4284.102539,4483.974121,4505.256348,4374.743652,4430.256348,0.000000,2.000000,52.000000,,,,0.000000,4.000000,4.000000,4.000000,4.000000,4.000000,4.000000,4.000000,4.000000,4.000000,4.000000,4.000000,4.000000,4.000000,4.000000,100.000000,,,,,,,,,,,,,,,,,,,,,,,,,,,,,,,,,,,,,,,,,,,,,,,
1665771735.257336,1665771735.257911,52.000000,0.000000,4347.307617,4298.589844,4303.333496,4294.743652,4310.256348,4311.025879,4307.051270,4307.948730,4308.461426,4290.512695,4490.000000,4509.230957,4386.410156,4433.333496,0.000000,2.000000,52.000000,,,,0.000000,4.000000,4.000000,4.000000,4.000000,4.000000,4.000000,4.000000,4.000000,4.000000,4.000000,4.000000,4.000000,4.000000,4.000000,100.000000,,,,,,,,,,,,,,,,,,,,,,,,,,,,,,,,,,,,,,,,,,,,,,,
1665771735.265144,1665771735.265719,53.000000,0.000000,4350.000000,4297.051270,4303.717773,4299.615234,4302.051270,4306.922852,4301.666504,4308.846191,4300.256348,4294.871582,4481.538574,4506.794922,4380.769043,4430.000000,0.000000,2.000000,52.000000,,,,0.000000,4.000000,4.000000,4.000000,4.000000,4.000000,4.000000,4.000000,4.000000,4.000000,4.000000,4.000000,4.000000,4.000000,4.000000,100.000000,,,,,,,,,,,,,,,,,,,,,,,,,,,,,,,,,,,,,,,,,,,,,,,
1665771735.272952,1665771735.273428,54.000000,0.000000,4349.615234,4292.948730,4298.589844,4293.974121,4292.948730,4292.436035,4297.051270,4305.256348,4293.717773,4295.641113,4472.307617,4501.153809,4367.692383,4426.153809,0.000000,2.000000,52.000000,,,,0.000000,4.000000,4.000000,4.000000,4.000000,4.000000,4.000000,4.000000,4.000000,4.000000,4.000000,4.000000,4.000000,4.000000,4.000000,100.000000,,,,,,,,,,,,,,,,,,,,,,,,,,,,,,,,,,,,,,,,,,,,,,,
1665771735.280761,1665771735.281336,55.000000,0.000000,4352.179688,4292.436035,4299.102539,4288.717773,4302.692383,4291.410156,4295.512695,4301.282227,4294.615234,4288.974121,4475.128418,4499.358887,4367.820313,4425.769043,0.000000,2.000000,52.000000,,,,0.000000,4.000000,4.000000,4.000000,4.000000,4.000000,4.000000,4.000000,4.000000,4.000000,4.000000,4.000000,4.000000,4.000000,4.000000,100.000000,,,,,,,,,,,,,,,,,,,,,,,,,,,,,,,,,,,,,,,,,,,,,,,
