title:Psychopy_Celo_Earphones_Blinking, start timestamp:1665779402.976695, stop timestamp:1665779463.983739, headset type:EPOCX, headset serial:E2020A42, headset firmware:720, channels:86, sampling rate:eeg_128;pm_2, samples:7814      , version:2.1, 
Timestamp,OriginalTimestamp,EEG.Counter,EEG.Interpolated,EEG.AF3,EEG.F7,EEG.F3,EEG.FC5,EEG.T7,EEG.P7,EEG.O1,EEG.O2,EEG.P8,EEG.T8,EEG.FC6,EEG.F4,EEG.F8,EEG.AF4,EEG.RawCq,EEG.Battery,EEG.BatteryPercent,MarkerIndex,MarkerType,MarkerValueInt,EEG.MarkerHardware,CQ.AF3,CQ.F7,CQ.F3,CQ.FC5,CQ.T7,CQ.P7,CQ.O1,CQ.O2,CQ.P8,CQ.T8,CQ.FC6,CQ.F4,CQ.F8,CQ.AF4,CQ.Overall,EQ.SampleRateQuality,EQ.OVERALL,EQ.AF3,EQ.F7,EQ.F3,EQ.FC5,EQ.T7,EQ.P7,EQ.O1,EQ.O2,EQ.P8,EQ.T8,EQ.FC6,EQ.F4,EQ.F8,EQ.AF4,PM.Engagement.IsActive,PM.Engagement.Scaled,PM.Engagement.Raw,PM.Engagement.Min,PM.Engagement.Max,PM.Excitement.IsActive,PM.Excitement.Scaled,PM.Excitement.Raw,PM.Excitement.Min,PM.Excitement.Max,PM.LongTermExcitement,PM.Stress.IsActive,PM.Stress.Scaled,PM.Stress.Raw,PM.Stress.Min,PM.Stress.Max,PM.Relaxation.IsActive,PM.Relaxation.Scaled,PM.Relaxation.Raw,PM.Relaxation.Min,PM.Relaxation.Max,PM.Interest.IsActive,PM.Interest.Scaled,PM.Interest.Raw,PM.Interest.Min,PM.Interest.Max,PM.Focus.IsActive,PM.Focus.Scaled,PM.Focus.Raw,PM.Focus.Min,PM.Focus.Max
1665779402.976695,1665779402.977172,104.000000,0.000000,4242.563965,4281.922852,4296.153809,4298.974121,4291.794922,4286.794922,4276.794922,4287.563965,4280.512695,4252.692383,4477.948730,4479.487305,4367.948730,4402.307617,2763.000000,2.000000,52.000000,,,,0.000000,4.000000,4.000000,4.000000,4.000000,4.000000,4.000000,4.000000,4.000000,4.000000,4.000000,4.000000,4.000000,4.000000,4.000000,100.000000,,,,,,,,,,,,,,,,,,,,,,,,,,,,,,,,,,,,,,,,,,,,,,,
1665779402.984503,1665779402.984881,105.000000,0.000000,4239.743652,4284.102539,4292.179688,4299.102539,4290.641113,4282.820313,4272.307617,4277.436035,4276.410156,4246.153809,4472.307617,4468.461426,4364.871582,4402.051270,3336.000000,2.000000,52.000000,,,,0.000000,4.000000,4.000000,4.000000,4.000000,4.000000,4.000000,4.000000,4.000000,4.000000,4.000000,4.000000,4.000000,4.000000,4.000000,100.000000,,,,,,,,,,,,,,,,,,,,,,,,,,,,,,,,,,,,,,,,,,,,,,,
1665779402.992312,1665779402.992689,106.000000,0.000000,4240.897461,4293.717773,4293.077148,4276.666504,4281.922852,4295.384766,4278.846191,4280.769043,4271.410156,4247.436035,4466.666504,4475.769043,4359.615234,4414.358887,2553.000000,2.000000,52.000000,,,,0.000000,4.000000,4.000000,4.000000,4.000000,4.000000,4.000000,4.000000,4.000000,4.000000,4.000000,4.000000,4.000000,4.000000,4.000000,100.000000,,,,,,,,,,,,,,,,,,,,,,,,,,,,,,,,,,,,,,,,,,,,,,,
1665779403.000120,1665779403.000398,107.000000,0.000000,4243.589844,4279.743652,4305.769043,4292.692383,4277.820313,4296.794922,4280.641113,4285.384766,4269.743652,4246.538574,4473.974121,4483.333496,4354.102539,4413.846191,2585.000000,2.000000,52.000000,,,,0.000000,4.000000,4.000000,4.000000,4.000000,4.000000,4.000000,4.000000,4.000000,4.000000,4.000000,4.000000,4.000000,4.000000,4.000000,100.000000,,,,,,,,,,,,,,,,,,,,,,,,,,,,,,,,,,,,,,,,,,,,,,,
1665779403.007928,1665779403.008206,108.000000,0.000000,4228.333496,4270.512695,4299.871582,4312.820313,4289.871582,4284.102539,4273.461426,4283.974121,4273.077148,4240.384766,4476.794922,4476.666504,4355.384766,4406.794922,2763.000000,2.000000,52.000000,,,,0.000000,4.000000,4.000000,4.000000,4.000000,4.000000,4.000000,4.000000,4.000000,4.000000,4.000000,4.000000,4.000000,4.000000,4.000000,100.000000,,,,,,,,,,,,,,,,,,,,,,,,,,,,,,,,,,,,,,,,,,,,,,,
1665779403.015737,1665779403.015915,109.000000,0.000000,4208.846191,4282.948730,4282.948730,4297.692383,4298.077148,4281.282227,4273.077148,4286.666504,4277.692383,4236.922852,4465.769043,4474.102539,4359.487305,4405.128418,3336.000000,2.000000,52.000000,,,,0.000000,4.000000,4.000000,4.000000,4.000000,4.000000,4.000000,4.000000,4.000000,4.000000,4.000000,4.000000,4.000000,4.000000,4.000000,100.000000,,,,,,,,,,,,,,,,,,,,,,,,,,,,,,,,,,,,,,,,,,,,,,,
1665779403.023545,1665779403.023723,110.000000,0.000000,4211.153809,4289.743652,4286.922852,4288.205078,4291.794922,4287.051270,4278.974121,4295.256348,4279.487305,4234.871582,4457.051270,4470.256348,4353.077148,4400.256348,2553.000000,2.000000,52.000000,,,,0.000000,4.000000,4.000000,4.000000,4.000000,4.000000,4.000000,4.000000,4.000000,4.000000,4.000000,4.000000,4.000000,4.000000,4.000000,100.000000,,,,,,,,,,,,,,,,,,,,,,,,,,,,,,,,,,,,,,,,,,,,,,,
1665779403.031354,1665779403.031432,111.000000,0.000000,4218.461426,4279.871582,4298.846191,4295.256348,4288.717773,4291.922852,4284.487305,4297.436035,4282.436035,4240.384766,4461.666504,4460.000000,4347.179688,4397.051270,2585.000000,2.000000,52.000000,,,,0.000000,4.000000,4.000000,4.000000,4.000000,4.000000,4.000000,4.000000,4.000000,4.000000,4.000000,4.000000,4.000000,4.000000,4.000000,100.000000,,,,,,,,,,,,,,,,,,,,,,,,,,,,,,,,,,,,,,,,,,,,,,,
1665779403.039162,1665779403.039240,112.000000,0.000000,4212.436035,4276.282227,4294.102539,4298.717773,4296.538574,4297.563965,4286.794922,4293.589844,4284.358887,4243.205078,4463.333496,4459.358887,4353.077148,4400.128418,2763.000000,2.000000,52.000000,,,,0.000000,4.000000,4.000000,4.000000,4.000000,4.000000,4.000000,4.000000,4.000000,4.000000,4.000000,4.000000,4.000000,4.000000,4.000000,100.000000,,,,,,,,,,,,,,,,,,,,,,,,,,,,,,,,,,,,,,,,,,,,,,,
1665779403.046970,1665779403.046949,113.000000,0.000000,4209.615234,4282.436035,4283.461426,4290.256348,4292.051270,4297.948730,4285.128418,4290.000000,4281.538574,4236.666504,4447.563965,4467.820313,4357.692383,4402.563965,3336.000000,2.000000,52.000000,,,,0.000000,4.000000,4.000000,4.000000,4.000000,4.000000,4.000000,4.000000,4.000000,4.000000,4.000000,4.000000,4.000000,4.000000,4.000000,100.000000,,,,,,,,,,,,,,,,,,,,,,,,,,,,,,,,,,,,,,,,,,,,,,,
1665779403.054779,1665779403.054857,114.000000,0.000000,4208.077148,4280.641113,4279.615234,4272.820313,4281.410156,4289.102539,4276.538574,4282.948730,4278.974121,4235.000000,4442.307617,4464.102539,4350.641113,4403.333496,2553.000000,2.000000,52.000000,,,,0.000000,4.000000,4.000000,4.000000,4.000000,4.000000,4.000000,4.000000,4.000000,4.000000,4.000000,4.000000,4.000000,4.000000,4.000000,100.000000,,,,,,,,,,,,,,,,,,,,,,,,,,,,,,,,,,,,,,,,,,,,,,,
1665779403.062587,1665779403.062666,115.000000,0.000000,4198.333496,4266.794922,4272.179688,4275.256348,4285.769043,4281.410156,4265.641113,4278.974121,4278.333496,4243.461426,4466.153809,4453.333496,4345.384766,4402.051270,2585.000000,2.000000,52.000000,,,,0.000000,4.000000,4.000000,4.000000,4.000000,4.000000,4.000000,4.000000,4.000000,4.000000,4.000000,4.000000,4.000000,4.000000,4.000000,100.000000,,,,,,,,,,,,,,,,,,,,,,,,,,,,,,,,,,,,,,,,,,,,,,,
1665779403.070396,1665779403.070574,116.000000,0.000000,4189.230957,4264.230957,4263.205078,4298.461426,4290.256348,4280.897461,4265.256348,4288.333496,4280.384766,4249.230957,4480.000000,4457.948730,4355.128418,4399.102539,2763.000000,2.000000,52.000000,,,,0.000000,4.000000,4.000000,4.000000,4.000000,4.000000,4.000000,4.000000,4.000000,4.000000,4.000000,4.000000,4.000000,4.000000,4.000000,100.000000,,,,,,,,,,,,,,,,,,,,,,,,,,,,,,,,,,,,,,,,,,,,,,,
1665779403.078204,1665779403.078382,117.000000,0.000000,4192.948730,4275.769043,4270.000000,4293.846191,4286.794922,4283.333496,4272.948730,4296.794922,4284.487305,4249.487305,4471.794922,4469.743652,4367.051270,4398.205078,3336.000000,2.000000,52.000000,,,,0.000000,4.000000,4.000000,4.000000,4.000000,4.000000,4.000000,4.000000,4.000000,4.000000,4.000000,4.000000,4.000000,4.000000,4.000000,100.000000,,,,,,,,,,,,,,,,,,,,,,,,,,,,,,,,,,,,,,,,,,,,,,,
1665779403.086012,1665779403.086291,118.000000,0.000000,4209.102539,4280.769043,4290.000000,4276.794922,4290.000000,4291.410156,4279.230957,4294.615234,4291.794922,4250.769043,4474.230957,4473.077148,4368.717773,4403.846191,2553.000000,2.000000,52.000000,,,,0.000000,4.000000,4.000000,4.000000,4.000000,4.000000,4.000000,4.000000,4.000000,4.000000,4.000000,4.000000,4.000000,4.000000,4.000000,100.000000,,,,,,,,,,,,,,,,,,,,,,,,,,,,,,,,,,,,,,,,,,,,,,,
1665779403.093821,1665779403.094099,119.000000,0.000000,4213.846191,4282.436035,4293.461426,4291.282227,4300.128418,4297.820313,4283.205078,4295.384766,4296.282227,4252.051270,4480.641113,4476.153809,4368.461426,4409.230957,2585.000000,2.000000,52.000000,,,,0.000000,4.000000,4.000000,4.000000,4.000000,4.000000,4.000000,4.000000,4.000000,4.000000,4.000000,4.000000,4.000000,4.000000,4.000000,100.000000,,,,,,,,,,,,,,,,,,,,,,,,,,,,,,,,,,,,,,,,,,,,,,,
1665779403.101629,1665779403.102007,120.000000,0.000000,4203.589844,4283.205078,4278.333496,4301.794922,4295.256348,4297.692383,4279.487305,4297.307617,4290.000000,4249.230957,4472.563965,4481.025879,4372.563965,4408.461426,2763.000000,2.000000,52.000000,,,,0.000000,4.000000,4.000000,4.000000,4.000000,4.000000,4.000000,4.000000,4.000000,4.000000,4.000000,4.000000,4.000000,4.000000,4.000000,100.000000,,,,,,,,,,,,,,,,,,,,,,,,,,,,,,,,,,,,,,,,,,,,,,,
1665779403.109438,1665779403.109816,121.000000,0.000000,4199.743652,4271.410156,4272.692383,4282.179688,4280.897461,4295.256348,4269.230957,4286.025879,4278.589844,4237.692383,4462.179688,4471.666504,4362.179688,4399.358887,3336.000000,2.000000,52.000000,,,,0.000000,4.000000,4.000000,4.000000,4.000000,4.000000,4.000000,4.000000,4.000000,4.000000,4.000000,4.000000,4.000000,4.000000,4.000000,100.000000,,,,,,,,,,,,,,,,,,,,,,,,,,,,,,,,,,,,,,,,,,,,,,,
1665779403.117246,1665779403.117724,122.000000,0.000000,4204.743652,4261.282227,4282.051270,4277.051270,4281.153809,4296.922852,4271.282227,4280.128418,4274.615234,4225.897461,4450.512695,4461.922852,4341.794922,4393.461426,2553.000000,2.000000,52.000000,,,,0.000000,4.000000,4.000000,4.000000,4.000000,4.000000,4.000000,4.000000,4.000000,4.000000,4.000000,4.000000,4.000000,4.000000,4.000000,100.000000,,,,,,,,,,,,,,,,,,,,,,,,,,,,,,,,,,,,,,,,,,,,,,,
1665779403.125054,1665779403.125533,123.000000,0.000000,4205.256348,4270.000000,4288.589844,4296.794922,4293.846191,4302.563965,4286.538574,4295.384766,4282.179688,4228.077148,4449.102539,4471.922852,4345.512695,4402.051270,2585.000000,2.000000,52.000000,,,,0.000000,4.000000,4.000000,4.000000,4.000000,4.000000,4.000000,4.000000,4.000000,4.000000,4.000000,4.000000,4.000000,4.000000,4.000000,100.000000,,,,,,,,,,,,,,,,,,,,,,,,,,,,,,,,,,,,,,,,,,,,,,,
1665779403.132863,1665779403.133241,124.000000,0.000000,4209.487305,4285.769043,4291.282227,4303.717773,4300.256348,4303.205078,4291.410156,4308.974121,4290.384766,4237.307617,4470.897461,4482.820313,4363.589844,4413.589844,2763.000000,2.000000,52.000000,,,,0.000000,4.000000,4.000000,4.000000,4.000000,4.000000,4.000000,4.000000,4.000000,4.000000,4.000000,4.000000,4.000000,4.000000,4.000000,100.000000,,,,,,,,,,,,,,,,,,,,,,,,,,,,,,,,,,,,,,,,,,,,,,,
1665779403.140671,1665779403.141050,125.000000,0.000000,4213.974121,4293.717773,4297.051270,4297.179688,4294.615234,4297.563965,4285.641113,4304.102539,4291.922852,4238.846191,4485.641113,4477.307617,4368.589844,4413.461426,3336.000000,2.000000,52.000000,,,,0.000000,4.000000,4.000000,4.000000,4.000000,4.000000,4.000000,4.000000,4.000000,4.000000,4.000000,4.000000,4.000000,4.000000,4.000000,100.000000,,,,,,,,,,,,,,,,,,,,,,,,,,,,,,,,,,,,,,,,,,,,,,,
1665779403.148480,1665779403.148758,126.000000,0.000000,4211.794922,4294.230957,4295.897461,4296.538574,4293.333496,4295.000000,4284.102539,4296.410156,4290.897461,4231.282227,4468.077148,4473.461426,4363.589844,4403.974121,2553.000000,2.000000,52.000000,,,,0.000000,4.000000,4.000000,4.000000,4.000000,4.000000,4.000000,4.000000,4.000000,4.000000,4.000000,4.000000,4.000000,4.000000,4.000000,100.000000,,,,,,,,,,,,,,,,,,,,,,,,,,,,,,,,,,,,,,,,,,,,,,,
1665779403.156288,1665779403.156567,127.000000,0.000000,4216.025879,4295.641113,4290.769043,4293.461426,4299.102539,4300.256348,4285.256348,4295.897461,4291.282227,4227.948730,4456.922852,4478.205078,4364.230957,4406.282227,52.000000,2.000000,52.000000,,,,0.000000,4.000000,4.000000,4.000000,4.000000,4.000000,4.000000,4.000000,4.000000,4.000000,4.000000,4.000000,4.000000,4.000000,4.000000,100.000000,,,,,,,,,,,,,,,,,,,,,,,,,,,,,,,,,,,,,,,,,,,,,,,
1665779403.164096,1665779403.164275,0.000000,0.000000,4218.333496,4297.307617,4292.436035,4294.871582,4305.512695,4303.077148,4281.922852,4296.153809,4287.948730,4232.051270,4467.436035,4477.051270,4366.666504,4419.871582,2229.000000,2.000000,52.000000,,,,0.000000,4.000000,4.000000,4.000000,4.000000,4.000000,4.000000,4.000000,4.000000,4.000000,4.000000,4.000000,4.000000,4.000000,4.000000,100.000000,,,,,,,,,,,,,,,,,,,,,,,,,,,,,,,,,,,,,,,,,,,,,,,
1665779403.171905,1665779403.172084,1.000000,0.000000,4208.974121,4292.948730,4291.025879,4306.922852,4303.461426,4301.922852,4278.974121,4294.358887,4280.128418,4232.692383,4470.512695,4471.410156,4362.948730,4421.794922,1935.000000,2.000000,52.000000,,,,0.000000,4.000000,4.000000,4.000000,4.000000,4.000000,4.000000,4.000000,4.000000,4.000000,4.000000,4.000000,4.000000,4.000000,4.000000,100.000000,,,,,,,,,,,,,,,,,,,,,,,,,,,,,,,,,,,,,,,,,,,,,,,
1665779403.179713,1665779403.179792,2.000000,0.000000,4206.282227,4289.871582,4292.179688,4305.000000,4295.256348,4306.410156,4285.897461,4296.153809,4284.358887,4230.769043,4470.769043,4476.666504,4366.666504,4414.615234,2082.000000,2.000000,52.000000,,,,0.000000,4.000000,4.000000,4.000000,4.000000,4.000000,4.000000,4.000000,4.000000,4.000000,4.000000,4.000000,4.000000,4.000000,4.000000,100.000000,,,,,,,,,,,,,,,,,,,,,,,,,,,,,,,,,,,,,,,,,,,,,,,
1665779403.187522,1665779403.187701,3.000000,0.000000,4214.102539,4294.102539,4304.230957,4293.333496,4300.000000,4311.666504,4297.563965,4303.589844,4295.128418,4232.307617,4479.102539,4489.871582,4379.871582,4418.205078,2289.000000,2.000000,52.000000,,,,0.000000,4.000000,4.000000,4.000000,4.000000,4.000000,4.000000,4.000000,4.000000,4.000000,4.000000,4.000000,4.000000,4.000000,4.000000,100.000000,,,,,,,,,,,,,,,,,,,,,,,,,,,,,,,,,,,,,,,,,,,,,,,
1665779403.195330,1665779403.195509,4.000000,0.000000,4220.512695,4295.384766,4310.128418,4295.384766,4312.051270,4310.384766,4295.897461,4302.820313,4295.384766,4232.179688,4477.307617,4491.282227,4384.871582,4426.410156,2231.000000,2.000000,52.000000,,,,0.000000,4.000000,4.000000,4.000000,4.000000,4.000000,4.000000,4.000000,4.000000,4.000000,4.000000,4.000000,4.000000,4.000000,4.000000,100.000000,,,,,,,,,,,,,,,,,,,,,,,,,,,,,,,,,,,,,,,,,,,,,,,
1665779403.203138,1665779403.203417,5.000000,0.000000,4224.487305,4292.307617,4304.358887,4297.179688,4309.615234,4307.948730,4288.589844,4295.641113,4294.230957,4232.820313,4477.179688,4489.102539,4380.128418,4428.974121,2309.000000,2.000000,52.000000,,,,0.000000,4.000000,4.000000,4.000000,4.000000,4.000000,4.000000,4.000000,4.000000,4.000000,4.000000,4.000000,4.000000,4.000000,4.000000,100.000000,1.000000,75.000000,4.000000,4.000000,4.000000,4.000000,4.000000,4.000000,4.000000,4.000000,4.000000,1.000000,4.000000,4.000000,4.000000,4.000000,1.000000,0.571703,-0.278675,-1.287067,0.128114,1.000000,0.277333,4.134304,2.105992,9.419629,0.445472,1.000000,0.264394,42.634930,-32.517227,221.934891,1.000000,0.231777,0.138256,0.069132,0.365049,1.000000,0.456058,6.122386,-6.292900,17.872841,1.000000,0.481296,0.481296,0.000000,1.000000
1665779403.210947,1665779403.211226,6.000000,0.000000,4215.384766,4287.179688,4293.077148,4293.589844,4296.922852,4311.153809,4293.205078,4297.563965,4300.512695,4234.615234,4488.333496,4495.256348,4382.307617,4427.436035,2209.000000,2.000000,52.000000,,,,0.000000,4.000000,4.000000,4.000000,4.000000,4.000000,4.000000,4.000000,4.000000,4.000000,4.000000,4.000000,4.000000,4.000000,4.000000,100.000000,,,,,,,,,,,,,,,,,,,,,,,,,,,,,,,,,,,,,,,,,,,,,,,
1665779403.218755,1665779403.219134,7.000000,0.000000,4195.769043,4275.128418,4280.000000,4291.282227,4293.846191,4308.846191,4295.897461,4297.948730,4298.077148,4229.871582,4489.102539,4491.794922,4383.077148,4420.384766,2326.000000,2.000000,52.000000,,,,0.000000,4.000000,4.000000,4.000000,4.000000,4.000000,4.000000,4.000000,4.000000,4.000000,4.000000,4.000000,4.000000,4.000000,4.000000,100.000000,,,,,,,,,,,,,,,,,,,,,,,,,,,,,,,,,,,,,,,,,,,,,,,
1665779403.226564,1665779403.226943,8.000000,0.000000,4197.436035,4268.077148,4282.179688,4281.025879,4296.410156,4303.846191,4286.025879,4294.871582,4290.256348,4227.692383,4479.615234,4486.282227,4373.077148,4420.256348,2159.000000,2.000000,52.000000,,,,0.000000,4.000000,4.000000,4.000000,4.000000,4.000000,4.000000,4.000000,4.000000,4.000000,4.000000,4.000000,4.000000,4.000000,4.000000,100.000000,,,,,,,,,,,,,,,,,,,,,,,,,,,,,,,,,,,,,,,,,,,,,,,
1665779403.234372,1665779403.234751,9.000000,0.000000,4215.769043,4271.538574,4302.948730,4277.179688,4295.128418,4312.179688,4287.051270,4304.230957,4295.897461,4230.384766,4474.743652,4494.102539,4370.769043,4427.948730,2292.000000,2.000000,52.000000,,,,0.000000,4.000000,4.000000,4.000000,4.000000,4.000000,4.000000,4.000000,4.000000,4.000000,4.000000,4.000000,4.000000,4.000000,4.000000,100.000000,,,,,,,,,,,,,,,,,,,,,,,,,,,,,,,,,,,,,,,,,,,,,,,
1665779403.242180,1665779403.242460,10.000000,0.000000,4213.589844,4282.051270,4306.025879,4296.025879,4303.333496,4318.589844,4297.692383,4308.205078,4298.205078,4227.051270,4481.922852,4494.487305,4379.871582,4430.000000,2523.000000,2.000000,52.000000,,,,0.000000,4.000000,4.000000,4.000000,4.000000,4.000000,4.000000,4.000000,4.000000,4.000000,4.000000,4.000000,4.000000,4.000000,4.000000,100.000000,,,,,,,,,,,,,,,,,,,,,,,,,,,,,,,,,,,,,,,,,,,,,,,
1665779403.249989,1665779403.250368,11.000000,0.000000,4206.538574,4294.743652,4293.205078,4313.717773,4315.769043,4311.282227,4296.794922,4299.871582,4290.769043,4223.333496,4490.128418,4487.051270,4382.820313,4424.358887,2570.000000,2.000000,52.000000,,,,0.000000,4.000000,4.000000,4.000000,4.000000,4.000000,4.000000,4.000000,4.000000,4.000000,4.000000,4.000000,4.000000,4.000000,4.000000,100.000000,,,,,,,,,,,,,,,,,,,,,,,,,,,,,,,,,,,,,,,,,,,,,,,
1665779403.257797,1665779403.258176,12.000000,0.000000,4217.179688,4292.692383,4293.333496,4302.436035,4308.333496,4307.436035,4291.282227,4303.589844,4296.666504,4229.102539,4485.384766,4491.025879,4378.974121,4422.051270,2750.000000,2.000000,52.000000,,,,0.000000,4.000000,4.000000,4.000000,4.000000,4.000000,4.000000,4.000000,4.000000,4.000000,4.000000,4.000000,4.000000,4.000000,4.000000,100.000000,,,,,,,,,,,,,,,,,,,,,,,,,,,,,,,,,,,,,,,,,,,,,,,
1665779403.265606,1665779403.266085,13.000000,0.000000,4224.230957,4279.487305,4296.410156,4290.641113,4294.487305,4310.897461,4295.000000,4310.897461,4306.282227,4234.102539,4483.333496,4497.436035,4378.589844,4427.948730,3308.000000,2.000000,52.000000,,,,0.000000,4.000000,4.000000,4.000000,4.000000,4.000000,4.000000,4.000000,4.000000,4.000000,4.000000,4.000000,4.000000,4.000000,4.000000,100.000000,,,,,,,,,,,,,,,,,,,,,,,,,,,,,,,,,,,,,,,,,,,,,,,
1665779403.273414,1665779403.273893,14.000000,0.000000,4221.538574,4277.692383,4294.743652,4300.256348,4294.230957,4310.000000,4295.769043,4308.846191,4301.153809,4230.897461,4491.538574,4493.205078,4376.410156,4432.179688,2523.000000,2.000000,52.000000,,,,0.000000,4.000000,4.000000,4.000000,4.000000,4.000000,4.000000,4.000000,4.000000,4.000000,4.000000,4.000000,4.000000,4.000000,4.000000,100.000000,,,,,,,,,,,,,,,,,,,,,,,,,,,,,,,,,,,,,,,,,,,,,,,
1665779403.281222,1665779403.281802,15.000000,0.000000,4228.077148,4283.205078,4294.358887,4304.743652,4297.307617,4305.256348,4284.871582,4302.948730,4294.102539,4231.025879,4491.922852,4490.769043,4371.666504,4429.230957,2570.000000,2.000000,52.000000,,,,0.000000,4.000000,4.000000,4.000000,4.000000,4.000000,4.000000,4.000000,4.000000,4.000000,4.000000,4.000000,4.000000,4.000000,4.000000,100.000000,,,,,,,,,,,,,,,,,,,,,,,,,,,,,,,,,,,,,,,,,,,,,,,
1665779403.289031,1665779403.289610,16.000000,0.000000,4240.000000,4284.230957,4295.512695,4293.974121,4293.974121,4302.948730,4280.128418,4299.487305,4294.871582,4235.512695,4485.641113,4495.641113,4376.794922,4429.871582,0.000000,2.000000,52.000000,,,,0.000000,4.000000,4.000000,4.000000,4.000000,4.000000,4.000000,4.000000,4.000000,4.000000,4.000000,4.000000,4.000000,4.000000,4.000000,100.000000,,,,,,,,,,,,,,,,,,,,,,,,,,,,,,,,,,,,,,,,,,,,,,,
1665779403.296839,1665779403.297518,17.000000,0.000000,4244.487305,4289.358887,4294.358887,4291.794922,4289.487305,4304.230957,4288.846191,4304.358887,4295.384766,4235.897461,4490.256348,4496.410156,4382.179688,4434.615234,0.000000,2.000000,52.000000,,,,0.000000,4.000000,4.000000,4.000000,4.000000,4.000000,4.000000,4.000000,4.000000,4.000000,4.000000,4.000000,4.000000,4.000000,4.000000,100.000000,,,,,,,,,,,,,,,,,,,,,,,,,,,,,,,,,,,,,,,,,,,,,,,
1665779403.304648,1665779403.305327,18.000000,0.000000,4253.461426,4301.666504,4301.282227,4311.666504,4296.538574,4307.051270,4296.666504,4310.384766,4293.333496,4233.717773,4494.358887,4490.641113,4376.153809,4431.666504,0.000000,2.000000,52.000000,,,,0.000000,4.000000,4.000000,4.000000,4.000000,4.000000,4.000000,4.000000,4.000000,4.000000,4.000000,4.000000,4.000000,4.000000,4.000000,100.000000,,,,,,,,,,,,,,,,,,,,,,,,,,,,,,,,,,,,,,,,,,,,,,,
1665779403.312456,1665779403.313235,19.000000,0.000000,4274.102539,4307.820313,4310.512695,4311.153809,4311.153809,4306.666504,4297.563965,4309.358887,4292.307617,4232.692383,4494.230957,4486.666504,4373.717773,4429.615234,0.000000,2.000000,52.000000,,,,0.000000,4.000000,4.000000,4.000000,4.000000,4.000000,4.000000,4.000000,4.000000,4.000000,4.000000,4.000000,4.000000,4.000000,4.000000,100.000000,,,,,,,,,,,,,,,,,,,,,,,,,,,,,,,,,,,,,,,,,,,,,,,
1665779403.320265,1665779403.321044,20.000000,0.000000,4288.974121,4300.897461,4312.307617,4287.692383,4308.077148,4301.025879,4295.897461,4307.436035,4293.717773,4231.153809,4490.512695,4494.102539,4383.589844,4436.794922,0.000000,2.000000,52.000000,,,,0.000000,4.000000,4.000000,4.000000,4.000000,4.000000,4.000000,4.000000,4.000000,4.000000,4.000000,4.000000,4.000000,4.000000,4.000000,100.000000,,,,,,,,,,,,,,,,,,,,,,,,,,,,,,,,,,,,,,,,,,,,,,,
1665779403.328073,1665779403.328752,21.000000,0.000000,4290.897461,4290.641113,4313.077148,4298.205078,4292.563965,4298.974121,4289.230957,4303.333496,4296.282227,4231.666504,4487.563965,4508.589844,4387.436035,4444.230957,0.000000,2.000000,52.000000,,,,0.000000,4.000000,4.000000,4.000000,4.000000,4.000000,4.000000,4.000000,4.000000,4.000000,4.000000,4.000000,4.000000,4.000000,4.000000,100.000000,,,,,,,,,,,,,,,,,,,,,,,,,,,,,,,,,,,,,,,,,,,,,,,
1665779403.335881,1665779403.336561,22.000000,0.000000,4295.641113,4294.615234,4311.410156,4327.563965,4293.333496,4301.282227,4280.256348,4296.153809,4296.282227,4235.128418,4492.436035,4511.538574,4382.563965,4443.589844,0.000000,2.000000,52.000000,,,,0.000000,4.000000,4.000000,4.000000,4.000000,4.000000,4.000000,4.000000,4.000000,4.000000,4.000000,4.000000,4.000000,4.000000,4.000000,100.000000,,,,,,,,,,,,,,,,,,,,,,,,,,,,,,,,,,,,,,,,,,,,,,,
1665779403.343690,1665779403.344269,23.000000,0.000000,4303.077148,4300.384766,4306.153809,4314.871582,4301.794922,4303.077148,4278.974121,4297.563965,4295.897461,4235.512695,4494.358887,4504.102539,4386.282227,4442.692383,0.000000,2.000000,52.000000,,,,0.000000,4.000000,4.000000,4.000000,4.000000,4.000000,4.000000,4.000000,4.000000,4.000000,4.000000,4.000000,4.000000,4.000000,4.000000,100.000000,,,,,,,,,,,,,,,,,,,,,,,,,,,,,,,,,,,,,,,,,,,,,,,
1665779403.351498,1665779403.352078,24.000000,0.000000,4297.692383,4295.512695,4302.307617,4288.974121,4300.128418,4303.461426,4284.615234,4307.179688,4296.538574,4231.410156,4495.000000,4505.384766,4388.333496,4445.897461,0.000000,2.000000,52.000000,,,,0.000000,4.000000,4.000000,4.000000,4.000000,4.000000,4.000000,4.000000,4.000000,4.000000,4.000000,4.000000,4.000000,4.000000,4.000000,100.000000,,,,,,,,,,,,,,,,,,,,,,,,,,,,,,,,,,,,,,,,,,,,,,,
1665779403.359307,1665779403.359786,25.000000,0.000000,4285.512695,4285.512695,4299.615234,4298.205078,4296.153809,4301.282227,4287.436035,4309.871582,4295.897461,4219.230957,4487.820313,4506.025879,4375.641113,4440.128418,0.000000,2.000000,52.000000,,,,0.000000,4.000000,4.000000,4.000000,4.000000,4.000000,4.000000,4.000000,4.000000,4.000000,4.000000,4.000000,4.000000,4.000000,4.000000,100.000000,,,,,,,,,,,,,,,,,,,,,,,,,,,,,,,,,,,,,,,,,,,,,,,
1665779403.367115,1665779403.367595,26.000000,0.000000,4285.384766,4281.153809,4294.743652,4313.717773,4294.615234,4295.897461,4282.563965,4304.102539,4291.922852,4209.871582,4477.436035,4492.820313,4367.820313,4428.974121,0.000000,2.000000,52.000000,,,,0.000000,4.000000,4.000000,4.000000,4.000000,4.000000,4.000000,4.000000,4.000000,4.000000,4.000000,4.000000,4.000000,4.000000,4.000000,100.000000,,,,,,,,,,,,,,,,,,,,,,,,,,,,,,,,,,,,,,,,,,,,,,,
1665779403.374923,1665779403.375303,27.000000,0.000000,4290.000000,4284.615234,4291.025879,4296.153809,4294.871582,4292.179688,4278.461426,4294.871582,4289.102539,4221.025879,4484.615234,4485.641113,4374.743652,4425.128418,0.000000,2.000000,52.000000,,,,0.000000,4.000000,4.000000,4.000000,4.000000,4.000000,4.000000,4.000000,4.000000,4.000000,4.000000,4.000000,4.000000,4.000000,4.000000,100.000000,,,,,,,,,,,,,,,,,,,,,,,,,,,,,,,,,,,,,,,,,,,,,,,
1665779403.382732,1665779403.383112,28.000000,0.000000,4293.077148,4285.641113,4293.846191,4273.974121,4296.025879,4298.205078,4287.051270,4292.948730,4291.025879,4227.051270,4488.974121,4490.128418,4374.102539,4419.358887,0.000000,2.000000,52.000000,,,,0.000000,4.000000,4.000000,4.000000,4.000000,4.000000,4.000000,4.000000,4.000000,4.000000,4.000000,4.000000,4.000000,4.000000,4.000000,100.000000,,,,,,,,,,,,,,,,,,,,,,,,,,,,,,,,,,,,,,,,,,,,,,,
1665779403.390540,1665779403.390820,29.000000,0.000000,4301.410156,4278.589844,4304.102539,4294.358887,4295.512695,4308.333496,4299.230957,4300.384766,4295.256348,4220.512695,4474.358887,4494.615234,4370.256348,4420.769043,0.000000,2.000000,52.000000,,,,0.000000,4.000000,4.000000,4.000000,4.000000,4.000000,4.000000,4.000000,4.000000,4.000000,4.000000,4.000000,4.000000,4.000000,4.000000,100.000000,,,,,,,,,,,,,,,,,,,,,,,,,,,,,,,,,,,,,,,,,,,,,,,
1665779403.398349,1665779403.398629,30.000000,0.000000,4315.512695,4280.769043,4316.666504,4328.333496,4295.641113,4310.897461,4298.333496,4304.358887,4295.897461,4227.436035,4474.487305,4502.051270,4378.717773,4442.563965,0.000000,2.000000,52.000000,,,,0.000000,4.000000,4.000000,4.000000,4.000000,4.000000,4.000000,4.000000,4.000000,4.000000,4.000000,4.000000,4.000000,4.000000,4.000000,100.000000,,,,,,,,,,,,,,,,,,,,,,,,,,,,,,,,,,,,,,,,,,,,,,,
1665779403.406157,1665779403.406337,31.000000,0.000000,4321.538574,4293.846191,4321.153809,4318.205078,4296.666504,4302.563965,4286.153809,4300.000000,4293.846191,4236.153809,4491.666504,4508.333496,4379.615234,4448.205078,0.000000,2.000000,52.000000,,,,0.000000,4.000000,4.000000,4.000000,4.000000,4.000000,4.000000,4.000000,4.000000,4.000000,4.000000,4.000000,4.000000,4.000000,4.000000,100.000000,,,,,,,,,,,,,,,,,,,,,,,,,,,,,,,,,,,,,,,,,,,,,,,
1665779403.413965,1665779403.414146,32.000000,0.000000,4318.974121,4300.256348,4312.436035,4299.230957,4297.436035,4292.563965,4275.897461,4293.974121,4291.794922,4226.922852,4494.102539,4501.666504,4371.025879,4429.743652,0.000000,2.000000,52.000000,,,,0.000000,4.000000,4.000000,4.000000,4.000000,4.000000,4.000000,4.000000,4.000000,4.000000,4.000000,4.000000,4.000000,4.000000,4.000000,100.000000,,,,,,,,,,,,,,,,,,,,,,,,,,,,,,,,,,,,,,,,,,,,,,,
1665779403.421774,1665779403.421854,33.000000,0.000000,4322.563965,4303.461426,4308.846191,4313.077148,4298.205078,4288.717773,4274.615234,4296.794922,4293.205078,4226.794922,4490.769043,4499.358887,4375.256348,4427.692383,0.000000,2.000000,52.000000,,,,0.000000,4.000000,4.000000,4.000000,4.000000,4.000000,4.000000,4.000000,4.000000,4.000000,4.000000,4.000000,4.000000,4.000000,4.000000,100.000000,,,,,,,,,,,,,,,,,,,,,,,,,,,,,,,,,,,,,,,,,,,,,,,
1665779403.429582,1665779403.429663,34.000000,0.000000,4330.128418,4307.436035,4316.538574,4318.461426,4297.179688,4288.974121,4281.410156,4306.282227,4296.538574,4233.205078,4493.333496,4503.205078,4385.256348,4437.820313,0.000000,2.000000,52.000000,,,,0.000000,4.000000,4.000000,4.000000,4.000000,4.000000,4.000000,4.000000,4.000000,4.000000,4.000000,4.000000,4.000000,4.000000,4.000000,100.000000,,,,,,,,,,,,,,,,,,,,,,,,,,,,,,,,,,,,,,,,,,,,,,,
1665779403.437391,1665779403.437371,35.000000,0.000000,4325.641113,4302.051270,4311.282227,4308.974121,4293.846191,4293.205078,4290.641113,4309.487305,4295.512695,4222.051270,4489.743652,4496.282227,4380.384766,4434.102539,0.000000,2.000000,52.000000,,,,0.000000,4.000000,4.000000,4.000000,4.000000,4.000000,4.000000,4.000000,4.000000,4.000000,4.000000,4.000000,4.000000,4.000000,4.000000,100.000000,,,,,,,,,,,,,,,,,,,,,,,,,,,,,,,,,,,,,,,,,,,,,,,
1665779403.445199,1665779403.445180,36.000000,0.000000,4313.589844,4296.922852,4293.589844,4309.871582,4296.025879,4299.358887,4293.974121,4308.333496,4295.769043,4217.948730,4486.410156,4487.307617,4368.974121,4427.563965,0.000000,2.000000,52.000000,,,,0.000000,4.000000,4.000000,4.000000,4.000000,4.000000,4.000000,4.000000,4.000000,4.000000,4.000000,4.000000,4.000000,4.000000,4.000000,100.000000,,,,,,,,,,,,,,,,,,,,,,,,,,,,,,,,,,,,,,,,,,,,,,,
1665779403.453007,1665779403.452888,37.000000,0.000000,4317.692383,4304.358887,4300.897461,4306.666504,4300.000000,4310.000000,4297.436035,4311.410156,4298.461426,4230.897461,4488.717773,4496.410156,4372.563965,4434.230957,0.000000,2.000000,52.000000,,,,0.000000,4.000000,4.000000,4.000000,4.000000,4.000000,4.000000,4.000000,4.000000,4.000000,4.000000,4.000000,4.000000,4.000000,4.000000,100.000000,,,,,,,,,,,,,,,,,,,,,,,,,,,,,,,,,,,,,,,,,,,,,,,
1665779403.460816,1665779403.460796,38.000000,0.000000,4332.179688,4305.384766,4324.358887,4311.025879,4295.512695,4321.666504,4307.692383,4318.077148,4297.948730,4235.256348,4490.256348,4509.743652,4382.563965,4445.769043,0.000000,2.000000,52.000000,,,,0.000000,4.000000,4.000000,4.000000,4.000000,4.000000,4.000000,4.000000,4.000000,4.000000,4.000000,4.000000,4.000000,4.000000,4.000000,100.000000,,,,,,,,,,,,,,,,,,,,,,,,,,,,,,,,,,,,,,,,,,,,,,,
1665779403.468624,1665779403.468605,39.000000,0.000000,4330.512695,4297.051270,4320.256348,4316.922852,4295.769043,4318.846191,4303.205078,4313.717773,4298.077148,4231.153809,4492.563965,4503.717773,4379.358887,4443.461426,0.000000,2.000000,52.000000,,,,0.000000,4.000000,4.000000,4.000000,4.000000,4.000000,4.000000,4.000000,4.000000,4.000000,4.000000,4.000000,4.000000,4.000000,4.000000,100.000000,,,,,,,,,,,,,,,,,,,,,,,,,,,,,,,,,,,,,,,,,,,,,,,
1665779403.476433,1665779403.476513,40.000000,0.000000,4316.153809,4297.179688,4297.051270,4308.846191,4304.871582,4305.512695,4283.205078,4300.512695,4298.205078,4230.897461,4493.205078,4488.717773,4373.333496,4432.820313,0.000000,2.000000,52.000000,,,,0.000000,4.000000,4.000000,4.000000,4.000000,4.000000,4.000000,4.000000,4.000000,4.000000,4.000000,4.000000,4.000000,4.000000,4.000000,100.000000,,,,,,,,,,,,,,,,,,,,,,,,,,,,,,,,,,,,,,,,,,,,,,,
1665779403.484241,1665779403.484321,41.000000,0.000000,4310.384766,4308.205078,4291.282227,4304.102539,4302.051270,4304.871582,4284.102539,4294.743652,4296.538574,4235.000000,4491.153809,4480.897461,4378.589844,4427.692383,0.000000,2.000000,52.000000,,,,0.000000,4.000000,4.000000,4.000000,4.000000,4.000000,4.000000,4.000000,4.000000,4.000000,4.000000,4.000000,4.000000,4.000000,4.000000,100.000000,,,,,,,,,,,,,,,,,,,,,,,,,,,,,,,,,,,,,,,,,,,,,,,
1665779403.492049,1665779403.492230,42.000000,0.000000,4315.641113,4314.871582,4303.846191,4308.077148,4295.769043,4312.436035,4297.563965,4295.641113,4301.153809,4239.487305,4490.000000,4477.692383,4382.820313,4428.333496,0.000000,2.000000,52.000000,,,,0.000000,4.000000,4.000000,4.000000,4.000000,4.000000,4.000000,4.000000,4.000000,4.000000,4.000000,4.000000,4.000000,4.000000,4.000000,100.000000,,,,,,,,,,,,,,,,,,,,,,,,,,,,,,,,,,,,,,,,,,,,,,,
1665779403.499858,1665779403.500038,43.000000,0.000000,4319.871582,4304.743652,4307.820313,4310.769043,4298.589844,4313.461426,4295.769043,4296.025879,4307.307617,4238.589844,4485.512695,4470.769043,4377.692383,4426.153809,0.000000,2.000000,52.000000,,,,0.000000,4.000000,4.000000,4.000000,4.000000,4.000000,4.000000,4.000000,4.000000,4.000000,4.000000,4.000000,4.000000,4.000000,4.000000,100.000000,,,,,,,,,,,,,,,,,,,,,,,,,,,,,,,,,,,,,,,,,,,,,,,
1665779403.507666,1665779403.507947,44.000000,0.000000,4316.282227,4293.333496,4296.025879,4304.102539,4296.538574,4312.692383,4290.641113,4293.333496,4300.000000,4231.794922,4474.487305,4476.538574,4372.692383,4423.461426,0.000000,2.000000,52.000000,,,,0.000000,4.000000,4.000000,4.000000,4.000000,4.000000,4.000000,4.000000,4.000000,4.000000,4.000000,4.000000,4.000000,4.000000,4.000000,100.000000,,,,,,,,,,,,,,,,,,,,,,,,,,,,,,,,,,,,,,,,,,,,,,,
1665779403.515475,1665779403.515755,45.000000,0.000000,4315.769043,4297.179688,4297.820313,4304.358887,4297.051270,4312.563965,4293.077148,4292.692383,4293.333496,4228.333496,4472.307617,4498.077148,4371.410156,4429.102539,0.000000,2.000000,52.000000,,,,0.000000,4.000000,4.000000,4.000000,4.000000,4.000000,4.000000,4.000000,4.000000,4.000000,4.000000,4.000000,4.000000,4.000000,4.000000,100.000000,,,,,,,,,,,,,,,,,,,,,,,,,,,,,,,,,,,,,,,,,,,,,,,
1665779403.523283,1665779403.523464,46.000000,0.000000,4322.820313,4308.461426,4316.282227,4314.102539,4307.436035,4312.051270,4299.230957,4306.025879,4302.307617,4230.769043,4485.384766,4510.897461,4376.282227,4441.153809,0.000000,2.000000,52.000000,,,,0.000000,4.000000,4.000000,4.000000,4.000000,4.000000,4.000000,4.000000,4.000000,4.000000,4.000000,4.000000,4.000000,4.000000,4.000000,100.000000,,,,,,,,,,,,,,,,,,,,,,,,,,,,,,,,,,,,,,,,,,,,,,,
1665779403.531091,1665779403.531272,47.000000,0.000000,4318.717773,4303.333496,4315.897461,4312.051270,4305.512695,4312.179688,4306.794922,4320.897461,4307.436035,4234.230957,4493.077148,4510.000000,4380.256348,4447.820313,0.000000,2.000000,52.000000,,,,0.000000,4.000000,4.000000,4.000000,4.000000,4.000000,4.000000,4.000000,4.000000,4.000000,4.000000,4.000000,4.000000,4.000000,4.000000,100.000000,,,,,,,,,,,,,,,,,,,,,,,,,,,,,,,,,,,,,,,,,,,,,,,
1665779403.538900,1665779403.538981,48.000000,0.000000,4304.102539,4292.820313,4305.000000,4305.384766,4295.769043,4310.256348,4310.769043,4322.820313,4306.794922,4234.102539,4490.769043,4503.077148,4380.769043,4444.871582,0.000000,2.000000,52.000000,,,,0.000000,4.000000,4.000000,4.000000,4.000000,4.000000,4.000000,4.000000,4.000000,4.000000,4.000000,4.000000,4.000000,4.000000,4.000000,100.000000,,,,,,,,,,,,,,,,,,,,,,,,,,,,,,,,,,,,,,,,,,,,,,,
1665779403.546708,1665779403.546789,49.000000,0.000000,4302.179688,4297.307617,4311.410156,4307.179688,4295.256348,4306.794922,4309.102539,4319.615234,4308.461426,4236.410156,4494.615234,4497.948730,4384.743652,4436.666504,0.000000,2.000000,52.000000,,,,0.000000,4.000000,4.000000,4.000000,4.000000,4.000000,4.000000,4.000000,4.000000,4.000000,4.000000,4.000000,4.000000,4.000000,4.000000,100.000000,,,,,,,,,,,,,,,,,,,,,,,,,,,,,,,,,,,,,,,,,,,,,,,
1665779403.554517,1665779403.554498,50.000000,0.000000,4301.410156,4304.358887,4310.128418,4309.615234,4296.538574,4302.307617,4303.461426,4315.897461,4305.000000,4235.641113,4496.666504,4488.077148,4383.974121,4429.871582,0.000000,2.000000,52.000000,,,,0.000000,4.000000,4.000000,4.000000,4.000000,4.000000,4.000000,4.000000,4.000000,4.000000,4.000000,4.000000,4.000000,4.000000,4.000000,100.000000,,,,,,,,,,,,,,,,,,,,,,,,,,,,,,,,,,,,,,,,,,,,,,,
1665779403.562325,1665779403.562306,51.000000,0.000000,4297.051270,4309.358887,4302.307617,4312.820313,4293.333496,4297.563965,4298.589844,4310.256348,4303.333496,4231.794922,4484.743652,4486.794922,4384.358887,4435.000000,0.000000,2.000000,52.000000,,,,0.000000,4.000000,4.000000,4.000000,4.000000,4.000000,4.000000,4.000000,4.000000,4.000000,4.000000,4.000000,4.000000,4.000000,4.000000,100.000000,,,,,,,,,,,,,,,,,,,,,,,,,,,,,,,,,,,,,,,,,,,,,,,
1665779403.570133,1665779403.570015,52.000000,0.000000,4307.307617,4311.794922,4319.102539,4317.563965,4296.538574,4296.794922,4299.102539,4310.512695,4311.025879,4239.871582,4491.666504,4507.692383,4395.641113,4448.077148,0.000000,2.000000,52.000000,,,,0.000000,4.000000,4.000000,4.000000,4.000000,4.000000,4.000000,4.000000,4.000000,4.000000,4.000000,4.000000,4.000000,4.000000,4.000000,100.000000,,,,,,,,,,,,,,,,,,,,,,,,,,,,,,,,,,,,,,,,,,,,,,,
1665779403.577942,1665779403.577823,53.000000,0.000000,4316.282227,4309.358887,4328.846191,4309.230957,4303.589844,4296.410156,4291.794922,4311.538574,4306.538574,4253.205078,4513.589844,4522.179688,4400.641113,4448.461426,0.000000,2.000000,52.000000,,,,0.000000,4.000000,4.000000,4.000000,4.000000,4.000000,4.000000,4.000000,4.000000,4.000000,4.000000,4.000000,4.000000,4.000000,4.000000,100.000000,,,,,,,,,,,,,,,,,,,,,,,,,,,,,,,,,,,,,,,,,,,,,,,
1665779403.585750,1665779403.585532,54.000000,0.000000,4307.948730,4307.179688,4313.205078,4311.794922,4302.948730,4292.948730,4281.153809,4313.333496,4296.794922,4244.743652,4503.205078,4513.077148,4392.436035,4447.051270,0.000000,2.000000,52.000000,,,,0.000000,4.000000,4.000000,4.000000,4.000000,4.000000,4.000000,4.000000,4.000000,4.000000,4.000000,4.000000,4.000000,4.000000,4.000000,100.000000,,,,,,,,,,,,,,,,,,,,,,,,,,,,,,,,,,,,,,,,,,,,,,,
1665779403.593559,1665779403.593340,55.000000,0.000000,4296.666504,4310.000000,4307.307617,4328.077148,4304.615234,4290.384766,4287.948730,4320.641113,4303.974121,4230.000000,4491.410156,4498.717773,4386.922852,4452.436035,0.000000,2.000000,52.000000,,,,0.000000,4.000000,4.000000,4.000000,4.000000,4.000000,4.000000,4.000000,4.000000,4.000000,4.000000,4.000000,4.000000,4.000000,4.000000,100.000000,,,,,,,,,,,,,,,,,,,,,,,,,,,,,,,,,,,,,,,,,,,,,,,
1665779403.601367,1665779403.601049,56.000000,0.000000,4292.436035,4316.153809,4313.589844,4327.307617,4307.820313,4290.512695,4296.922852,4319.487305,4307.307617,4232.436035,4503.461426,4497.051270,4385.897461,4443.846191,0.000000,2.000000,52.000000,,,,0.000000,4.000000,4.000000,4.000000,4.000000,4.000000,4.000000,4.000000,4.000000,4.000000,4.000000,4.000000,4.000000,4.000000,4.000000,100.000000,,,,,,,,,,,,,,,,,,,,,,,,,,,,,,,,,,,,,,,,,,,,,,,
1665779403.609176,1665779403.608857,57.000000,0.000000,4288.846191,4315.641113,4309.615234,4314.743652,4301.410156,4295.128418,4296.025879,4311.153809,4300.512695,4232.436035,4499.102539,4492.436035,4383.589844,4426.538574,0.000000,2.000000,52.000000,,,,0.000000,4.000000,4.000000,4.000000,4.000000,4.000000,4.000000,4.000000,4.000000,4.000000,4.000000,4.000000,4.000000,4.000000,4.000000,100.000000,,,,,,,,,,,,,,,,,,,,,,,,,,,,,,,,,,,,,,,,,,,,,,,
1665779403.616984,1665779403.616566,58.000000,0.000000,4289.102539,4303.974121,4305.897461,4301.794922,4295.897461,4304.230957,4299.358887,4308.717773,4300.512695,4231.282227,4487.051270,4479.487305,4384.871582,4426.922852,0.000000,2.000000,52.000000,,,,0.000000,4.000000,4.000000,4.000000,4.000000,4.000000,4.000000,4.000000,4.000000,4.000000,4.000000,4.000000,4.000000,4.000000,4.000000,100.000000,,,,,,,,,,,,,,,,,,,,,,,,,,,,,,,,,,,,,,,,,,,,,,,
1665779403.624792,1665779403.624474,59.000000,0.000000,4288.461426,4293.589844,4304.615234,4299.743652,4304.230957,4312.179688,4303.461426,4306.282227,4301.153809,4233.846191,4487.307617,4471.153809,4384.102539,4431.922852,0.000000,2.000000,52.000000,,,,0.000000,4.000000,4.000000,4.000000,4.000000,4.000000,4.000000,4.000000,4.000000,4.000000,4.000000,4.000000,4.000000,4.000000,4.000000,100.000000,,,,,,,,,,,,,,,,,,,,,,,,,,,,,,,,,,,,,,,,,,,,,,,
1665779403.632601,1665779403.632282,60.000000,0.000000,4278.846191,4294.615234,4294.358887,4310.384766,4311.666504,4317.563965,4300.256348,4300.512695,4297.820313,4227.820313,4477.563965,4472.820313,4379.487305,4421.794922,0.000000,2.000000,52.000000,,,,0.000000,4.000000,4.000000,4.000000,4.000000,4.000000,4.000000,4.000000,4.000000,4.000000,4.000000,4.000000,4.000000,4.000000,4.000000,100.000000,,,,,,,,,,,,,,,,,,,,,,,,,,,,,,,,,,,,,,,,,,,,,,,
1665779403.640409,1665779403.640191,61.000000,0.000000,4271.282227,4295.512695,4291.025879,4313.717773,4308.589844,4322.051270,4300.897461,4305.897461,4298.333496,4224.615234,4480.384766,4482.563965,4382.307617,4424.102539,0.000000,2.000000,52.000000,,,,0.000000,4.000000,4.000000,4.000000,4.000000,4.000000,4.000000,4.000000,4.000000,4.000000,4.000000,4.000000,4.000000,4.000000,4.000000,100.000000,,,,,,,,,,,,,,,,,,,,,,,,,,,,,,,,,,,,,,,,,,,,,,,
1665779403.648218,1665779403.647999,62.000000,0.000000,4273.077148,4294.871582,4304.743652,4312.307617,4310.256348,4322.436035,4306.153809,4317.051270,4301.025879,4233.205078,4501.025879,4493.846191,4390.897461,4443.461426,0.000000,2.000000,52.000000,,,,0.000000,4.000000,4.000000,4.000000,4.000000,4.000000,4.000000,4.000000,4.000000,4.000000,4.000000,4.000000,4.000000,4.000000,4.000000,100.000000,,,,,,,,,,,,,,,,,,,,,,,,,,,,,,,,,,,,,,,,,,,,,,,
1665779403.656026,1665779403.655907,63.000000,0.000000,4276.282227,4304.487305,4315.641113,4316.666504,4316.666504,4321.410156,4309.230957,4320.000000,4303.461426,4236.794922,4498.717773,4507.051270,4393.846191,4449.358887,0.000000,2.000000,52.000000,,,,0.000000,4.000000,4.000000,4.000000,4.000000,4.000000,4.000000,4.000000,4.000000,4.000000,4.000000,4.000000,4.000000,4.000000,4.000000,100.000000,,,,,,,,,,,,,,,,,,,,,,,,,,,,,,,,,,,,,,,,,,,,,,,
1665779403.663834,1665779403.663716,64.000000,0.000000,4275.000000,4310.897461,4312.563965,4310.897461,4319.102539,4323.717773,4311.410156,4322.692383,4309.230957,4231.025879,4487.692383,4511.666504,4387.436035,4442.563965,2281.000000,2.000000,52.000000,,,,0.000000,4.000000,4.000000,4.000000,4.000000,4.000000,4.000000,4.000000,4.000000,4.000000,4.000000,4.000000,4.000000,4.000000,4.000000,100.000000,,,,,,,,,,,,,,,,,,,,,,,,,,,,,,,,,,,,,,,,,,,,,,,
1665779403.671643,1665779403.671624,65.000000,0.000000,4271.666504,4308.589844,4310.512695,4311.666504,4314.487305,4326.410156,4311.282227,4327.051270,4310.512695,4232.820313,4490.897461,4506.922852,4380.128418,4438.205078,1878.000000,2.000000,52.000000,,,,0.000000,4.000000,4.000000,4.000000,4.000000,4.000000,4.000000,4.000000,4.000000,4.000000,4.000000,4.000000,4.000000,4.000000,4.000000,100.000000,,,,,,,,,,,,,,,,,,,,,,,,,,,,,,,,,,,,,,,,,,,,,,,
1665779403.679451,1665779403.679433,66.000000,0.000000,4269.743652,4311.025879,4313.589844,4324.358887,4310.769043,4325.769043,4310.512695,4322.051270,4304.102539,4231.282227,4492.692383,4504.871582,4382.051270,4432.179688,2094.000000,2.000000,52.000000,,,,0.000000,4.000000,4.000000,4.000000,4.000000,4.000000,4.000000,4.000000,4.000000,4.000000,4.000000,4.000000,4.000000,4.000000,4.000000,100.000000,,,,,,,,,,,,,,,,,,,,,,,,,,,,,,,,,,,,,,,,,,,,,,,
1665779403.687260,1665779403.687341,67.000000,0.000000,4270.384766,4312.436035,4313.205078,4317.563965,4310.641113,4324.487305,4310.256348,4312.307617,4297.692383,4220.769043,4492.692383,4505.384766,4392.820313,4429.615234,2274.000000,2.000000,52.000000,,,,0.000000,4.000000,4.000000,4.000000,4.000000,4.000000,4.000000,4.000000,4.000000,4.000000,4.000000,4.000000,4.000000,4.000000,4.000000,100.000000,,,,,,,,,,,,,,,,,,,,,,,,,,,,,,,,,,,,,,,,,,,,,,,
1665779403.695068,1665779403.695149,68.000000,0.000000,4268.077148,4303.333496,4308.461426,4309.871582,4309.230957,4323.077148,4305.000000,4310.512695,4296.282227,4218.205078,4492.179688,4505.641113,4397.563965,4438.461426,2239.000000,2.000000,52.000000,,,,0.000000,4.000000,4.000000,4.000000,4.000000,4.000000,4.000000,4.000000,4.000000,4.000000,4.000000,4.000000,4.000000,4.000000,4.000000,100.000000,,,,,,,,,,,,,,,,,,,,,,,,,,,,,,,,,,,,,,,,,,,,,,,
1665779403.702876,1665779403.703058,69.000000,0.000000,4260.512695,4299.743652,4303.077148,4316.538574,4311.794922,4316.922852,4298.974121,4310.512695,4296.410156,4219.102539,4489.230957,4505.641113,4390.641113,4444.615234,2301.000000,2.000000,52.000000,,,,0.000000,4.000000,4.000000,4.000000,4.000000,4.000000,4.000000,4.000000,4.000000,4.000000,4.000000,4.000000,4.000000,4.000000,4.000000,100.000000,1.000000,83.333336,3.000000,4.000000,4.000000,4.000000,4.000000,4.000000,4.000000,4.000000,4.000000,3.000000,4.000000,4.000000,4.000000,4.000000,1.000000,0.576140,-0.154518,-1.286800,0.127913,1.000000,0.275446,4.120507,2.105992,9.419629,0.443718,1.000000,0.263162,42.268917,-32.548683,221.863220,1.000000,0.234747,0.111916,0.069155,0.364949,1.000000,0.483325,6.699875,-6.288715,17.866922,1.000000,0.478030,0.478030,0.000000,1.000000
1665779403.710685,1665779403.710866,70.000000,0.000000,4257.436035,4308.077148,4306.410156,4316.153809,4314.743652,4310.384766,4301.410156,4313.333496,4297.820313,4218.205078,4498.461426,4511.025879,4394.358887,4441.410156,2217.000000,2.000000,52.000000,,,,0.000000,4.000000,4.000000,4.000000,4.000000,4.000000,4.000000,4.000000,4.000000,4.000000,4.000000,4.000000,4.000000,4.000000,4.000000,100.000000,,,,,,,,,,,,,,,,,,,,,,,,,,,,,,,,,,,,,,,,,,,,,,,
1665779403.718493,1665779403.718575,71.000000,0.000000,4260.769043,4315.512695,4319.358887,4313.461426,4310.256348,4309.743652,4308.333496,4324.230957,4305.256348,4225.384766,4507.820313,4520.641113,4402.307617,4444.230957,2338.000000,2.000000,52.000000,,,,0.000000,4.000000,4.000000,4.000000,4.000000,4.000000,4.000000,4.000000,4.000000,4.000000,4.000000,4.000000,4.000000,4.000000,4.000000,100.000000,,,,,,,,,,,,,,,,,,,,,,,,,,,,,,,,,,,,,,,,,,,,,,,
1665779403.726302,1665779403.726383,72.000000,0.000000,4266.794922,4320.512695,4324.230957,4322.948730,4308.205078,4312.948730,4311.666504,4329.487305,4312.563965,4230.128418,4508.589844,4526.666504,4397.820313,4452.307617,2164.000000,2.000000,52.000000,,,,0.000000,4.000000,4.000000,4.000000,4.000000,4.000000,4.000000,4.000000,4.000000,4.000000,4.000000,4.000000,4.000000,4.000000,4.000000,100.000000,,,,,,,,,,,,,,,,,,,,,,,,,,,,,,,,,,,,,,,,,,,,,,,
1665779403.734110,1665779403.734092,73.000000,0.000000,4271.410156,4327.692383,4316.794922,4324.230957,4313.333496,4315.641113,4315.128418,4326.153809,4311.666504,4225.769043,4503.205078,4521.538574,4401.538574,4450.897461,2262.000000,2.000000,52.000000,,,,0.000000,4.000000,4.000000,4.000000,4.000000,4.000000,4.000000,4.000000,4.000000,4.000000,4.000000,4.000000,4.000000,4.000000,4.000000,100.000000,,,,,,,,,,,,,,,,,,,,,,,,,,,,,,,,,,,,,,,,,,,,,,,
1665779403.741918,1665779403.742000,74.000000,0.000000,4274.871582,4320.384766,4318.461426,4316.282227,4311.282227,4318.717773,4318.461426,4326.794922,4312.563965,4228.974121,4497.820313,4522.436035,4412.179688,4450.769043,2501.000000,2.000000,52.000000,,,,0.000000,4.000000,4.000000,4.000000,4.000000,4.000000,4.000000,4.000000,4.000000,4.000000,4.000000,4.000000,4.000000,4.000000,4.000000,100.000000,,,,,,,,,,,,,,,,,,,,,,,,,,,,,,,,,,,,,,,,,,,,,,,
1665779403.749727,1665779403.749809,75.000000,0.000000,4275.128418,4305.256348,4327.948730,4326.538574,4304.487305,4321.282227,4316.922852,4328.205078,4313.077148,4228.717773,4494.487305,4532.436035,4407.820313,4460.384766,2570.000000,2.000000,52.000000,,,,0.000000,4.000000,4.000000,4.000000,4.000000,4.000000,4.000000,4.000000,4.000000,4.000000,4.000000,4.000000,4.000000,4.000000,4.000000,100.000000,,,,,,,,,,,,,,,,,,,,,,,,,,,,,,,,,,,,,,,,,,,,,,,
1665779403.757535,1665779403.757717,76.000000,0.000000,4265.897461,4312.692383,4323.461426,4328.205078,4305.641113,4316.794922,4307.563965,4318.589844,4302.436035,4216.282227,4492.051270,4531.410156,4396.922852,4461.794922,2752.000000,2.000000,52.000000,,,,0.000000,4.000000,4.000000,4.000000,4.000000,4.000000,4.000000,4.000000,4.000000,4.000000,4.000000,4.000000,4.000000,4.000000,4.000000,100.000000,,,,,,,,,,,,,,,,,,,,,,,,,,,,,,,,,,,,,,,,,,,,,,,
1665779403.765344,1665779403.765525,77.000000,0.000000,4255.128418,4322.307617,4312.307617,4310.641113,4310.897461,4308.717773,4295.769043,4307.948730,4292.692383,4210.512695,4502.179688,4523.077148,4390.000000,4450.512695,3321.000000,2.000000,52.000000,,,,0.000000,4.000000,4.000000,4.000000,4.000000,4.000000,4.000000,4.000000,4.000000,4.000000,4.000000,4.000000,4.000000,4.000000,4.000000,100.000000,,,,,,,,,,,,,,,,,,,,,,,,,,,,,,,,,,,,,,,,,,,,,,,
1665779403.773152,1665779403.773434,78.000000,0.000000,4246.666504,4313.461426,4307.563965,4315.256348,4315.897461,4307.179688,4293.077148,4305.128418,4292.179688,4206.922852,4507.820313,4520.000000,4387.307617,4442.563965,2501.000000,2.000000,52.000000,,,,0.000000,4.000000,4.000000,4.000000,4.000000,4.000000,4.000000,4.000000,4.000000,4.000000,4.000000,4.000000,4.000000,4.000000,4.000000,100.000000,,,,,,,,,,,,,,,,,,,,,,,,,,,,,,,,,,,,,,,,,,,,,,,
1665779403.780960,1665779403.781242,79.000000,0.000000,4239.487305,4310.256348,4308.461426,4326.538574,4315.769043,4312.563965,4301.666504,4309.230957,4291.794922,4197.179688,4492.436035,4521.410156,4391.025879,4442.948730,2570.000000,2.000000,52.000000,,,,0.000000,4.000000,4.000000,4.000000,4.000000,4.000000,4.000000,4.000000,4.000000,4.000000,4.000000,4.000000,4.000000,4.000000,4.000000,100.000000,,,,,,,,,,,,,,,,,,,,,,,,,,,,,,,,,,,,,,,,,,,,,,,
1665779403.788769,1665779403.789151,80.000000,0.000000,4238.205078,4319.487305,4311.666504,4316.153809,4311.666504,4316.794922,4309.487305,4314.871582,4296.282227,4203.717773,4491.922852,4520.641113,4398.974121,4443.974121,2752.000000,2.000000,52.000000,,,,0.000000,4.000000,4.000000,4.000000,4.000000,4.000000,4.000000,4.000000,4.000000,4.000000,4.000000,4.000000,4.000000,4.000000,4.000000,100.000000,,,,,,,,,,,,,,,,,,,,,,,,,,,,,,,,,,,,,,,,,,,,,,,
1665779403.796577,1665779403.796959,81.000000,0.000000,4242.948730,4318.333496,4312.436035,4310.512695,4311.282227,4318.589844,4312.692383,4316.153809,4304.743652,4219.871582,4505.384766,4519.743652,4400.256348,4448.333496,3321.000000,2.000000,52.000000,,,,0.000000,4.000000,4.000000,4.000000,4.000000,4.000000,4.000000,4.000000,4.000000,4.000000,4.000000,4.000000,4.000000,4.000000,4.000000,100.000000,,,,,,,,,,,,,,,,,,,,,,,,,,,,,,,,,,,,,,,,,,,,,,,
1665779403.804386,1665779403.804767,82.000000,0.000000,4237.179688,4308.589844,4307.307617,4317.051270,4308.717773,4313.974121,4308.589844,4311.794922,4302.051270,4218.717773,4493.077148,4514.102539,4394.487305,4445.000000,2501.000000,2.000000,52.000000,,,,0.000000,4.000000,4.000000,4.000000,4.000000,4.000000,4.000000,4.000000,4.000000,4.000000,4.000000,4.000000,4.000000,4.000000,4.000000,100.000000,,,,,,,,,,,,,,,,,,,,,,,,,,,,,,,,,,,,,,,,,,,,,,,
1665779403.812194,1665779403.812476,83.000000,0.000000,4232.436035,4307.948730,4305.256348,4321.410156,4305.897461,4308.461426,4300.128418,4307.820313,4292.692383,4210.512695,4480.000000,4505.384766,4387.179688,4429.871582,2570.000000,2.000000,52.000000,,,,0.000000,4.000000,4.000000,4.000000,4.000000,4.000000,4.000000,4.000000,4.000000,4.000000,4.000000,4.000000,4.000000,4.000000,4.000000,100.000000,,,,,,,,,,,,,,,,,,,,,,,,,,,,,,,,,,,,,,,,,,,,,,,
1665779403.820002,1665779403.820284,84.000000,0.000000,4241.153809,4317.563965,4314.487305,4332.307617,4309.102539,4314.871582,4304.230957,4312.692383,4294.358887,4211.153809,4495.384766,4512.179688,4393.461426,4435.897461,2752.000000,2.000000,52.000000,1,1,1,0.000000,4.000000,4.000000,4.000000,4.000000,4.000000,4.000000,4.000000,4.000000,4.000000,4.000000,4.000000,4.000000,4.000000,4.000000,100.000000,,,,,,,,,,,,,,,,,,,,,,,,,,,,,,,,,,,,,,,,,,,,,,,
1665779403.827811,1665779403.827993,85.000000,0.000000,4241.153809,4324.743652,4321.922852,4335.512695,4313.333496,4319.871582,4308.846191,4320.897461,4301.538574,4215.512695,4505.000000,4528.077148,4408.333496,4459.230957,3321.000000,2.000000,52.000000,,,,0.000000,4.000000,4.000000,4.000000,4.000000,4.000000,4.000000,4.000000,4.000000,4.000000,4.000000,4.000000,4.000000,4.000000,4.000000,100.000000,,,,,,,,,,,,,,,,,,,,,,,,,,,,,,,,,,,,,,,,,,,,,,,
1665779403.835619,1665779403.835901,86.000000,0.000000,4236.794922,4325.512695,4321.282227,4321.666504,4317.563965,4311.410156,4300.897461,4321.410156,4301.153809,4216.538574,4509.230957,4527.820313,4407.948730,4455.641113,2501.000000,2.000000,52.000000,,,,0.000000,4.000000,4.000000,4.000000,4.000000,4.000000,4.000000,4.000000,4.000000,4.000000,4.000000,4.000000,4.000000,4.000000,4.000000,100.000000,,,,,,,,,,,,,,,,,,,,,,,,,,,,,,,,,,,,,,,,,,,,,,,
1665779403.843428,1665779403.843710,87.000000,0.000000,4242.563965,4326.153809,4321.410156,4325.000000,4321.153809,4308.974121,4303.846191,4318.717773,4297.948730,4211.794922,4507.051270,4520.000000,4398.461426,4441.282227,2570.000000,2.000000,52.000000,,,,0.000000,4.000000,4.000000,4.000000,4.000000,4.000000,4.000000,4.000000,4.000000,4.000000,4.000000,4.000000,4.000000,4.000000,4.000000,100.000000,,,,,,,,,,,,,,,,,,,,,,,,,,,,,,,,,,,,,,,,,,,,,,,
1665779403.851236,1665779403.851618,88.000000,0.000000,4250.384766,4320.769043,4328.205078,4335.256348,4313.077148,4321.538574,4315.384766,4323.717773,4307.692383,4204.102539,4493.333496,4532.692383,4398.205078,4454.743652,2752.000000,2.000000,52.000000,,,,0.000000,4.000000,4.000000,4.000000,4.000000,4.000000,4.000000,4.000000,4.000000,4.000000,4.000000,4.000000,4.000000,4.000000,4.000000,100.000000,,,,,,,,,,,,,,,,,,,,,,,,,,,,,,,,,,,,,,,,,,,,,,,
1665779403.859044,1665779403.859427,89.000000,0.000000,4244.102539,4310.641113,4327.436035,4318.974121,4304.102539,4321.153809,4308.461426,4324.871582,4314.871582,4206.666504,4499.871582,4538.974121,4407.820313,4466.666504,3321.000000,2.000000,52.000000,,,,0.000000,4.000000,4.000000,4.000000,4.000000,4.000000,4.000000,4.000000,4.000000,4.000000,4.000000,4.000000,4.000000,4.000000,4.000000,100.000000,,,,,,,,,,,,,,,,,,,,,,,,,,,,,,,,,,,,,,,,,,,,,,,
1665779403.866853,1665779403.867335,90.000000,0.000000,4231.666504,4308.333496,4312.051270,4308.333496,4309.230957,4310.000000,4300.897461,4311.025879,4301.794922,4219.615234,4513.717773,4522.307617,4412.179688,4448.589844,2501.000000,2.000000,52.000000,,,,0.000000,4.000000,4.000000,4.000000,4.000000,4.000000,4.000000,4.000000,4.000000,4.000000,4.000000,4.000000,4.000000,4.000000,4.000000,100.000000,,,,,,,,,,,,,,,,,,,,,,,,,,,,,,,,,,,,,,,,,,,,,,,
1665779403.874661,1665779403.875143,91.000000,0.000000,4227.051270,4311.282227,4300.769043,4320.769043,4313.461426,4313.717773,4307.692383,4305.512695,4293.717773,4220.128418,4508.333496,4525.256348,4405.128418,4438.589844,2570.000000,2.000000,52.000000,,,,0.000000,4.000000,4.000000,4.000000,4.000000,4.000000,4.000000,4.000000,4.000000,4.000000,4.000000,4.000000,4.000000,4.000000,4.000000,100.000000,,,,,,,,,,,,,,,,,,,,,,,,,,,,,,,,,,,,,,,,,,,,,,,
1665779403.882470,1665779403.883052,92.000000,0.000000,4233.846191,4310.128418,4313.461426,4326.282227,4306.794922,4322.179688,4311.153809,4317.563965,4301.025879,4206.153809,4506.538574,4540.641113,4400.512695,4450.512695,2752.000000,2.000000,52.000000,,,,0.000000,4.000000,4.000000,4.000000,4.000000,4.000000,4.000000,4.000000,4.000000,4.000000,4.000000,4.000000,4.000000,4.000000,4.000000,100.000000,,,,,,,,,,,,,,,,,,,,,,,,,,,,,,,,,,,,,,,,,,,,,,,
1665779403.890278,1665779403.890860,93.000000,0.000000,4236.922852,4313.461426,4332.179688,4318.461426,4307.820313,4320.256348,4312.563965,4325.256348,4299.487305,4199.487305,4508.846191,4530.641113,4403.717773,4453.205078,3321.000000,2.000000,52.000000,,,,0.000000,4.000000,4.000000,4.000000,4.000000,4.000000,4.000000,4.000000,4.000000,4.000000,4.000000,4.000000,4.000000,4.000000,4.000000,100.000000,,,,,,,,,,,,,,,,,,,,,,,,,,,,,,,,,,,,,,,,,,,,,,,
1665779403.898086,1665779403.898569,94.000000,0.000000,4229.743652,4324.615234,4332.820313,4329.743652,4324.102539,4318.589844,4314.743652,4323.077148,4294.358887,4201.538574,4498.846191,4521.410156,4404.102539,4441.282227,2501.000000,2.000000,52.000000,,,,0.000000,4.000000,4.000000,4.000000,4.000000,4.000000,4.000000,4.000000,4.000000,4.000000,4.000000,4.000000,4.000000,4.000000,4.000000,100.000000,,,,,,,,,,,,,,,,,,,,,,,,,,,,,,,,,,,,,,,,,,,,,,,
1665779403.905895,1665779403.906377,95.000000,0.000000,4229.615234,4331.410156,4324.743652,4345.256348,4331.538574,4318.846191,4311.025879,4323.589844,4301.153809,4204.871582,4505.769043,4535.897461,4403.717773,4443.333496,2570.000000,2.000000,52.000000,,,,0.000000,4.000000,4.000000,4.000000,4.000000,4.000000,4.000000,4.000000,4.000000,4.000000,4.000000,4.000000,4.000000,4.000000,4.000000,100.000000,,,,,,,,,,,,,,,,,,,,,,,,,,,,,,,,,,,,,,,,,,,,,,,
1665779403.913703,1665779403.914086,96.000000,0.000000,4236.410156,4330.769043,4324.743652,4322.307617,4315.128418,4315.000000,4310.128418,4322.563965,4303.333496,4210.256348,4522.692383,4544.871582,4409.615234,4459.743652,2752.000000,2.000000,52.000000,,,,0.000000,4.000000,4.000000,4.000000,4.000000,4.000000,4.000000,4.000000,4.000000,4.000000,4.000000,4.000000,4.000000,4.000000,4.000000,100.000000,,,,,,,,,,,,,,,,,,,,,,,,,,,,,,,,,,,,,,,,,,,,,,,
1665779403.921512,1665779403.921894,97.000000,0.000000,4242.179688,4326.282227,4332.563965,4307.051270,4307.948730,4314.615234,4316.153809,4318.077148,4300.000000,4210.641113,4513.461426,4546.282227,4416.153809,4463.846191,3321.000000,2.000000,52.000000,,,,0.000000,4.000000,4.000000,4.000000,4.000000,4.000000,4.000000,4.000000,4.000000,4.000000,4.000000,4.000000,4.000000,4.000000,4.000000,100.000000,,,,,,,,,,,,,,,,,,,,,,,,,,,,,,,,,,,,,,,,,,,,,,,
1665779403.929320,1665779403.929603,98.000000,0.000000,4242.820313,4327.307617,4334.871582,4336.025879,4316.922852,4316.153809,4315.641113,4317.948730,4304.230957,4212.948730,4508.205078,4555.000000,4421.282227,4460.000000,2501.000000,2.000000,52.000000,,,,0.000000,4.000000,4.000000,4.000000,4.000000,4.000000,4.000000,4.000000,4.000000,4.000000,4.000000,4.000000,4.000000,4.000000,4.000000,100.000000,,,,,,,,,,,,,,,,,,,,,,,,,,,,,,,,,,,,,,,,,,,,,,,
1665779403.937128,1665779403.937411,99.000000,0.000000,4237.820313,4326.794922,4329.230957,4344.102539,4308.974121,4311.153809,4310.769043,4321.153809,4306.025879,4223.333496,4526.025879,4559.871582,4420.512695,4462.179688,2570.000000,2.000000,52.000000,,,,0.000000,4.000000,4.000000,4.000000,4.000000,4.000000,4.000000,4.000000,4.000000,4.000000,4.000000,4.000000,4.000000,4.000000,4.000000,100.000000,,,,,,,,,,,,,,,,,,,,,,,,,,,,,,,,,,,,,,,,,,,,,,,
1665779403.944937,1665779403.945120,100.000000,0.000000,4234.743652,4318.077148,4322.051270,4318.974121,4302.179688,4306.922852,4310.000000,4327.051270,4304.743652,4232.307617,4528.717773,4552.692383,4417.051270,4466.410156,2752.000000,2.000000,52.000000,,,,0.000000,4.000000,4.000000,4.000000,4.000000,4.000000,4.000000,4.000000,4.000000,4.000000,4.000000,4.000000,4.000000,4.000000,4.000000,100.000000,,,,,,,,,,,,,,,,,,,,,,,,,,,,,,,,,,,,,,,,,,,,,,,
1665779403.952745,1665779403.952928,101.000000,0.000000,4228.205078,4316.153809,4315.256348,4316.153809,4316.538574,4309.230957,4309.871582,4333.461426,4311.282227,4232.179688,4511.025879,4539.871582,4413.461426,4458.717773,3321.000000,2.000000,52.000000,,,,0.000000,4.000000,4.000000,4.000000,4.000000,4.000000,4.000000,4.000000,4.000000,4.000000,4.000000,4.000000,4.000000,4.000000,4.000000,100.000000,,,,,,,,,,,,,,,,,,,,,,,,,,,,,,,,,,,,,,,,,,,,,,,
1665779403.960554,1665779403.960637,102.000000,0.000000,4206.538574,4312.820313,4300.641113,4322.307617,4317.179688,4311.153809,4305.384766,4328.589844,4316.153809,4229.102539,4507.820313,4522.692383,4404.230957,4440.000000,2501.000000,2.000000,52.000000,,,,0.000000,4.000000,4.000000,4.000000,4.000000,4.000000,4.000000,4.000000,4.000000,4.000000,4.000000,4.000000,4.000000,4.000000,4.000000,100.000000,,,,,,,,,,,,,,,,,,,,,,,,,,,,,,,,,,,,,,,,,,,,,,,
1665779403.968362,1665779403.968445,103.000000,0.000000,4188.077148,4297.820313,4288.077148,4308.974121,4295.384766,4309.871582,4308.333496,4321.153809,4305.512695,4215.897461,4505.512695,4507.948730,4389.487305,4427.563965,2570.000000,2.000000,52.000000,,,,0.000000,4.000000,4.000000,4.000000,4.000000,4.000000,4.000000,4.000000,4.000000,4.000000,4.000000,4.000000,4.000000,4.000000,4.000000,100.000000,,,,,,,,,,,,,,,,,,,,,,,,,,,,,,,,,,,,,,,,,,,,,,,
1665779403.976170,1665779403.976154,104.000000,0.000000,4186.025879,4286.025879,4288.333496,4297.307617,4291.922852,4310.128418,4317.436035,4317.307617,4294.358887,4197.563965,4486.282227,4503.461426,4378.205078,4425.512695,2752.000000,2.000000,52.000000,,,,0.000000,4.000000,4.000000,4.000000,4.000000,4.000000,4.000000,4.000000,4.000000,4.000000,4.000000,4.000000,4.000000,4.000000,4.000000,100.000000,,,,,,,,,,,,,,,,,,,,,,,,,,,,,,,,,,,,,,,,,,,,,,,
1665779403.983979,1665779403.983962,105.000000,0.000000,4188.333496,4287.948730,4293.333496,4297.051270,4307.307617,4315.769043,4318.974121,4311.794922,4296.538574,4199.487305,4483.205078,4513.974121,4378.717773,4430.512695,3321.000000,2.000000,52.000000,,,,0.000000,4.000000,4.000000,4.000000,4.000000,4.000000,4.000000,4.000000,4.000000,4.000000,4.000000,4.000000,4.000000,4.000000,4.000000,100.000000,,,,,,,,,,,,,,,,,,,,,,,,,,,,,,,,,,,,,,,,,,,,,,,
1665779403.991787,1665779403.991671,106.000000,0.000000,4197.820313,4295.000000,4304.615234,4311.666504,4311.666504,4325.897461,4320.897461,4316.153809,4305.000000,4221.410156,4508.717773,4532.563965,4394.871582,4443.846191,2501.000000,2.000000,52.000000,,,,0.000000,4.000000,4.000000,4.000000,4.000000,4.000000,4.000000,4.000000,4.000000,4.000000,4.000000,4.000000,4.000000,4.000000,4.000000,100.000000,,,,,,,,,,,,,,,,,,,,,,,,,,,,,,,,,,,,,,,,,,,,,,,
1665779403.999596,1665779403.999579,107.000000,0.000000,4210.512695,4306.666504,4313.077148,4328.974121,4311.922852,4330.000000,4326.410156,4326.410156,4310.641113,4235.384766,4526.538574,4540.897461,4415.897461,4459.358887,2570.000000,2.000000,52.000000,,,,0.000000,4.000000,4.000000,4.000000,4.000000,4.000000,4.000000,4.000000,4.000000,4.000000,4.000000,4.000000,4.000000,4.000000,4.000000,100.000000,,,,,,,,,,,,,,,,,,,,,,,,,,,,,,,,,,,,,,,,,,,,,,,
1665779404.007404,1665779404.007387,108.000000,0.000000,4209.871582,4314.102539,4313.589844,4312.051270,4320.256348,4325.769043,4324.230957,4325.769043,4307.563965,4232.307617,4520.000000,4539.230957,4415.512695,4462.563965,2752.000000,2.000000,52.000000,,,,0.000000,4.000000,4.000000,4.000000,4.000000,4.000000,4.000000,4.000000,4.000000,4.000000,4.000000,4.000000,4.000000,4.000000,4.000000,100.000000,,,,,,,,,,,,,,,,,,,,,,,,,,,,,,,,,,,,,,,,,,,,,,,
1665779404.015212,1665779404.015296,109.000000,0.000000,4208.077148,4315.128418,4312.820313,4298.589844,4331.794922,4326.538574,4322.179688,4325.897461,4306.025879,4235.897461,4521.025879,4537.179688,4408.077148,4454.230957,3321.000000,2.000000,52.000000,,,,0.000000,4.000000,4.000000,4.000000,4.000000,4.000000,4.000000,4.000000,4.000000,4.000000,4.000000,4.000000,4.000000,4.000000,4.000000,100.000000,,,,,,,,,,,,,,,,,,,,,,,,,,,,,,,,,,,,,,,,,,,,,,,
1665779404.023021,1665779404.023104,110.000000,0.000000,4207.563965,4325.897461,4314.487305,4334.102539,4336.410156,4335.128418,4331.153809,4336.794922,4318.717773,4249.230957,4532.692383,4542.563965,4417.692383,4449.871582,2501.000000,2.000000,52.000000,,,,0.000000,4.000000,4.000000,4.000000,4.000000,4.000000,4.000000,4.000000,4.000000,4.000000,4.000000,4.000000,4.000000,4.000000,4.000000,100.000000,,,,,,,,,,,,,,,,,,,,,,,,,,,,,,,,,,,,,,,,,,,,,,,
1665779404.030829,1665779404.031013,111.000000,0.000000,4212.948730,4334.743652,4326.794922,4363.333496,4334.230957,4340.128418,4337.307617,4345.384766,4335.641113,4253.333496,4538.717773,4554.871582,4428.846191,4456.922852,2570.000000,2.000000,52.000000,,,,0.000000,4.000000,4.000000,4.000000,4.000000,4.000000,4.000000,4.000000,4.000000,4.000000,4.000000,4.000000,4.000000,4.000000,4.000000,100.000000,,,,,,,,,,,,,,,,,,,,,,,,,,,,,,,,,,,,,,,,,,,,,,,
1665779404.038638,1665779404.038821,112.000000,0.000000,4229.615234,4333.333496,4341.410156,4347.948730,4335.256348,4342.820313,4338.205078,4349.358887,4341.153809,4254.358887,4537.563965,4567.051270,4433.333496,4471.538574,2752.000000,2.000000,52.000000,,,,0.000000,4.000000,4.000000,4.000000,4.000000,4.000000,4.000000,4.000000,4.000000,4.000000,4.000000,4.000000,4.000000,4.000000,4.000000,100.000000,,,,,,,,,,,,,,,,,,,,,,,,,,,,,,,,,,,,,,,,,,,,,,,
1665779404.046446,1665779404.046729,113.000000,0.000000,4241.025879,4337.948730,4342.307617,4332.948730,4341.666504,4350.000000,4344.743652,4353.333496,4341.153809,4269.743652,4536.153809,4578.333496,4439.871582,4485.897461,3321.000000,2.000000,52.000000,,,,0.000000,4.000000,4.000000,4.000000,4.000000,4.000000,4.000000,4.000000,4.000000,4.000000,4.000000,4.000000,4.000000,4.000000,4.000000,100.000000,,,,,,,,,,,,,,,,,,,,,,,,,,,,,,,,,,,,,,,,,,,,,,,
1665779404.054254,1665779404.054538,114.000000,0.000000,4239.230957,4343.717773,4337.307617,4343.974121,4343.461426,4355.384766,4348.974121,4354.615234,4341.025879,4280.769043,4537.820313,4588.205078,4442.436035,4493.077148,2501.000000,2.000000,52.000000,,,,0.000000,4.000000,4.000000,4.000000,4.000000,4.000000,4.000000,4.000000,4.000000,4.000000,4.000000,4.000000,4.000000,4.000000,4.000000,100.000000,,,,,,,,,,,,,,,,,,,,,,,,,,,,,,,,,,,,,,,,,,,,,,,
1665779404.062063,1665779404.062446,115.000000,0.000000,4241.666504,4339.358887,4347.820313,4350.384766,4339.102539,4354.358887,4348.333496,4351.410156,4334.743652,4268.974121,4544.871582,4584.743652,4433.461426,4490.769043,2570.000000,2.000000,52.000000,,,,0.000000,4.000000,4.000000,4.000000,4.000000,4.000000,4.000000,4.000000,4.000000,4.000000,4.000000,4.000000,4.000000,4.000000,4.000000,100.000000,,,,,,,,,,,,,,,,,,,,,,,,,,,,,,,,,,,,,,,,,,,,,,,
1665779404.069871,1665779404.070255,116.000000,0.000000,4250.000000,4344.230957,4356.922852,4353.077148,4343.717773,4349.358887,4345.897461,4343.333496,4326.922852,4258.974121,4553.077148,4574.743652,4428.974121,4488.333496,2752.000000,2.000000,52.000000,,,,0.000000,4.000000,4.000000,4.000000,4.000000,4.000000,4.000000,4.000000,4.000000,4.000000,4.000000,4.000000,4.000000,4.000000,4.000000,100.000000,,,,,,,,,,,,,,,,,,,,,,,,,,,,,,,,,,,,,,,,,,,,,,,
1665779404.077680,1665779404.078163,117.000000,0.000000,4255.384766,4357.948730,4354.230957,4354.230957,4348.461426,4342.948730,4344.615234,4338.205078,4324.102539,4260.384766,4550.769043,4580.128418,4437.948730,4490.128418,3321.000000,2.000000,52.000000,,,,0.000000,4.000000,4.000000,4.000000,4.000000,4.000000,4.000000,4.000000,4.000000,4.000000,4.000000,4.000000,4.000000,4.000000,4.000000,100.000000,,,,,,,,,,,,,,,,,,,,,,,,,,,,,,,,,,,,,,,,,,,,,,,
1665779404.085488,1665779404.085971,118.000000,0.000000,4266.410156,4358.717773,4361.153809,4342.051270,4339.358887,4339.743652,4348.077148,4342.948730,4327.563965,4264.358887,4549.358887,4594.871582,4447.436035,4493.205078,2501.000000,2.000000,52.000000,,,,0.000000,4.000000,4.000000,4.000000,4.000000,4.000000,4.000000,4.000000,4.000000,4.000000,4.000000,4.000000,4.000000,4.000000,4.000000,100.000000,,,,,,,,,,,,,,,,,,,,,,,,,,,,,,,,,,,,,,,,,,,,,,,
1665779404.093296,1665779404.093680,119.000000,0.000000,4271.410156,4354.102539,4369.230957,4342.051270,4335.897461,4341.666504,4350.128418,4345.128418,4334.230957,4273.589844,4558.974121,4598.974121,4451.282227,4497.563965,2570.000000,2.000000,52.000000,,,,0.000000,4.000000,4.000000,4.000000,4.000000,4.000000,4.000000,4.000000,4.000000,4.000000,4.000000,4.000000,4.000000,4.000000,4.000000,100.000000,,,,,,,,,,,,,,,,,,,,,,,,,,,,,,,,,,,,,,,,,,,,,,,
1665779404.101105,1665779404.101488,120.000000,0.000000,4264.871582,4355.000000,4364.487305,4361.153809,4346.922852,4345.897461,4342.307617,4340.769043,4334.615234,4277.948730,4554.230957,4591.922852,4446.666504,4493.333496,2752.000000,2.000000,52.000000,,,,0.000000,4.000000,4.000000,4.000000,4.000000,4.000000,4.000000,4.000000,4.000000,4.000000,4.000000,4.000000,4.000000,4.000000,4.000000,100.000000,,,,,,,,,,,,,,,,,,,,,,,,,,,,,,,,,,,,,,,,,,,,,,,
1665779404.108913,1665779404.109197,121.000000,0.000000,4261.153809,4352.563965,4359.102539,4370.641113,4352.820313,4351.538574,4338.974121,4344.102539,4335.000000,4274.102539,4541.153809,4587.820313,4440.000000,4487.179688,3321.000000,2.000000,52.000000,,,,0.000000,4.000000,4.000000,4.000000,4.000000,4.000000,4.000000,4.000000,4.000000,4.000000,4.000000,4.000000,4.000000,4.000000,4.000000,100.000000,,,,,,,,,,,,,,,,,,,,,,,,,,,,,,,,,,,,,,,,,,,,,,,
1665779404.116722,1665779404.117005,122.000000,0.000000,4263.077148,4346.025879,4364.358887,4361.025879,4352.051270,4357.436035,4347.563965,4352.692383,4339.230957,4280.897461,4550.384766,4588.974121,4442.820313,4494.102539,2501.000000,2.000000,52.000000,,,,0.000000,4.000000,4.000000,4.000000,4.000000,4.000000,4.000000,4.000000,4.000000,4.000000,4.000000,4.000000,4.000000,4.000000,4.000000,100.000000,,,,,,,,,,,,,,,,,,,,,,,,,,,,,,,,,,,,,,,,,,,,,,,
1665779404.124530,1665779404.124714,123.000000,0.000000,4258.589844,4346.282227,4361.410156,4352.307617,4350.641113,4359.230957,4346.410156,4351.538574,4337.051270,4286.025879,4557.563965,4579.487305,4442.563965,4490.128418,2570.000000,2.000000,52.000000,,,,0.000000,4.000000,4.000000,4.000000,4.000000,4.000000,4.000000,4.000000,4.000000,4.000000,4.000000,4.000000,4.000000,4.000000,4.000000,100.000000,,,,,,,,,,,,,,,,,,,,,,,,,,,,,,,,,,,,,,,,,,,,,,,
1665779404.132338,1665779404.132522,124.000000,0.000000,4244.487305,4345.384766,4343.333496,4346.153809,4344.743652,4355.512695,4341.282227,4349.615234,4333.205078,4276.538574,4538.461426,4558.333496,4428.333496,4462.948730,2752.000000,2.000000,52.000000,,,,0.000000,4.000000,4.000000,4.000000,4.000000,4.000000,4.000000,4.000000,4.000000,4.000000,4.000000,4.000000,4.000000,4.000000,4.000000,100.000000,,,,,,,,,,,,,,,,,,,,,,,,,,,,,,,,,,,,,,,,,,,,,,,
1665779404.140147,1665779404.140231,125.000000,0.000000,4232.436035,4339.871582,4329.487305,4340.641113,4345.128418,4353.333496,4349.743652,4356.666504,4338.974121,4282.051270,4528.974121,4550.769043,4423.974121,4461.538574,3321.000000,2.000000,52.000000,,,,0.000000,4.000000,4.000000,4.000000,4.000000,4.000000,4.000000,4.000000,4.000000,4.000000,4.000000,4.000000,4.000000,4.000000,4.000000,100.000000,,,,,,,,,,,,,,,,,,,,,,,,,,,,,,,,,,,,,,,,,,,,,,,
1665779404.147955,1665779404.148039,126.000000,0.000000,4240.000000,4336.922852,4333.846191,4339.230957,4347.051270,4354.871582,4355.769043,4360.128418,4342.563965,4295.384766,4541.666504,4562.179688,4438.333496,4487.948730,2501.000000,2.000000,52.000000,,,,0.000000,4.000000,4.000000,4.000000,4.000000,4.000000,4.000000,4.000000,4.000000,4.000000,4.000000,4.000000,4.000000,4.000000,4.000000,100.000000,,,,,,,,,,,,,,,,,,,,,,,,,,,,,,,,,,,,,,,,,,,,,,,
1665779404.155764,1665779404.155748,127.000000,0.000000,4263.077148,4338.974121,4347.692383,4336.282227,4339.230957,4353.974121,4349.487305,4356.153809,4341.794922,4298.461426,4552.948730,4574.230957,4448.461426,4495.384766,52.000000,2.000000,52.000000,,,,0.000000,4.000000,4.000000,4.000000,4.000000,4.000000,4.000000,4.000000,4.000000,4.000000,4.000000,4.000000,4.000000,4.000000,4.000000,100.000000,,,,,,,,,,,,,,,,,,,,,,,,,,,,,,,,,,,,,,,,,,,,,,,
1665779404.163572,1665779404.163556,0.000000,0.000000,4281.794922,4338.846191,4349.230957,4344.743652,4336.538574,4350.897461,4341.025879,4353.974121,4345.512695,4305.897461,4566.538574,4578.205078,4448.077148,4495.897461,2281.000000,2.000000,52.000000,,,,0.000000,4.000000,4.000000,4.000000,4.000000,4.000000,4.000000,4.000000,4.000000,4.000000,4.000000,4.000000,4.000000,4.000000,4.000000,100.000000,,,,,,,,,,,,,,,,,,,,,,,,,,,,,,,,,,,,,,,,,,,,,,,
1665779404.171380,1665779404.171265,1.000000,0.000000,4291.538574,4328.717773,4346.538574,4352.692383,4339.743652,4350.128418,4338.077148,4355.256348,4346.153809,4311.025879,4571.282227,4581.922852,4450.769043,4508.077148,1837.000000,2.000000,52.000000,,,,0.000000,4.000000,4.000000,4.000000,4.000000,4.000000,4.000000,4.000000,4.000000,4.000000,4.000000,4.000000,4.000000,4.000000,4.000000,100.000000,,,,,,,,,,,,,,,,,,,,,,,,,,,,,,,,,,,,,,,,,,,,,,,
1665779404.179189,1665779404.179073,2.000000,0.000000,4302.948730,4321.025879,4352.179688,4337.051270,4335.897461,4350.641113,4342.692383,4358.461426,4341.794922,4300.769043,4561.410156,4585.256348,4452.179688,4504.871582,2092.000000,2.000000,52.000000,,,,0.000000,4.000000,4.000000,4.000000,4.000000,4.000000,4.000000,4.000000,4.000000,4.000000,4.000000,4.000000,4.000000,4.000000,4.000000,100.000000,,,,,,,,,,,,,,,,,,,,,,,,,,,,,,,,,,,,,,,,,,,,,,,
1665779404.186997,1665779404.186782,3.000000,0.000000,4309.358887,4321.025879,4345.641113,4327.692383,4336.538574,4350.128418,4349.358887,4358.974121,4339.230957,4295.769043,4551.025879,4577.307617,4441.922852,4489.230957,2271.000000,2.000000,52.000000,,,,0.000000,4.000000,4.000000,4.000000,4.000000,4.000000,4.000000,4.000000,4.000000,4.000000,4.000000,4.000000,4.000000,4.000000,4.000000,100.000000,,,,,,,,,,,,,,,,,,,,,,,,,,,,,,,,,,,,,,,,,,,,,,,
1665779404.194806,1665779404.194690,4.000000,0.000000,4306.922852,4319.743652,4327.307617,4342.692383,4342.436035,4350.769043,4352.820313,4359.102539,4339.743652,4296.794922,4542.436035,4564.743652,4429.871582,4487.051270,2264.000000,2.000000,52.000000,,,,0.000000,4.000000,4.000000,4.000000,4.000000,4.000000,4.000000,4.000000,4.000000,4.000000,4.000000,4.000000,4.000000,4.000000,4.000000,100.000000,,,,,,,,,,,,,,,,,,,,,,,,,,,,,,,,,,,,,,,,,,,,,,,
1665779404.202614,1665779404.202499,5.000000,0.000000,4306.666504,4322.051270,4330.897461,4341.282227,4338.461426,4356.025879,4362.692383,4367.436035,4341.153809,4285.769043,4542.948730,4565.769043,4424.358887,4485.000000,2286.000000,2.000000,52.000000,,,,0.000000,4.000000,4.000000,4.000000,4.000000,4.000000,4.000000,4.000000,4.000000,4.000000,4.000000,4.000000,4.000000,4.000000,4.000000,100.000000,1.000000,100.000000,4.000000,4.000000,4.000000,4.000000,4.000000,4.000000,4.000000,4.000000,4.000000,4.000000,4.000000,4.000000,4.000000,4.000000,1.000000,0.589850,-0.048238,-1.286526,0.127726,1.000000,0.296014,4.270929,2.105992,9.419629,0.442284,1.000000,0.262262,41.988827,-32.580723,221.791779,1.000000,0.235467,0.117753,0.069179,0.364850,1.000000,0.504856,6.852467,-6.283826,17.861132,1.000000,0.476609,0.476609,0.000000,1.000000
1665779404.210422,1665779404.210407,6.000000,0.000000,4308.461426,4322.820313,4344.487305,4321.282227,4331.282227,4358.461426,4368.461426,4370.000000,4337.307617,4277.563965,4540.641113,4562.051270,4420.769043,4467.051270,2206.000000,2.000000,52.000000,,,,0.000000,4.000000,4.000000,4.000000,4.000000,4.000000,4.000000,4.000000,4.000000,4.000000,4.000000,4.000000,4.000000,4.000000,4.000000,100.000000,,,,,,,,,,,,,,,,,,,,,,,,,,,,,,,,,,,,,,,,,,,,,,,
1665779404.218231,1665779404.218216,7.000000,0.000000,4301.794922,4313.589844,4332.179688,4324.615234,4328.974121,4349.102539,4358.205078,4356.282227,4328.846191,4275.512695,4527.948730,4542.051270,4414.358887,4454.743652,2329.000000,2.000000,52.000000,,,,0.000000,4.000000,4.000000,4.000000,4.000000,4.000000,4.000000,4.000000,4.000000,4.000000,4.000000,4.000000,4.000000,4.000000,4.000000,100.000000,,,,,,,,,,,,,,,,,,,,,,,,,,,,,,,,,,,,,,,,,,,,,,,
1665779404.226039,1665779404.226124,8.000000,0.000000,4295.641113,4305.641113,4313.974121,4335.384766,4324.487305,4341.538574,4353.846191,4348.846191,4327.436035,4277.051270,4521.922852,4539.487305,4410.769043,4458.205078,2162.000000,2.000000,52.000000,,,,0.000000,4.000000,4.000000,4.000000,4.000000,4.000000,4.000000,4.000000,4.000000,4.000000,4.000000,4.000000,4.000000,4.000000,4.000000,100.000000,,,,,,,,,,,,,,,,,,,,,,,,,,,,,,,,,,,,,,,,,,,,,,,
1665779404.233848,1665779404.233932,9.000000,0.000000,4302.179688,4305.128418,4318.589844,4333.077148,4316.794922,4347.179688,4360.256348,4360.256348,4334.615234,4279.230957,4521.025879,4554.230957,4412.051270,4461.410156,2242.000000,2.000000,52.000000,,,,0.000000,4.000000,4.000000,4.000000,4.000000,4.000000,4.000000,4.000000,4.000000,4.000000,4.000000,4.000000,4.000000,4.000000,4.000000,100.000000,,,,,,,,,,,,,,,,,,,,,,,,,,,,,,,,,,,,,,,,,,,,,,,
1665779404.241656,1665779404.241841,10.000000,0.000000,4301.025879,4303.589844,4326.153809,4332.051270,4321.538574,4351.282227,4357.820313,4369.871582,4339.743652,4279.871582,4522.179688,4548.461426,4413.461426,4463.717773,2488.000000,2.000000,52.000000,,,,0.000000,4.000000,4.000000,4.000000,4.000000,4.000000,4.000000,4.000000,4.000000,4.000000,4.000000,4.000000,4.000000,4.000000,4.000000,100.000000,,,,,,,,,,,,,,,,,,,,,,,,,,,,,,,,,,,,,,,,,,,,,,,
1665779404.249464,1665779404.249649,11.000000,0.000000,4288.974121,4308.589844,4320.512695,4329.871582,4335.512695,4345.769043,4349.615234,4366.282227,4336.153809,4284.487305,4533.974121,4533.077148,4415.512695,4469.743652,2551.000000,2.000000,52.000000,,,,0.000000,4.000000,4.000000,4.000000,4.000000,4.000000,4.000000,4.000000,4.000000,4.000000,4.000000,4.000000,4.000000,4.000000,4.000000,100.000000,,,,,,,,,,,,,,,,,,,,,,,,,,,,,,,,,,,,,,,,,,,,,,,
1665779404.257273,1665779404.257557,12.000000,0.000000,4295.000000,4314.102539,4325.000000,4327.179688,4331.922852,4340.384766,4347.051270,4365.256348,4328.333496,4285.000000,4541.410156,4537.563965,4413.205078,4469.230957,2770.000000,2.000000,52.000000,,,,0.000000,4.000000,4.000000,4.000000,4.000000,4.000000,4.000000,4.000000,4.000000,4.000000,4.000000,4.000000,4.000000,4.000000,4.000000,100.000000,,,,,,,,,,,,,,,,,,,,,,,,,,,,,,,,,,,,,,,,,,,,,,,
1665779404.265081,1665779404.265366,13.000000,0.000000,4317.179688,4312.692383,4343.589844,4338.589844,4320.256348,4337.051270,4347.948730,4368.333496,4325.897461,4278.589844,4534.743652,4545.769043,4411.922852,4462.051270,3301.000000,2.000000,52.000000,,,,0.000000,4.000000,4.000000,4.000000,4.000000,4.000000,4.000000,4.000000,4.000000,4.000000,4.000000,4.000000,4.000000,4.000000,4.000000,100.000000,,,,,,,,,,,,,,,,,,,,,,,,,,,,,,,,,,,,,,,,,,,,,,,
1665779404.272890,1665779404.273174,14.000000,0.000000,4321.153809,4318.077148,4349.487305,4348.461426,4325.641113,4332.563965,4348.846191,4363.974121,4328.974121,4276.282227,4536.922852,4543.205078,4412.436035,4460.384766,2488.000000,2.000000,52.000000,,,,0.000000,4.000000,4.000000,4.000000,4.000000,4.000000,4.000000,4.000000,4.000000,4.000000,4.000000,4.000000,4.000000,4.000000,4.000000,100.000000,,,,,,,,,,,,,,,,,,,,,,,,,,,,,,,,,,,,,,,,,,,,,,,
1665779404.280698,1665779404.280983,15.000000,0.000000,4311.538574,4319.871582,4342.307617,4330.128418,4328.333496,4333.205078,4350.769043,4357.563965,4327.948730,4279.358887,4529.487305,4541.666504,4410.769043,4461.282227,2551.000000,2.000000,52.000000,,,,0.000000,4.000000,4.000000,4.000000,4.000000,4.000000,4.000000,4.000000,4.000000,4.000000,4.000000,4.000000,4.000000,4.000000,4.000000,100.000000,,,,,,,,,,,,,,,,,,,,,,,,,,,,,,,,,,,,,,,,,,,,,,,
1665779404.288506,1665779404.288691,16.000000,0.000000,4312.820313,4311.153809,4333.077148,4313.717773,4318.333496,4337.436035,4350.897461,4358.205078,4326.282227,4278.589844,4516.025879,4541.922852,4410.641113,4465.512695,0.000000,2.000000,52.000000,,,,0.000000,4.000000,4.000000,4.000000,4.000000,4.000000,4.000000,4.000000,4.000000,4.000000,4.000000,4.000000,4.000000,4.000000,4.000000,100.000000,,,,,,,,,,,,,,,,,,,,,,,,,,,,,,,,,,,,,,,,,,,,,,,
1665779404.296315,1665779404.296500,17.000000,0.000000,4315.512695,4309.230957,4321.282227,4331.025879,4321.410156,4336.666504,4347.948730,4359.358887,4328.077148,4277.948730,4528.589844,4538.333496,4412.307617,4473.461426,0.000000,2.000000,52.000000,,,,0.000000,4.000000,4.000000,4.000000,4.000000,4.000000,4.000000,4.000000,4.000000,4.000000,4.000000,4.000000,4.000000,4.000000,4.000000,100.000000,,,,,,,,,,,,,,,,,,,,,,,,,,,,,,,,,,,,,,,,,,,,,,,
1665779404.304123,1665779404.304208,18.000000,0.000000,4311.666504,4311.410156,4313.461426,4348.974121,4329.743652,4334.743652,4341.922852,4355.512695,4326.153809,4281.794922,4532.692383,4541.538574,4412.820313,4475.256348,0.000000,2.000000,52.000000,,,,0.000000,4.000000,4.000000,4.000000,4.000000,4.000000,4.000000,4.000000,4.000000,4.000000,4.000000,4.000000,4.000000,4.000000,4.000000,100.000000,,,,,,,,,,,,,,,,,,,,,,,,,,,,,,,,,,,,,,,,,,,,,,,
1665779404.311932,1665779404.312117,19.000000,0.000000,4308.974121,4309.230957,4311.922852,4336.153809,4327.307617,4334.615234,4340.384766,4357.051270,4324.102539,4286.282227,4523.333496,4547.307617,4414.358887,4475.769043,0.000000,2.000000,52.000000,,,,0.000000,4.000000,4.000000,4.000000,4.000000,4.000000,4.000000,4.000000,4.000000,4.000000,4.000000,4.000000,4.000000,4.000000,4.000000,100.000000,,,,,,,,,,,,,,,,,,,,,,,,,,,,,,,,,,,,,,,,,,,,,,,
1665779404.319740,1665779404.319925,20.000000,0.000000,4314.102539,4311.538574,4317.436035,4325.384766,4324.358887,4335.128418,4347.948730,4363.461426,4329.871582,4291.666504,4533.974121,4544.871582,4414.615234,4477.051270,0.000000,2.000000,52.000000,,,,0.000000,4.000000,4.000000,4.000000,4.000000,4.000000,4.000000,4.000000,4.000000,4.000000,4.000000,4.000000,4.000000,4.000000,4.000000,100.000000,,,,,,,,,,,,,,,,,,,,,,,,,,,,,,,,,,,,,,,,,,,,,,,
1665779404.327548,1665779404.327833,21.000000,0.000000,4322.307617,4319.102539,4327.436035,4338.589844,4325.897461,4334.487305,4348.846191,4367.563965,4336.538574,4282.692383,4542.948730,4542.820313,4412.436035,4471.538574,0.000000,2.000000,52.000000,,,,0.000000,4.000000,4.000000,4.000000,4.000000,4.000000,4.000000,4.000000,4.000000,4.000000,4.000000,4.000000,4.000000,4.000000,4.000000,100.000000,,,,,,,,,,,,,,,,,,,,,,,,,,,,,,,,,,,,,,,,,,,,,,,
1665779404.335357,1665779404.335642,22.000000,0.000000,4323.333496,4322.948730,4325.641113,4340.512695,4328.205078,4332.692383,4341.922852,4365.897461,4335.128418,4266.538574,4527.179688,4541.410156,4413.717773,4463.589844,0.000000,2.000000,52.000000,,,,0.000000,4.000000,4.000000,4.000000,4.000000,4.000000,4.000000,4.000000,4.000000,4.000000,4.000000,4.000000,4.000000,4.000000,4.000000,100.000000,,,,,,,,,,,,,,,,,,,,,,,,,,,,,,,,,,,,,,,,,,,,,,,
1665779404.343165,1665779404.343550,23.000000,0.000000,4317.820313,4318.589844,4317.436035,4325.128418,4327.179688,4334.358887,4341.666504,4359.230957,4334.487305,4275.128418,4519.615234,4538.589844,4413.205078,4460.769043,0.000000,2.000000,52.000000,,,,0.000000,4.000000,4.000000,4.000000,4.000000,4.000000,4.000000,4.000000,4.000000,4.000000,4.000000,4.000000,4.000000,4.000000,4.000000,100.000000,,,,,,,,,,,,,,,,,,,,,,,,,,,,,,,,,,,,,,,,,,,,,,,
1665779404.350974,1665779404.351359,24.000000,0.000000,4317.307617,4312.179688,4320.384766,4331.666504,4320.512695,4335.512695,4343.717773,4355.512695,4335.256348,4289.615234,4529.102539,4543.589844,4413.461426,4461.922852,0.000000,2.000000,52.000000,,,,0.000000,4.000000,4.000000,4.000000,4.000000,4.000000,4.000000,4.000000,4.000000,4.000000,4.000000,4.000000,4.000000,4.000000,4.000000,100.000000,,,,,,,,,,,,,,,,,,,,,,,,,,,,,,,,,,,,,,,,,,,,,,,
1665779404.358782,1665779404.359167,25.000000,0.000000,4322.820313,4320.128418,4323.333496,4347.051270,4322.820313,4332.820313,4338.717773,4357.948730,4329.743652,4286.025879,4536.794922,4553.205078,4422.948730,4473.461426,0.000000,2.000000,52.000000,,,,0.000000,4.000000,4.000000,4.000000,4.000000,4.000000,4.000000,4.000000,4.000000,4.000000,4.000000,4.000000,4.000000,4.000000,4.000000,100.000000,,,,,,,,,,,,,,,,,,,,,,,,,,,,,,,,,,,,,,,,,,,,,,,
1665779404.366590,1665779404.366876,26.000000,0.000000,4328.974121,4330.384766,4325.000000,4335.256348,4330.641113,4327.820313,4334.230957,4355.769043,4324.102539,4278.846191,4538.461426,4556.666504,4425.128418,4487.051270,0.000000,2.000000,52.000000,,,,0.000000,4.000000,4.000000,4.000000,4.000000,4.000000,4.000000,4.000000,4.000000,4.000000,4.000000,4.000000,4.000000,4.000000,4.000000,100.000000,,,,,,,,,,,,,,,,,,,,,,,,,,,,,,,,,,,,,,,,,,,,,,,
1665779404.374399,1665779404.374784,27.000000,0.000000,4328.846191,4320.384766,4332.820313,4322.820313,4323.589844,4325.256348,4331.410156,4350.000000,4321.794922,4272.179688,4527.179688,4552.820313,4415.128418,4483.333496,0.000000,2.000000,52.000000,,,,0.000000,4.000000,4.000000,4.000000,4.000000,4.000000,4.000000,4.000000,4.000000,4.000000,4.000000,4.000000,4.000000,4.000000,4.000000,100.000000,,,,,,,,,,,,,,,,,,,,,,,,,,,,,,,,,,,,,,,,,,,,,,,
1665779404.382207,1665779404.382592,28.000000,0.000000,4315.512695,4309.487305,4325.641113,4328.717773,4320.000000,4329.743652,4328.589844,4353.333496,4319.230957,4265.641113,4522.692383,4540.000000,4412.051270,4471.025879,0.000000,2.000000,52.000000,,,,0.000000,4.000000,4.000000,4.000000,4.000000,4.000000,4.000000,4.000000,4.000000,4.000000,4.000000,4.000000,4.000000,4.000000,4.000000,100.000000,,,,,,,,,,,,,,,,,,,,,,,,,,,,,,,,,,,,,,,,,,,,,,,
1665779404.390016,1665779404.390501,29.000000,0.000000,4301.538574,4316.153809,4306.794922,4335.256348,4327.820313,4332.948730,4334.487305,4353.717773,4320.384766,4265.641113,4528.461426,4525.000000,4414.230957,4464.230957,0.000000,2.000000,52.000000,,,,0.000000,4.000000,4.000000,4.000000,4.000000,4.000000,4.000000,4.000000,4.000000,4.000000,4.000000,4.000000,4.000000,4.000000,4.000000,100.000000,,,,,,,,,,,,,,,,,,,,,,,,,,,,,,,,,,,,,,,,,,,,,,,
1665779404.397824,1665779404.398309,30.000000,0.000000,4304.230957,4317.820313,4306.153809,4343.205078,4318.846191,4329.230957,4337.436035,4343.974121,4320.256348,4264.743652,4518.717773,4521.794922,4410.897461,4457.179688,0.000000,2.000000,52.000000,,,,0.000000,4.000000,4.000000,4.000000,4.000000,4.000000,4.000000,4.000000,4.000000,4.000000,4.000000,4.000000,4.000000,4.000000,4.000000,100.000000,,,,,,,,,,,,,,,,,,,,,,,,,,,,,,,,,,,,,,,,,,,,,,,
1665779404.405632,1665779404.406218,31.000000,0.000000,4306.538574,4303.077148,4315.128418,4329.102539,4301.922852,4325.769043,4333.717773,4340.128418,4314.615234,4262.692383,4511.666504,4522.948730,4410.512695,4456.025879,0.000000,2.000000,52.000000,,,,0.000000,4.000000,4.000000,4.000000,4.000000,4.000000,4.000000,4.000000,4.000000,4.000000,4.000000,4.000000,4.000000,4.000000,4.000000,100.000000,,,,,,,,,,,,,,,,,,,,,,,,,,,,,,,,,,,,,,,,,,,,,,,
1665779404.413441,1665779404.414026,32.000000,0.000000,4300.256348,4301.025879,4310.769043,4305.897461,4309.615234,4324.487305,4336.025879,4343.333496,4312.948730,4268.205078,4522.563965,4527.051270,4412.307617,4469.487305,0.000000,2.000000,52.000000,,,,0.000000,4.000000,4.000000,4.000000,4.000000,4.000000,4.000000,4.000000,4.000000,4.000000,4.000000,4.000000,4.000000,4.000000,4.000000,100.000000,,,,,,,,,,,,,,,,,,,,,,,,,,,,,,,,,,,,,,,,,,,,,,,
1665779404.421249,1665779404.421934,33.000000,0.000000,4303.333496,4318.333496,4308.846191,4322.179688,4325.256348,4321.025879,4335.512695,4342.179688,4314.743652,4268.846191,4525.769043,4536.922852,4410.128418,4478.974121,0.000000,2.000000,52.000000,,,,0.000000,4.000000,4.000000,4.000000,4.000000,4.000000,4.000000,4.000000,4.000000,4.000000,4.000000,4.000000,4.000000,4.000000,4.000000,100.000000,,,,,,,,,,,,,,,,,,,,,,,,,,,,,,,,,,,,,,,,,,,,,,,
1665779404.429058,1665779404.429743,34.000000,0.000000,4314.871582,4321.538574,4321.282227,4336.666504,4321.922852,4321.666504,4328.461426,4339.102539,4311.538574,4267.051270,4516.666504,4537.948730,4411.153809,4473.333496,0.000000,2.000000,52.000000,,,,0.000000,4.000000,4.000000,4.000000,4.000000,4.000000,4.000000,4.000000,4.000000,4.000000,4.000000,4.000000,4.000000,4.000000,4.000000,100.000000,,,,,,,,,,,,,,,,,,,,,,,,,,,,,,,,,,,,,,,,,,,,,,,
1665779404.436866,1665779404.437651,35.000000,0.000000,4314.230957,4310.641113,4330.000000,4320.769043,4314.102539,4322.179688,4329.871582,4342.820313,4311.282227,4272.179688,4522.820313,4529.743652,4414.743652,4471.666504,0.000000,2.000000,52.000000,,,,0.000000,4.000000,4.000000,4.000000,4.000000,4.000000,4.000000,4.000000,4.000000,4.000000,4.000000,4.000000,4.000000,4.000000,4.000000,100.000000,,,,,,,,,,,,,,,,,,,,,,,,,,,,,,,,,,,,,,,,,,,,,,,
1665779404.444674,1665779404.445460,36.000000,0.000000,4303.717773,4316.153809,4320.256348,4326.922852,4315.128418,4312.692383,4331.153809,4342.692383,4312.820313,4268.717773,4527.051270,4521.282227,4411.282227,4475.384766,0.000000,2.000000,52.000000,,,,0.000000,4.000000,4.000000,4.000000,4.000000,4.000000,4.000000,4.000000,4.000000,4.000000,4.000000,4.000000,4.000000,4.000000,4.000000,100.000000,,,,,,,,,,,,,,,,,,,,,,,,,,,,,,,,,,,,,,,,,,,,,,,
1665779404.452483,1665779404.453168,37.000000,0.000000,4300.512695,4327.692383,4308.846191,4347.051270,4312.563965,4311.538574,4324.230957,4335.384766,4308.717773,4260.512695,4514.358887,4520.128418,4406.794922,4467.051270,0.000000,2.000000,52.000000,,,,0.000000,4.000000,4.000000,4.000000,4.000000,4.000000,4.000000,4.000000,4.000000,4.000000,4.000000,4.000000,4.000000,4.000000,4.000000,100.000000,,,,,,,,,,,,,,,,,,,,,,,,,,,,,,,,,,,,,,,,,,,,,,,
1665779404.460291,1665779404.460977,38.000000,0.000000,4307.820313,4316.153809,4321.538574,4333.333496,4301.282227,4319.871582,4328.333496,4338.717773,4312.948730,4265.769043,4510.128418,4534.487305,4409.358887,4459.487305,0.000000,2.000000,52.000000,,,,0.000000,4.000000,4.000000,4.000000,4.000000,4.000000,4.000000,4.000000,4.000000,4.000000,4.000000,4.000000,4.000000,4.000000,4.000000,100.000000,,,,,,,,,,,,,,,,,,,,,,,,,,,,,,,,,,,,,,,,,,,,,,,
1665779404.468100,1665779404.468685,39.000000,0.000000,4310.512695,4312.307617,4329.230957,4321.538574,4307.820313,4318.717773,4334.230957,4343.974121,4319.743652,4278.333496,4521.025879,4544.615234,4419.102539,4469.102539,0.000000,2.000000,52.000000,,,,0.000000,4.000000,4.000000,4.000000,4.000000,4.000000,4.000000,4.000000,4.000000,4.000000,4.000000,4.000000,4.000000,4.000000,4.000000,100.000000,,,,,,,,,,,,,,,,,,,,,,,,,,,,,,,,,,,,,,,,,,,,,,,
1665779404.475908,1665779404.476494,40.000000,0.000000,4305.769043,4329.102539,4314.230957,4334.487305,4322.820313,4317.179688,4327.820313,4336.282227,4312.307617,4279.230957,4529.487305,4535.897461,4426.794922,4481.538574,0.000000,2.000000,52.000000,,,,0.000000,4.000000,4.000000,4.000000,4.000000,4.000000,4.000000,4.000000,4.000000,4.000000,4.000000,4.000000,4.000000,4.000000,4.000000,100.000000,,,,,,,,,,,,,,,,,,,,,,,,,,,,,,,,,,,,,,,,,,,,,,,
1665779404.483716,1665779404.484202,41.000000,0.000000,4304.871582,4323.333496,4312.436035,4339.487305,4322.436035,4322.436035,4326.410156,4333.846191,4308.589844,4270.641113,4520.897461,4536.794922,4421.410156,4474.487305,0.000000,2.000000,52.000000,,,,0.000000,4.000000,4.000000,4.000000,4.000000,4.000000,4.000000,4.000000,4.000000,4.000000,4.000000,4.000000,4.000000,4.000000,4.000000,100.000000,,,,,,,,,,,,,,,,,,,,,,,,,,,,,,,,,,,,,,,,,,,,,,,
1665779404.491525,1665779404.492011,42.000000,0.000000,4309.358887,4309.487305,4323.974121,4338.461426,4320.384766,4318.717773,4325.897461,4338.461426,4313.333496,4269.102539,4517.563965,4544.871582,4412.563965,4461.666504,0.000000,2.000000,52.000000,,,,0.000000,4.000000,4.000000,4.000000,4.000000,4.000000,4.000000,4.000000,4.000000,4.000000,4.000000,4.000000,4.000000,4.000000,4.000000,100.000000,,,,,,,,,,,,,,,,,,,,,,,,,,,,,,,,,,,,,,,,,,,,,,,
1665779404.499333,1665779404.499719,43.000000,0.000000,4310.641113,4321.666504,4320.897461,4331.794922,4320.256348,4311.282227,4315.256348,4326.922852,4305.000000,4271.410156,4521.794922,4526.794922,4407.051270,4460.256348,0.000000,2.000000,52.000000,,,,0.000000,4.000000,4.000000,4.000000,4.000000,4.000000,4.000000,4.000000,4.000000,4.000000,4.000000,4.000000,4.000000,4.000000,4.000000,100.000000,,,,,,,,,,,,,,,,,,,,,,,,,,,,,,,,,,,,,,,,,,,,,,,
1665779404.507142,1665779404.507528,44.000000,0.000000,4304.871582,4333.589844,4311.025879,4327.948730,4314.102539,4313.461426,4314.230957,4313.589844,4293.461426,4262.820313,4510.000000,4503.077148,4400.000000,4460.384766,0.000000,2.000000,52.000000,,,,0.000000,4.000000,4.000000,4.000000,4.000000,4.000000,4.000000,4.000000,4.000000,4.000000,4.000000,4.000000,4.000000,4.000000,4.000000,100.000000,,,,,,,,,,,,,,,,,,,,,,,,,,,,,,,,,,,,,,,,,,,,,,,
1665779404.514950,1665779404.515236,45.000000,0.000000,4297.051270,4322.051270,4310.384766,4330.384766,4307.179688,4313.974121,4326.153809,4320.384766,4300.512695,4257.179688,4500.641113,4502.948730,4400.256348,4457.692383,0.000000,2.000000,52.000000,,,,0.000000,4.000000,4.000000,4.000000,4.000000,4.000000,4.000000,4.000000,4.000000,4.000000,4.000000,4.000000,4.000000,4.000000,4.000000,100.000000,,,,,,,,,,,,,,,,,,,,,,,,,,,,,,,,,,,,,,,,,,,,,,,
1665779404.522758,1665779404.523045,46.000000,0.000000,4295.256348,4321.410156,4308.461426,4333.589844,4308.461426,4311.666504,4327.436035,4326.666504,4310.384766,4264.102539,4513.333496,4513.974121,4411.153809,4457.563965,0.000000,2.000000,52.000000,,,,0.000000,4.000000,4.000000,4.000000,4.000000,4.000000,4.000000,4.000000,4.000000,4.000000,4.000000,4.000000,4.000000,4.000000,4.000000,100.000000,,,,,,,,,,,,,,,,,,,,,,,,,,,,,,,,,,,,,,,,,,,,,,,
1665779404.530567,1665779404.530753,47.000000,0.000000,4303.077148,4330.384766,4311.153809,4340.641113,4310.512695,4315.256348,4321.666504,4324.743652,4308.205078,4266.666504,4521.538574,4520.000000,4413.077148,4462.436035,0.000000,2.000000,52.000000,,,,0.000000,4.000000,4.000000,4.000000,4.000000,4.000000,4.000000,4.000000,4.000000,4.000000,4.000000,4.000000,4.000000,4.000000,4.000000,100.000000,,,,,,,,,,,,,,,,,,,,,,,,,,,,,,,,,,,,,,,,,,,,,,,
1665779404.538375,1665779404.538562,48.000000,0.000000,4302.692383,4319.230957,4316.794922,4337.051270,4309.102539,4316.666504,4319.743652,4324.487305,4303.461426,4261.922852,4510.769043,4515.384766,4404.230957,4458.589844,0.000000,2.000000,52.000000,,,,0.000000,4.000000,4.000000,4.000000,4.000000,4.000000,4.000000,4.000000,4.000000,4.000000,4.000000,4.000000,4.000000,4.000000,4.000000,100.000000,,,,,,,,,,,,,,,,,,,,,,,,,,,,,,,,,,,,,,,,,,,,,,,
1665779404.546184,1665779404.546270,49.000000,0.000000,4283.077148,4308.333496,4301.282227,4321.282227,4310.000000,4308.974121,4314.358887,4322.307617,4301.025879,4263.461426,4498.333496,4500.384766,4396.666504,4446.025879,0.000000,2.000000,52.000000,,,,0.000000,4.000000,4.000000,4.000000,4.000000,4.000000,4.000000,4.000000,4.000000,4.000000,4.000000,4.000000,4.000000,4.000000,4.000000,100.000000,,,,,,,,,,,,,,,,,,,,,,,,,,,,,,,,,,,,,,,,,,,,,,,
1665779404.553992,1665779404.554079,50.000000,0.000000,4273.974121,4311.666504,4288.717773,4316.282227,4311.794922,4305.256348,4309.102539,4318.846191,4298.333496,4261.922852,4493.461426,4495.512695,4388.974121,4440.769043,0.000000,2.000000,52.000000,,,,0.000000,4.000000,4.000000,4.000000,4.000000,4.000000,4.000000,4.000000,4.000000,4.000000,4.000000,4.000000,4.000000,4.000000,4.000000,100.000000,,,,,,,,,,,,,,,,,,,,,,,,,,,,,,,,,,,,,,,,,,,,,,,
1665779404.561800,1665779404.561787,51.000000,0.000000,4280.128418,4315.769043,4297.948730,4331.410156,4312.692383,4310.128418,4311.410156,4318.333496,4294.743652,4252.948730,4502.307617,4505.769043,4389.615234,4443.717773,0.000000,2.000000,52.000000,,,,0.000000,4.000000,4.000000,4.000000,4.000000,4.000000,4.000000,4.000000,4.000000,4.000000,4.000000,4.000000,4.000000,4.000000,4.000000,100.000000,,,,,,,,,,,,,,,,,,,,,,,,,,,,,,,,,,,,,,,,,,,,,,,
1665779404.569609,1665779404.569696,52.000000,0.000000,4281.153809,4312.307617,4312.051270,4331.153809,4305.256348,4310.769043,4313.589844,4319.358887,4293.077148,4248.974121,4511.153809,4506.922852,4396.538574,4445.512695,0.000000,2.000000,52.000000,,,,0.000000,4.000000,4.000000,4.000000,4.000000,4.000000,4.000000,4.000000,4.000000,4.000000,4.000000,4.000000,4.000000,4.000000,4.000000,100.000000,,,,,,,,,,,,,,,,,,,,,,,,,,,,,,,,,,,,,,,,,,,,,,,
1665779404.577417,1665779404.577504,53.000000,0.000000,4279.615234,4305.384766,4315.641113,4310.769043,4295.769043,4304.102539,4312.948730,4321.282227,4295.512695,4247.692383,4493.846191,4503.846191,4395.769043,4444.230957,0.000000,2.000000,52.000000,,,,0.000000,4.000000,4.000000,4.000000,4.000000,4.000000,4.000000,4.000000,4.000000,4.000000,4.000000,4.000000,4.000000,4.000000,4.000000,100.000000,,,,,,,,,,,,,,,,,,,,,,,,,,,,,,,,,,,,,,,,,,,,,,,
1665779404.585226,1665779404.585412,54.000000,0.000000,4277.179688,4304.615234,4303.974121,4308.974121,4297.692383,4303.077148,4314.871582,4322.948730,4298.333496,4247.179688,4483.461426,4507.692383,4394.871582,4445.512695,0.000000,2.000000,52.000000,,,,0.000000,4.000000,4.000000,4.000000,4.000000,4.000000,4.000000,4.000000,4.000000,4.000000,4.000000,4.000000,4.000000,4.000000,4.000000,100.000000,,,,,,,,,,,,,,,,,,,,,,,,,,,,,,,,,,,,,,,,,,,,,,,
1665779404.593034,1665779404.593221,55.000000,0.000000,4265.384766,4305.641113,4288.589844,4322.692383,4309.358887,4307.179688,4317.692383,4320.256348,4299.871582,4258.077148,4502.436035,4507.563965,4398.461426,4443.717773,0.000000,2.000000,52.000000,,,,0.000000,4.000000,4.000000,4.000000,4.000000,4.000000,4.000000,4.000000,4.000000,4.000000,4.000000,4.000000,4.000000,4.000000,4.000000,100.000000,,,,,,,,,,,,,,,,,,,,,,,,,,,,,,,,,,,,,,,,,,,,,,,
1665779404.600843,1665779404.601129,56.000000,0.000000,4265.641113,4304.102539,4293.974121,4329.743652,4311.282227,4310.897461,4326.794922,4322.948730,4300.897461,4263.589844,4506.410156,4512.820313,4397.820313,4444.230957,0.000000,2.000000,52.000000,,,,0.000000,4.000000,4.000000,4.000000,4.000000,4.000000,4.000000,4.000000,4.000000,4.000000,4.000000,4.000000,4.000000,4.000000,4.000000,100.000000,,,,,,,,,,,,,,,,,,,,,,,,,,,,,,,,,,,,,,,,,,,,,,,
1665779404.608651,1665779404.608938,57.000000,0.000000,4276.666504,4297.436035,4313.077148,4323.974121,4304.743652,4309.487305,4330.000000,4327.563965,4300.128418,4251.025879,4494.102539,4522.307617,4392.563965,4450.769043,0.000000,2.000000,52.000000,,,,0.000000,4.000000,4.000000,4.000000,4.000000,4.000000,4.000000,4.000000,4.000000,4.000000,4.000000,4.000000,4.000000,4.000000,4.000000,100.000000,,,,,,,,,,,,,,,,,,,,,,,,,,,,,,,,,,,,,,,,,,,,,,,
1665779404.616459,1665779404.616846,58.000000,0.000000,4268.846191,4296.153809,4309.615234,4322.948730,4309.230957,4301.410156,4315.512695,4317.563965,4292.692383,4250.256348,4496.794922,4513.846191,4384.743652,4450.256348,0.000000,2.000000,52.000000,,,,0.000000,4.000000,4.000000,4.000000,4.000000,4.000000,4.000000,4.000000,4.000000,4.000000,4.000000,4.000000,4.000000,4.000000,4.000000,100.000000,,,,,,,,,,,,,,,,,,,,,,,,,,,,,,,,,,,,,,,,,,,,,,,
1665779404.624268,1665779404.624654,59.000000,0.000000,4256.025879,4298.589844,4295.256348,4322.563965,4307.692383,4299.102539,4311.153809,4309.487305,4288.974121,4261.794922,4501.153809,4503.589844,4378.461426,4438.717773,0.000000,2.000000,52.000000,,,,0.000000,4.000000,4.000000,4.000000,4.000000,4.000000,4.000000,4.000000,4.000000,4.000000,4.000000,4.000000,4.000000,4.000000,4.000000,100.000000,,,,,,,,,,,,,,,,,,,,,,,,,,,,,,,,,,,,,,,,,,,,,,,
1665779404.632076,1665779404.632563,60.000000,0.000000,4259.615234,4295.000000,4297.179688,4319.230957,4299.230957,4303.846191,4318.974121,4313.205078,4293.717773,4254.487305,4490.000000,4509.230957,4378.589844,4429.871582,0.000000,2.000000,52.000000,,,,0.000000,4.000000,4.000000,4.000000,4.000000,4.000000,4.000000,4.000000,4.000000,4.000000,4.000000,4.000000,4.000000,4.000000,4.000000,100.000000,,,,,,,,,,,,,,,,,,,,,,,,,,,,,,,,,,,,,,,,,,,,,,,
1665779404.639885,1665779404.640371,61.000000,0.000000,4258.589844,4297.051270,4296.153809,4322.307617,4305.128418,4303.333496,4316.025879,4311.922852,4295.897461,4251.538574,4487.820313,4508.461426,4385.897461,4434.230957,0.000000,2.000000,52.000000,,,,0.000000,4.000000,4.000000,4.000000,4.000000,4.000000,4.000000,4.000000,4.000000,4.000000,4.000000,4.000000,4.000000,4.000000,4.000000,100.000000,,,,,,,,,,,,,,,,,,,,,,,,,,,,,,,,,,,,,,,,,,,,,,,
1665779404.647693,1665779404.648279,62.000000,0.000000,4252.820313,4302.307617,4290.128418,4308.717773,4308.205078,4301.794922,4312.692383,4310.512695,4295.000000,4263.717773,4496.025879,4501.025879,4390.769043,4436.410156,0.000000,2.000000,52.000000,,,,0.000000,4.000000,4.000000,4.000000,4.000000,4.000000,4.000000,4.000000,4.000000,4.000000,4.000000,4.000000,4.000000,4.000000,4.000000,100.000000,,,,,,,,,,,,,,,,,,,,,,,,,,,,,,,,,,,,,,,,,,,,,,,
1665779404.655501,1665779404.656088,63.000000,0.000000,4259.487305,4302.051270,4296.153809,4296.025879,4300.641113,4302.179688,4315.256348,4318.205078,4297.820313,4258.077148,4488.846191,4504.102539,4391.153809,4433.717773,0.000000,2.000000,52.000000,,,,0.000000,4.000000,4.000000,4.000000,4.000000,4.000000,4.000000,4.000000,4.000000,4.000000,4.000000,4.000000,4.000000,4.000000,4.000000,100.000000,,,,,,,,,,,,,,,,,,,,,,,,,,,,,,,,,,,,,,,,,,,,,,,
1665779404.663310,1665779404.663796,64.000000,0.000000,4267.436035,4301.410156,4303.974121,4315.256348,4306.282227,4296.025879,4311.666504,4322.563965,4298.717773,4251.025879,4489.615234,4507.692383,4390.128418,4440.384766,2259.000000,2.000000,52.000000,,,,0.000000,4.000000,4.000000,4.000000,4.000000,4.000000,4.000000,4.000000,4.000000,4.000000,4.000000,4.000000,4.000000,4.000000,4.000000,100.000000,,,,,,,,,,,,,,,,,,,,,,,,,,,,,,,,,,,,,,,,,,,,,,,
1665779404.671118,1665779404.671605,65.000000,0.000000,4261.922852,4307.307617,4299.102539,4334.230957,4317.948730,4292.563965,4310.384766,4320.000000,4295.256348,4265.128418,4506.410156,4505.641113,4389.230957,4447.179688,1912.000000,2.000000,52.000000,,,,0.000000,4.000000,4.000000,4.000000,4.000000,4.000000,4.000000,4.000000,4.000000,4.000000,4.000000,4.000000,4.000000,4.000000,4.000000,100.000000,,,,,,,,,,,,,,,,,,,,,,,,,,,,,,,,,,,,,,,,,,,,,,,
1665779404.678927,1665779404.679313,66.000000,0.000000,4258.717773,4304.615234,4305.000000,4328.589844,4309.871582,4304.487305,4316.922852,4319.358887,4296.025879,4272.307617,4514.358887,4506.282227,4392.820313,4443.461426,2085.000000,2.000000,52.000000,,,,0.000000,4.000000,4.000000,4.000000,4.000000,4.000000,4.000000,4.000000,4.000000,4.000000,4.000000,4.000000,4.000000,4.000000,4.000000,100.000000,,,,,,,,,,,,,,,,,,,,,,,,,,,,,,,,,,,,,,,,,,,,,,,
1665779404.686735,1665779404.687122,67.000000,0.000000,4269.102539,4297.179688,4321.410156,4323.333496,4301.410156,4311.410156,4317.051270,4319.871582,4299.102539,4261.922852,4502.820313,4510.128418,4397.563965,4441.410156,2329.000000,2.000000,52.000000,,,,0.000000,4.000000,4.000000,4.000000,4.000000,4.000000,4.000000,4.000000,4.000000,4.000000,4.000000,4.000000,4.000000,4.000000,4.000000,100.000000,,,,,,,,,,,,,,,,,,,,,,,,,,,,,,,,,,,,,,,,,,,,,,,
1665779404.694543,1665779404.694830,68.000000,0.000000,4269.102539,4302.563965,4316.666504,4321.282227,4310.512695,4306.666504,4312.051270,4316.794922,4299.102539,4260.897461,4493.974121,4511.153809,4397.563965,4441.282227,2242.000000,2.000000,52.000000,,,,0.000000,4.000000,4.000000,4.000000,4.000000,4.000000,4.000000,4.000000,4.000000,4.000000,4.000000,4.000000,4.000000,4.000000,4.000000,100.000000,,,,,,,,,,,,,,,,,,,,,,,,,,,,,,,,,,,,,,,,,,,,,,,
1665779404.702352,1665779404.702639,69.000000,0.000000,4257.051270,4306.282227,4299.487305,4317.948730,4313.333496,4305.512695,4307.820313,4310.256348,4296.666504,4265.641113,4493.205078,4506.025879,4390.128418,4430.641113,2311.000000,2.000000,52.000000,,,,0.000000,4.000000,4.000000,4.000000,4.000000,4.000000,4.000000,4.000000,4.000000,4.000000,4.000000,4.000000,4.000000,4.000000,4.000000,100.000000,1.000000,100.000000,4.000000,4.000000,4.000000,4.000000,4.000000,4.000000,4.000000,4.000000,4.000000,4.000000,4.000000,4.000000,4.000000,4.000000,1.000000,0.611255,-0.169342,-1.286249,0.127566,1.000000,0.313649,4.399906,2.105992,9.419629,0.441117,1.000000,0.270015,43.967918,-32.607513,221.719193,1.000000,0.231488,0.129998,0.069200,0.364750,1.000000,0.519533,6.826927,-6.278523,17.855484,1.000000,0.480222,0.480222,0.000000,1.000000
1665779404.710160,1665779404.710347,70.000000,0.000000,4258.333496,4298.846191,4294.743652,4312.307617,4302.307617,4309.871582,4306.282227,4305.769043,4292.563965,4261.153809,4490.128418,4501.666504,4382.051270,4426.922852,2214.000000,2.000000,52.000000,,,,0.000000,4.000000,4.000000,4.000000,4.000000,4.000000,4.000000,4.000000,4.000000,4.000000,4.000000,4.000000,4.000000,4.000000,4.000000,100.000000,,,,,,,,,,,,,,,,,,,,,,,,,,,,,,,,,,,,,,,,,,,,,,,
1665779404.717969,1665779404.718256,71.000000,0.000000,4264.102539,4292.948730,4304.743652,4310.384766,4296.410156,4309.871582,4308.205078,4309.487305,4294.358887,4261.025879,4490.128418,4503.461426,4382.948730,4437.948730,2326.000000,2.000000,52.000000,,,,0.000000,4.000000,4.000000,4.000000,4.000000,4.000000,4.000000,4.000000,4.000000,4.000000,4.000000,4.000000,4.000000,4.000000,4.000000,100.000000,,,,,,,,,,,,,,,,,,,,,,,,,,,,,,,,,,,,,,,,,,,,,,,
1665779404.725777,1665779404.726064,72.000000,0.000000,4251.282227,4295.512695,4309.487305,4312.436035,4308.205078,4307.820313,4306.282227,4313.205078,4295.128418,4268.589844,4492.820313,4506.025879,4388.461426,4445.128418,2169.000000,2.000000,52.000000,,,,0.000000,4.000000,4.000000,4.000000,4.000000,4.000000,4.000000,4.000000,4.000000,4.000000,4.000000,4.000000,4.000000,4.000000,4.000000,100.000000,,,,,,,,,,,,,,,,,,,,,,,,,,,,,,,,,,,,,,,,,,,,,,,
1665779404.733585,1665779404.733873,73.000000,0.000000,4266.282227,4298.205078,4303.461426,4314.871582,4311.410156,4309.743652,4305.641113,4312.051270,4286.538574,4268.205078,4494.358887,4506.282227,4386.794922,4442.948730,2262.000000,2.000000,52.000000,,,,0.000000,4.000000,4.000000,4.000000,4.000000,4.000000,4.000000,4.000000,4.000000,4.000000,4.000000,4.000000,4.000000,4.000000,4.000000,100.000000,,,,,,,,,,,,,,,,,,,,,,,,,,,,,,,,,,,,,,,,,,,,,,,
1665779404.741394,1665779404.741581,74.000000,0.000000,4344.743652,4297.051270,4313.205078,4328.461426,4297.820313,4312.436035,4311.666504,4314.358887,4280.512695,4259.358887,4492.436035,4507.692383,4380.384766,4444.743652,2540.000000,2.000000,52.000000,,,,0.000000,4.000000,4.000000,4.000000,4.000000,4.000000,4.000000,4.000000,4.000000,4.000000,4.000000,4.000000,4.000000,4.000000,4.000000,100.000000,,,,,,,,,,,,,,,,,,,,,,,,,,,,,,,,,,,,,,,,,,,,,,,
1665779404.749202,1665779404.749490,75.000000,0.000000,4411.794922,4304.487305,4325.256348,4333.205078,4300.000000,4316.794922,4316.410156,4316.025879,4286.922852,4260.128418,4493.205078,4508.333496,4383.717773,4446.538574,2556.000000,2.000000,52.000000,,,,0.000000,4.000000,4.000000,4.000000,4.000000,4.000000,4.000000,4.000000,4.000000,4.000000,4.000000,4.000000,4.000000,4.000000,4.000000,100.000000,,,,,,,,,,,,,,,,,,,,,,,,,,,,,,,,,,,,,,,,,,,,,,,
1665779404.757011,1665779404.757298,76.000000,0.000000,4415.641113,4314.871582,4312.179688,4318.205078,4314.487305,4323.974121,4311.410156,4311.794922,4291.666504,4267.307617,4496.153809,4507.179688,4389.487305,4436.282227,2765.000000,2.000000,52.000000,,,,0.000000,4.000000,4.000000,4.000000,4.000000,4.000000,4.000000,4.000000,4.000000,4.000000,4.000000,4.000000,4.000000,4.000000,4.000000,100.000000,,,,,,,,,,,,,,,,,,,,,,,,,,,,,,,,,,,,,,,,,,,,,,,
1665779404.764819,1665779404.765206,77.000000,0.000000,4406.025879,4313.205078,4298.974121,4322.563965,4314.102539,4328.589844,4300.384766,4307.563965,4285.000000,4266.922852,4494.615234,4508.589844,4390.128418,4431.282227,3278.000000,2.000000,52.000000,,,,0.000000,4.000000,4.000000,4.000000,4.000000,4.000000,4.000000,4.000000,4.000000,4.000000,4.000000,4.000000,4.000000,4.000000,4.000000,100.000000,,,,,,,,,,,,,,,,,,,,,,,,,,,,,,,,,,,,,,,,,,,,,,,
1665779404.772627,1665779404.773015,78.000000,0.000000,4411.922852,4310.256348,4304.487305,4326.666504,4310.000000,4323.974121,4295.128418,4306.922852,4286.153809,4262.692383,4488.974121,4510.769043,4390.000000,4443.589844,2540.000000,2.000000,52.000000,,,,0.000000,4.000000,4.000000,4.000000,4.000000,4.000000,4.000000,4.000000,4.000000,4.000000,4.000000,4.000000,4.000000,4.000000,4.000000,100.000000,,,,,,,,,,,,,,,,,,,,,,,,,,,,,,,,,,,,,,,,,,,,,,,
1665779404.780436,1665779404.780923,79.000000,0.000000,4410.000000,4311.410156,4306.282227,4311.410156,4313.846191,4317.948730,4295.128418,4309.358887,4293.974121,4264.615234,4488.205078,4503.717773,4386.794922,4448.333496,2556.000000,2.000000,52.000000,,,,0.000000,4.000000,4.000000,4.000000,4.000000,4.000000,4.000000,4.000000,4.000000,4.000000,4.000000,4.000000,4.000000,4.000000,4.000000,100.000000,,,,,,,,,,,,,,,,,,,,,,,,,,,,,,,,,,,,,,,,,,,,,,,
1665779404.788244,1665779404.788732,80.000000,0.000000,4396.666504,4304.358887,4301.794922,4328.205078,4305.897461,4317.820313,4296.025879,4308.205078,4290.000000,4268.717773,4495.512695,4492.563965,4383.205078,4437.307617,2765.000000,2.000000,52.000000,,,,0.000000,4.000000,4.000000,4.000000,4.000000,4.000000,4.000000,4.000000,4.000000,4.000000,4.000000,4.000000,4.000000,4.000000,4.000000,100.000000,,,,,,,,,,,,,,,,,,,,,,,,,,,,,,,,,,,,,,,,,,,,,,,
1665779404.796053,1665779404.796640,81.000000,0.000000,4386.410156,4291.153809,4301.410156,4332.692383,4290.512695,4316.666504,4296.666504,4300.897461,4279.615234,4261.153809,4488.974121,4490.000000,4379.487305,4432.307617,3278.000000,2.000000,52.000000,,,,0.000000,4.000000,4.000000,4.000000,4.000000,4.000000,4.000000,4.000000,4.000000,4.000000,4.000000,4.000000,4.000000,4.000000,4.000000,100.000000,,,,,,,,,,,,,,,,,,,,,,,,,,,,,,,,,,,,,,,,,,,,,,,
1665779404.803861,1665779404.804448,82.000000,0.000000,4373.717773,4287.563965,4293.333496,4283.717773,4292.179688,4314.102539,4294.230957,4295.512695,4277.692383,4249.102539,4475.384766,4487.563965,4370.897461,4431.025879,2540.000000,2.000000,52.000000,,,,0.000000,4.000000,4.000000,4.000000,4.000000,4.000000,4.000000,4.000000,4.000000,4.000000,4.000000,4.000000,4.000000,4.000000,4.000000,100.000000,,,,,,,,,,,,,,,,,,,,,,,,,,,,,,,,,,,,,,,,,,,,,,,
1665779404.811669,1665779404.812357,83.000000,0.000000,4369.615234,4292.948730,4291.025879,4293.589844,4297.051270,4316.538574,4297.051270,4303.077148,4287.307617,4254.358887,4483.589844,4490.128418,4370.641113,4425.128418,2556.000000,2.000000,52.000000,,,,0.000000,4.000000,4.000000,4.000000,4.000000,4.000000,4.000000,4.000000,4.000000,4.000000,4.000000,4.000000,4.000000,4.000000,4.000000,100.000000,,,,,,,,,,,,,,,,,,,,,,,,,,,,,,,,,,,,,,,,,,,,,,,
1665779404.819478,1665779404.820165,84.000000,0.000000,4384.743652,4296.666504,4311.410156,4332.820313,4293.974121,4325.128418,4305.897461,4312.307617,4295.512695,4270.128418,4497.820313,4511.538574,4389.615234,4431.666504,2765.000000,2.000000,52.000000,,,,0.000000,4.000000,4.000000,4.000000,4.000000,4.000000,4.000000,4.000000,4.000000,4.000000,4.000000,4.000000,4.000000,4.000000,4.000000,100.000000,,,,,,,,,,,,,,,,,,,,,,,,,,,,,,,,,,,,,,,,,,,,,,,
1665779404.827286,1665779404.828074,85.000000,0.000000,4393.205078,4301.922852,4321.153809,4313.846191,4301.666504,4333.717773,4304.615234,4311.410156,4296.794922,4276.794922,4495.641113,4527.820313,4405.897461,4446.282227,3278.000000,2.000000,52.000000,,,,0.000000,4.000000,4.000000,4.000000,4.000000,4.000000,4.000000,4.000000,4.000000,4.000000,4.000000,4.000000,4.000000,4.000000,4.000000,100.000000,,,,,,,,,,,,,,,,,,,,,,,,,,,,,,,,,,,,,,,,,,,,,,,
1665779404.835095,1665779404.835882,86.000000,0.000000,4380.897461,4308.717773,4309.358887,4311.025879,4314.615234,4335.897461,4297.692383,4307.436035,4293.717773,4276.410156,4498.205078,4515.769043,4402.436035,4450.128418,2540.000000,2.000000,52.000000,,,,0.000000,4.000000,4.000000,4.000000,4.000000,4.000000,4.000000,4.000000,4.000000,4.000000,4.000000,4.000000,4.000000,4.000000,4.000000,100.000000,,,,,,,,,,,,,,,,,,,,,,,,,,,,,,,,,,,,,,,,,,,,,,,
1665779404.842903,1665779404.843591,87.000000,0.000000,4370.512695,4307.436035,4307.051270,4334.615234,4312.436035,4334.743652,4304.102539,4306.538574,4292.948730,4278.461426,4506.922852,4503.333496,4394.358887,4447.820313,2556.000000,2.000000,52.000000,,,,0.000000,4.000000,4.000000,4.000000,4.000000,4.000000,4.000000,4.000000,4.000000,4.000000,4.000000,4.000000,4.000000,4.000000,4.000000,100.000000,,,,,,,,,,,,,,,,,,,,,,,,,,,,,,,,,,,,,,,,,,,,,,,
1665779404.850711,1665779404.851399,88.000000,0.000000,4374.871582,4302.307617,4318.846191,4323.589844,4307.179688,4336.410156,4313.589844,4313.077148,4295.897461,4279.871582,4501.410156,4513.846191,4396.666504,4449.743652,2765.000000,2.000000,52.000000,,,,0.000000,4.000000,4.000000,4.000000,4.000000,4.000000,4.000000,4.000000,4.000000,4.000000,4.000000,4.000000,4.000000,4.000000,4.000000,100.000000,,,,,,,,,,,,,,,,,,,,,,,,,,,,,,,,,,,,,,,,,,,,,,,
1665779404.858520,1665779404.859108,89.000000,0.000000,4378.846191,4306.538574,4319.230957,4311.410156,4310.384766,4337.948730,4313.205078,4322.948730,4300.256348,4278.589844,4500.897461,4525.769043,4399.615234,4449.358887,3278.000000,2.000000,52.000000,,,,0.000000,4.000000,4.000000,4.000000,4.000000,4.000000,4.000000,4.000000,4.000000,4.000000,4.000000,4.000000,4.000000,4.000000,4.000000,100.000000,,,,,,,,,,,,,,,,,,,,,,,,,,,,,,,,,,,,,,,,,,,,,,,
1665779404.866328,1665779404.866916,90.000000,0.000000,4377.820313,4310.897461,4315.512695,4320.128418,4309.871582,4334.871582,4310.256348,4321.410156,4302.307617,4277.307617,4507.436035,4521.538574,4390.897461,4445.769043,2540.000000,2.000000,52.000000,,,,0.000000,4.000000,4.000000,4.000000,4.000000,4.000000,4.000000,4.000000,4.000000,4.000000,4.000000,4.000000,4.000000,4.000000,4.000000,100.000000,,,,,,,,,,,,,,,,,,,,,,,,,,,,,,,,,,,,,,,,,,,,,,,
1665779404.874137,1665779404.874625,91.000000,0.000000,4374.615234,4306.922852,4315.769043,4324.871582,4306.666504,4333.589844,4305.256348,4313.205078,4298.846191,4276.538574,4498.461426,4509.615234,4385.256348,4440.641113,2556.000000,2.000000,52.000000,,,,0.000000,4.000000,4.000000,4.000000,4.000000,4.000000,4.000000,4.000000,4.000000,4.000000,4.000000,4.000000,4.000000,4.000000,4.000000,100.000000,,,,,,,,,,,,,,,,,,,,,,,,,,,,,,,,,,,,,,,,,,,,,,,
1665779404.881945,1665779404.882533,92.000000,0.000000,4369.871582,4307.563965,4308.077148,4326.153809,4308.589844,4333.846191,4294.871582,4308.205078,4295.128418,4277.307617,4488.077148,4503.077148,4392.051270,4431.922852,2765.000000,2.000000,52.000000,,,,0.000000,4.000000,4.000000,4.000000,4.000000,4.000000,4.000000,4.000000,4.000000,4.000000,4.000000,4.000000,4.000000,4.000000,4.000000,100.000000,,,,,,,,,,,,,,,,,,,,,,,,,,,,,,,,,,,,,,,,,,,,,,,
1665779404.889753,1665779404.890341,93.000000,0.000000,4373.077148,4307.820313,4307.436035,4321.153809,4308.333496,4335.384766,4295.512695,4309.230957,4295.512695,4278.846191,4492.051270,4507.179688,4393.717773,4433.461426,3278.000000,2.000000,52.000000,,,,0.000000,4.000000,4.000000,4.000000,4.000000,4.000000,4.000000,4.000000,4.000000,4.000000,4.000000,4.000000,4.000000,4.000000,4.000000,100.000000,,,,,,,,,,,,,,,,,,,,,,,,,,,,,,,,,,,,,,,,,,,,,,,
1665779404.897562,1665779404.898250,94.000000,0.000000,4377.179688,4306.410156,4310.641113,4319.358887,4307.563965,4339.102539,4307.820313,4315.000000,4297.563965,4278.974121,4492.948730,4508.589844,4384.487305,4439.102539,2540.000000,2.000000,52.000000,,,,0.000000,4.000000,4.000000,4.000000,4.000000,4.000000,4.000000,4.000000,4.000000,4.000000,4.000000,4.000000,4.000000,4.000000,4.000000,100.000000,,,,,,,,,,,,,,,,,,,,,,,,,,,,,,,,,,,,,,,,,,,,,,,
1665779404.905370,1665779404.906058,95.000000,0.000000,4364.743652,4307.820313,4300.256348,4330.256348,4308.974121,4339.358887,4309.358887,4316.794922,4297.692383,4277.692383,4488.461426,4498.333496,4381.153809,4432.051270,2556.000000,2.000000,52.000000,,,,0.000000,4.000000,4.000000,4.000000,4.000000,4.000000,4.000000,4.000000,4.000000,4.000000,4.000000,4.000000,4.000000,4.000000,4.000000,100.000000,,,,,,,,,,,,,,,,,,,,,,,,,,,,,,,,,,,,,,,,,,,,,,,
1665779404.913179,1665779404.913966,96.000000,0.000000,4347.051270,4302.820313,4296.922852,4321.922852,4310.769043,4338.205078,4305.000000,4313.974121,4296.666504,4276.922852,4491.410156,4490.641113,4380.641113,4423.333496,2765.000000,2.000000,52.000000,,,,0.000000,4.000000,4.000000,4.000000,4.000000,4.000000,4.000000,4.000000,4.000000,4.000000,4.000000,4.000000,4.000000,4.000000,4.000000,100.000000,,,,,,,,,,,,,,,,,,,,,,,,,,,,,,,,,,,,,,,,,,,,,,,
1665779404.920987,1665779404.921775,97.000000,0.000000,4335.256348,4292.179688,4298.589844,4306.794922,4313.846191,4335.256348,4305.769043,4310.384766,4294.102539,4274.871582,4489.615234,4490.641113,4376.922852,4425.512695,3278.000000,2.000000,52.000000,,,,0.000000,4.000000,4.000000,4.000000,4.000000,4.000000,4.000000,4.000000,4.000000,4.000000,4.000000,4.000000,4.000000,4.000000,4.000000,100.000000,,,,,,,,,,,,,,,,,,,,,,,,,,,,,,,,,,,,,,,,,,,,,,,
1665779404.928795,1665779404.929583,98.000000,0.000000,4330.512695,4287.692383,4286.410156,4311.794922,4311.282227,4328.589844,4301.410156,4305.256348,4288.461426,4274.358887,4488.974121,4489.487305,4377.563965,4428.333496,2540.000000,2.000000,52.000000,,,,0.000000,4.000000,4.000000,4.000000,4.000000,4.000000,4.000000,4.000000,4.000000,4.000000,4.000000,4.000000,4.000000,4.000000,4.000000,100.000000,,,,,,,,,,,,,,,,,,,,,,,,,,,,,,,,,,,,,,,,,,,,,,,
1665779404.936604,1665779404.937292,99.000000,0.000000,4337.563965,4291.666504,4285.000000,4308.974121,4301.025879,4326.153809,4298.846191,4299.102539,4280.897461,4279.358887,4496.538574,4491.153809,4381.538574,4428.974121,2556.000000,2.000000,52.000000,,,,0.000000,4.000000,4.000000,4.000000,4.000000,4.000000,4.000000,4.000000,4.000000,4.000000,4.000000,4.000000,4.000000,4.000000,4.000000,100.000000,,,,,,,,,,,,,,,,,,,,,,,,,,,,,,,,,,,,,,,,,,,,,,,
1665779404.944412,1665779404.945100,100.000000,0.000000,4346.666504,4293.461426,4297.179688,4307.563965,4299.358887,4326.794922,4301.410156,4296.794922,4277.692383,4281.025879,4492.051270,4493.974121,4383.974121,4431.410156,2765.000000,2.000000,52.000000,,,,0.000000,4.000000,4.000000,4.000000,4.000000,4.000000,4.000000,4.000000,4.000000,4.000000,4.000000,4.000000,4.000000,4.000000,4.000000,100.000000,,,,,,,,,,,,,,,,,,,,,,,,,,,,,,,,,,,,,,,,,,,,,,,
1665779404.952221,1665779404.952809,101.000000,0.000000,4348.333496,4296.538574,4296.538574,4322.179688,4307.820313,4325.128418,4296.410156,4297.692383,4278.717773,4280.897461,4487.692383,4492.692383,4383.717773,4431.538574,3278.000000,2.000000,52.000000,,,,0.000000,4.000000,4.000000,4.000000,4.000000,4.000000,4.000000,4.000000,4.000000,4.000000,4.000000,4.000000,4.000000,4.000000,4.000000,100.000000,,,,,,,,,,,,,,,,,,,,,,,,,,,,,,,,,,,,,,,,,,,,,,,
1665779404.960029,1665779404.960617,102.000000,0.000000,4353.846191,4300.384766,4302.051270,4324.358887,4311.025879,4327.948730,4297.051270,4303.589844,4279.743652,4284.743652,4502.051270,4501.025879,4383.461426,4437.307617,2540.000000,2.000000,52.000000,,,,0.000000,4.000000,4.000000,4.000000,4.000000,4.000000,4.000000,4.000000,4.000000,4.000000,4.000000,4.000000,4.000000,4.000000,4.000000,100.000000,,,,,,,,,,,,,,,,,,,,,,,,,,,,,,,,,,,,,,,,,,,,,,,
1665779404.967837,1665779404.968326,103.000000,0.000000,4364.102539,4304.871582,4317.820313,4319.615234,4310.641113,4331.538574,4306.025879,4311.282227,4280.384766,4285.769043,4504.358887,4510.128418,4381.538574,4441.538574,2556.000000,2.000000,52.000000,,,,0.000000,4.000000,4.000000,4.000000,4.000000,4.000000,4.000000,4.000000,4.000000,4.000000,4.000000,4.000000,4.000000,4.000000,4.000000,100.000000,,,,,,,,,,,,,,,,,,,,,,,,,,,,,,,,,,,,,,,,,,,,,,,
1665779404.975646,1665779404.976234,104.000000,0.000000,4367.820313,4308.461426,4318.077148,4326.153809,4312.307617,4327.692383,4302.436035,4311.025879,4281.282227,4282.307617,4496.025879,4505.384766,4382.051270,4443.846191,2765.000000,2.000000,52.000000,,,,0.000000,4.000000,4.000000,4.000000,4.000000,4.000000,4.000000,4.000000,4.000000,4.000000,4.000000,4.000000,4.000000,4.000000,4.000000,100.000000,,,,,,,,,,,,,,,,,,,,,,,,,,,,,,,,,,,,,,,,,,,,,,,
1665779404.983454,1665779404.984043,105.000000,0.000000,4377.307617,4303.589844,4319.102539,4328.205078,4310.000000,4324.102539,4301.025879,4313.077148,4287.436035,4284.102539,4504.615234,4503.589844,4383.974121,4448.589844,3278.000000,2.000000,52.000000,,,,0.000000,4.000000,4.000000,4.000000,4.000000,4.000000,4.000000,4.000000,4.000000,4.000000,4.000000,4.000000,4.000000,4.000000,4.000000,100.000000,,,,,,,,,,,,,,,,,,,,,,,,,,,,,,,,,,,,,,,,,,,,,,,
1665779404.991263,1665779404.991951,106.000000,0.000000,4392.307617,4293.333496,4323.589844,4321.025879,4304.615234,4328.974121,4311.922852,4318.461426,4293.461426,4289.230957,4502.692383,4505.384766,4376.538574,4438.077148,2540.000000,2.000000,52.000000,,,,0.000000,4.000000,4.000000,4.000000,4.000000,4.000000,4.000000,4.000000,4.000000,4.000000,4.000000,4.000000,4.000000,4.000000,4.000000,100.000000,,,,,,,,,,,,,,,,,,,,,,,,,,,,,,,,,,,,,,,,,,,,,,,
1665779404.999071,1665779404.999759,107.000000,0.000000,4402.948730,4292.948730,4310.128418,4318.846191,4302.820313,4330.256348,4311.794922,4314.487305,4291.153809,4288.333496,4486.922852,4497.692383,4371.922852,4429.230957,2556.000000,2.000000,52.000000,,,,0.000000,4.000000,4.000000,4.000000,4.000000,4.000000,4.000000,4.000000,4.000000,4.000000,4.000000,4.000000,4.000000,4.000000,4.000000,100.000000,,,,,,,,,,,,,,,,,,,,,,,,,,,,,,,,,,,,,,,,,,,,,,,
