title:Psychopy_Shane_Earphones_Blinking, start timestamp:1665780221.570651, stop timestamp:1665780282.577763, headset type:EPOCX, headset serial:E2020A42, headset firmware:720, channels:86, sampling rate:eeg_128;pm_2, samples:7814      , version:2.1, 
Timestamp,OriginalTimestamp,EEG.Counter,EEG.Interpolated,EEG.AF3,EEG.F7,EEG.F3,EEG.FC5,EEG.T7,EEG.P7,EEG.O1,EEG.O2,EEG.P8,EEG.T8,EEG.FC6,EEG.F4,EEG.F8,EEG.AF4,EEG.RawCq,EEG.Battery,EEG.BatteryPercent,MarkerIndex,MarkerType,MarkerValueInt,EEG.MarkerHardware,CQ.AF3,CQ.F7,CQ.F3,CQ.FC5,CQ.T7,CQ.P7,CQ.O1,CQ.O2,CQ.P8,CQ.T8,CQ.FC6,CQ.F4,CQ.F8,CQ.AF4,CQ.Overall,EQ.SampleRateQuality,EQ.OVERALL,EQ.AF3,EQ.F7,EQ.F3,EQ.FC5,EQ.T7,EQ.P7,EQ.O1,EQ.O2,EQ.P8,EQ.T8,EQ.FC6,EQ.F4,EQ.F8,EQ.AF4,PM.Engagement.IsActive,PM.Engagement.Scaled,PM.Engagement.Raw,PM.Engagement.Min,PM.Engagement.Max,PM.Excitement.IsActive,PM.Excitement.Scaled,PM.Excitement.Raw,PM.Excitement.Min,PM.Excitement.Max,PM.LongTermExcitement,PM.Stress.IsActive,PM.Stress.Scaled,PM.Stress.Raw,PM.Stress.Min,PM.Stress.Max,PM.Relaxation.IsActive,PM.Relaxation.Scaled,PM.Relaxation.Raw,PM.Relaxation.Min,PM.Relaxation.Max,PM.Interest.IsActive,PM.Interest.Scaled,PM.Interest.Raw,PM.Interest.Min,PM.Interest.Max,PM.Focus.IsActive,PM.Focus.Scaled,PM.Focus.Raw,PM.Focus.Min,PM.Focus.Max
1665780221.570651,1665780221.571310,107.000000,0.000000,4295.641113,4277.307617,4296.025879,4311.538574,4300.256348,4333.717773,4279.230957,4291.410156,4296.538574,4278.205078,4457.051270,4472.051270,4360.384766,4394.743652,2636.000000,2.000000,50.000000,,,,0.000000,4.000000,4.000000,4.000000,4.000000,4.000000,4.000000,4.000000,4.000000,2.000000,4.000000,4.000000,4.000000,4.000000,4.000000,83.333336,,,,,,,,,,,,,,,,,,,,,,,,,,,,,,,,,,,,,,,,,,,,,,,
1665780221.578460,1665780221.579018,108.000000,0.000000,4299.358887,4276.666504,4303.461426,4311.025879,4305.000000,4333.333496,4285.384766,4300.897461,4303.717773,4279.102539,4461.794922,4478.461426,4362.051270,4400.641113,2833.000000,2.000000,50.000000,,,,0.000000,4.000000,4.000000,4.000000,4.000000,4.000000,4.000000,4.000000,4.000000,2.000000,4.000000,4.000000,4.000000,4.000000,4.000000,83.333336,,,,,,,,,,,,,,,,,,,,,,,,,,,,,,,,,,,,,,,,,,,,,,,
1665780221.586268,1665780221.586827,109.000000,0.000000,4309.615234,4287.179688,4313.974121,4312.307617,4300.384766,4334.230957,4295.769043,4313.589844,4309.743652,4281.025879,4470.512695,4491.153809,4372.948730,4412.307617,3074.000000,2.000000,50.000000,,,,0.000000,4.000000,4.000000,4.000000,4.000000,4.000000,4.000000,4.000000,4.000000,2.000000,4.000000,4.000000,4.000000,4.000000,4.000000,83.333336,,,,,,,,,,,,,,,,,,,,,,,,,,,,,,,,,,,,,,,,,,,,,,,
1665780221.594077,1665780221.594535,110.000000,0.000000,4314.230957,4298.974121,4320.384766,4311.922852,4296.153809,4338.205078,4298.717773,4321.794922,4309.615234,4280.769043,4480.000000,4501.538574,4382.051270,4412.051270,2661.000000,2.000000,50.000000,,,,0.000000,4.000000,4.000000,4.000000,4.000000,4.000000,4.000000,4.000000,4.000000,2.000000,4.000000,4.000000,4.000000,4.000000,4.000000,83.333336,,,,,,,,,,,,,,,,,,,,,,,,,,,,,,,,,,,,,,,,,,,,,,,
1665780221.601885,1665780221.602344,111.000000,0.000000,4310.000000,4294.102539,4316.666504,4308.717773,4296.282227,4342.307617,4296.922852,4317.051270,4311.153809,4281.410156,4476.025879,4498.333496,4381.666504,4407.563965,2636.000000,2.000000,50.000000,,,,0.000000,4.000000,4.000000,4.000000,4.000000,4.000000,4.000000,4.000000,4.000000,2.000000,4.000000,4.000000,4.000000,4.000000,4.000000,83.333336,,,,,,,,,,,,,,,,,,,,,,,,,,,,,,,,,,,,,,,,,,,,,,,
1665780221.609694,1665780221.610052,112.000000,0.000000,4309.487305,4282.563965,4303.974121,4306.922852,4294.230957,4342.307617,4293.205078,4310.512695,4310.512695,4278.461426,4463.717773,4491.153809,4372.820313,4409.230957,2833.000000,2.000000,50.000000,,,,0.000000,4.000000,4.000000,4.000000,4.000000,4.000000,4.000000,4.000000,4.000000,2.000000,4.000000,4.000000,4.000000,4.000000,4.000000,83.333336,,,,,,,,,,,,,,,,,,,,,,,,,,,,,,,,,,,,,,,,,,,,,,,
1665780221.617502,1665780221.617961,113.000000,0.000000,4309.102539,4280.641113,4294.487305,4306.538574,4293.077148,4345.769043,4290.128418,4306.666504,4302.820313,4277.563965,4459.871582,4491.025879,4366.025879,4411.538574,3074.000000,2.000000,50.000000,,,,0.000000,4.000000,4.000000,4.000000,4.000000,4.000000,4.000000,4.000000,4.000000,2.000000,4.000000,4.000000,4.000000,4.000000,4.000000,83.333336,,,,,,,,,,,,,,,,,,,,,,,,,,,,,,,,,,,,,,,,,,,,,,,
1665780221.625310,1665780221.625769,114.000000,0.000000,4303.717773,4281.922852,4298.077148,4303.589844,4300.256348,4350.512695,4291.922852,4303.077148,4302.307617,4281.025879,4460.512695,4489.358887,4364.102539,4410.769043,2661.000000,2.000000,50.000000,,,,0.000000,4.000000,4.000000,4.000000,4.000000,4.000000,4.000000,4.000000,4.000000,2.000000,4.000000,4.000000,4.000000,4.000000,4.000000,83.333336,,,,,,,,,,,,,,,,,,,,,,,,,,,,,,,,,,,,,,,,,,,,,,,
1665780221.633119,1665780221.633677,115.000000,0.000000,4300.641113,4279.230957,4303.589844,4304.743652,4307.436035,4350.256348,4296.153809,4300.256348,4305.000000,4278.589844,4459.743652,4482.820313,4362.307617,4407.692383,2636.000000,2.000000,50.000000,,,,0.000000,4.000000,4.000000,4.000000,4.000000,4.000000,4.000000,4.000000,4.000000,2.000000,4.000000,4.000000,4.000000,4.000000,4.000000,83.333336,,,,,,,,,,,,,,,,,,,,,,,,,,,,,,,,,,,,,,,,,,,,,,,
1665780221.640927,1665780221.641486,116.000000,0.000000,4299.487305,4276.922852,4298.077148,4309.871582,4306.410156,4351.410156,4296.538574,4298.205078,4299.487305,4268.333496,4460.897461,4476.666504,4358.333496,4401.153809,2833.000000,2.000000,50.000000,,,,0.000000,4.000000,4.000000,4.000000,4.000000,4.000000,4.000000,4.000000,4.000000,2.000000,4.000000,4.000000,4.000000,4.000000,4.000000,83.333336,,,,,,,,,,,,,,,,,,,,,,,,,,,,,,,,,,,,,,,,,,,,,,,
1665780221.648736,1665780221.649394,117.000000,0.000000,4297.692383,4281.282227,4293.333496,4303.974121,4299.743652,4350.128418,4294.230957,4294.743652,4296.538574,4261.794922,4457.307617,4475.512695,4357.436035,4395.897461,3074.000000,2.000000,50.000000,,,,0.000000,4.000000,4.000000,4.000000,4.000000,4.000000,4.000000,4.000000,4.000000,2.000000,4.000000,4.000000,4.000000,4.000000,4.000000,83.333336,,,,,,,,,,,,,,,,,,,,,,,,,,,,,,,,,,,,,,,,,,,,,,,
1665780221.656544,1665780221.657203,118.000000,0.000000,4303.205078,4290.000000,4302.436035,4298.333496,4296.794922,4345.384766,4293.589844,4291.666504,4301.410156,4266.410156,4456.153809,4479.487305,4366.538574,4401.025879,2661.000000,2.000000,50.000000,,,,0.000000,4.000000,4.000000,4.000000,4.000000,4.000000,4.000000,4.000000,4.000000,2.000000,4.000000,4.000000,4.000000,4.000000,4.000000,83.333336,,,,,,,,,,,,,,,,,,,,,,,,,,,,,,,,,,,,,,,,,,,,,,,
1665780221.664352,1665780221.665011,119.000000,0.000000,4314.358887,4294.871582,4312.436035,4307.436035,4297.307617,4347.436035,4294.230957,4292.436035,4300.769043,4274.871582,4468.717773,4490.512695,4375.897461,4409.871582,2636.000000,2.000000,50.000000,,,,0.000000,4.000000,4.000000,4.000000,4.000000,4.000000,4.000000,4.000000,4.000000,2.000000,4.000000,4.000000,4.000000,4.000000,4.000000,83.333336,,,,,,,,,,,,,,,,,,,,,,,,,,,,,,,,,,,,,,,,,,,,,,,
1665780221.672161,1665780221.672720,120.000000,0.000000,4318.589844,4292.307617,4311.282227,4313.589844,4296.922852,4354.230957,4294.102539,4296.794922,4300.641113,4280.897461,4474.871582,4502.179688,4378.333496,4416.282227,2833.000000,2.000000,50.000000,,,,0.000000,4.000000,4.000000,4.000000,4.000000,4.000000,4.000000,4.000000,4.000000,2.000000,4.000000,4.000000,4.000000,4.000000,4.000000,83.333336,,,,,,,,,,,,,,,,,,,,,,,,,,,,,,,,,,,,,,,,,,,,,,,
1665780221.679969,1665780221.680628,121.000000,0.000000,4320.897461,4289.230957,4310.256348,4312.436035,4300.641113,4351.153809,4290.641113,4304.871582,4307.820313,4285.769043,4472.948730,4505.769043,4381.794922,4422.820313,3074.000000,2.000000,50.000000,,,,0.000000,4.000000,4.000000,4.000000,4.000000,4.000000,4.000000,4.000000,4.000000,2.000000,4.000000,4.000000,4.000000,4.000000,4.000000,83.333336,,,,,,,,,,,,,,,,,,,,,,,,,,,,,,,,,,,,,,,,,,,,,,,
1665780221.687778,1665780221.688436,122.000000,0.000000,4326.538574,4290.897461,4315.384766,4318.461426,4307.051270,4341.666504,4288.589844,4311.922852,4312.051270,4291.538574,4484.615234,4506.153809,4385.384766,4430.641113,2661.000000,2.000000,50.000000,,,,0.000000,4.000000,4.000000,4.000000,4.000000,4.000000,4.000000,4.000000,4.000000,2.000000,4.000000,4.000000,4.000000,4.000000,4.000000,83.333336,,,,,,,,,,,,,,,,,,,,,,,,,,,,,,,,,,,,,,,,,,,,,,,
1665780221.695586,1665780221.696345,123.000000,0.000000,4326.538574,4294.358887,4324.102539,4323.846191,4309.358887,4341.538574,4292.692383,4318.974121,4314.487305,4293.717773,4495.384766,4508.717773,4387.563965,4433.205078,2636.000000,2.000000,50.000000,,,,0.000000,4.000000,4.000000,4.000000,4.000000,4.000000,4.000000,4.000000,4.000000,2.000000,4.000000,4.000000,4.000000,4.000000,4.000000,83.333336,,,,,,,,,,,,,,,,,,,,,,,,,,,,,,,,,,,,,,,,,,,,,,,
1665780221.703395,1665780221.704153,124.000000,0.000000,4326.538574,4303.974121,4328.461426,4319.230957,4308.333496,4350.512695,4298.717773,4327.179688,4317.436035,4291.666504,4494.615234,4511.666504,4391.922852,4430.769043,2833.000000,2.000000,50.000000,,,,0.000000,4.000000,4.000000,4.000000,4.000000,4.000000,4.000000,4.000000,4.000000,2.000000,4.000000,4.000000,4.000000,4.000000,4.000000,83.333336,,,,,,,,,,,,,,,,,,,,,,,,,,,,,,,,,,,,,,,,,,,,,,,
1665780221.711203,1665780221.712061,125.000000,0.000000,4328.077148,4308.717773,4320.128418,4314.102539,4309.487305,4352.051270,4296.666504,4323.589844,4311.410156,4290.256348,4492.692383,4508.846191,4389.230957,4427.563965,3074.000000,2.000000,50.000000,,,,0.000000,4.000000,4.000000,4.000000,4.000000,4.000000,4.000000,4.000000,4.000000,2.000000,4.000000,4.000000,4.000000,4.000000,4.000000,83.333336,,,,,,,,,,,,,,,,,,,,,,,,,,,,,,,,,,,,,,,,,,,,,,,
1665780221.719011,1665780221.719870,126.000000,0.000000,4325.128418,4300.000000,4310.256348,4309.743652,4309.102539,4346.153809,4291.538574,4309.743652,4304.871582,4284.871582,4486.666504,4504.487305,4382.179688,4425.000000,2661.000000,2.000000,50.000000,,,,0.000000,4.000000,4.000000,4.000000,4.000000,4.000000,4.000000,4.000000,4.000000,2.000000,4.000000,4.000000,4.000000,4.000000,4.000000,83.333336,,,,,,,,,,,,,,,,,,,,,,,,,,,,,,,,,,,,,,,,,,,,,,,
1665780221.726820,1665780221.727778,127.000000,0.000000,4327.563965,4298.846191,4311.538574,4310.512695,4307.692383,4354.615234,4296.666504,4308.589844,4308.077148,4284.615234,4478.974121,4507.436035,4389.358887,4426.794922,50.000000,2.000000,50.000000,,,,0.000000,4.000000,4.000000,4.000000,4.000000,4.000000,4.000000,4.000000,4.000000,2.000000,4.000000,4.000000,4.000000,4.000000,4.000000,83.333336,,,,,,,,,,,,,,,,,,,,,,,,,,,,,,,,,,,,,,,,,,,,,,,
1665780221.734628,1665780221.735587,0.000000,0.000000,4335.769043,4308.846191,4313.333496,4323.205078,4313.846191,4367.948730,4301.922852,4312.820313,4312.436035,4295.384766,4479.743652,4507.179688,4395.641113,4430.128418,2356.000000,2.000000,50.000000,,,,0.000000,4.000000,4.000000,4.000000,4.000000,4.000000,4.000000,4.000000,4.000000,2.000000,4.000000,4.000000,4.000000,4.000000,4.000000,83.333336,,,,,,,,,,,,,,,,,,,,,,,,,,,,,,,,,,,,,,,,,,,,,,,
1665780221.742437,1665780221.743495,1.000000,0.000000,4331.410156,4308.077148,4309.102539,4329.487305,4318.589844,4364.230957,4298.333496,4302.563965,4313.461426,4298.205078,4478.077148,4498.461426,4382.692383,4427.563965,2381.000000,2.000000,50.000000,,,,0.000000,4.000000,4.000000,4.000000,4.000000,4.000000,4.000000,4.000000,4.000000,2.000000,4.000000,4.000000,4.000000,4.000000,4.000000,83.333336,,,,,,,,,,,,,,,,,,,,,,,,,,,,,,,,,,,,,,,,,,,,,,,
1665780221.750245,1665780221.751303,2.000000,0.000000,4319.487305,4297.820313,4308.077148,4319.743652,4312.948730,4353.333496,4295.000000,4296.538574,4312.436035,4284.230957,4472.307617,4485.897461,4366.794922,4421.153809,2267.000000,2.000000,50.000000,,,,0.000000,4.000000,4.000000,4.000000,4.000000,4.000000,4.000000,4.000000,4.000000,2.000000,4.000000,4.000000,4.000000,4.000000,4.000000,83.333336,,,,,,,,,,,,,,,,,,,,,,,,,,,,,,,,,,,,,,,,,,,,,,,
1665780221.758053,1665780221.759012,3.000000,0.000000,4313.846191,4294.358887,4308.846191,4311.410156,4306.025879,4352.948730,4298.333496,4301.794922,4307.820313,4274.487305,4471.282227,4476.410156,4363.589844,4411.666504,2334.000000,2.000000,50.000000,,,,0.000000,4.000000,4.000000,4.000000,4.000000,4.000000,4.000000,4.000000,4.000000,2.000000,4.000000,4.000000,4.000000,4.000000,4.000000,83.333336,,,,,,,,,,,,,,,,,,,,,,,,,,,,,,,,,,,,,,,,,,,,,,,
1665780221.765862,1665780221.766820,4.000000,0.000000,4311.794922,4295.384766,4309.487305,4312.051270,4305.384766,4355.641113,4302.692383,4302.051270,4306.153809,4275.769043,4468.974121,4477.436035,4363.846191,4404.871582,2306.000000,2.000000,50.000000,,,,0.000000,4.000000,4.000000,4.000000,4.000000,4.000000,4.000000,4.000000,4.000000,2.000000,4.000000,4.000000,4.000000,4.000000,4.000000,83.333336,,,,,,,,,,,,,,,,,,,,,,,,,,,,,,,,,,,,,,,,,,,,,,,
1665780221.773670,1665780221.774529,5.000000,0.000000,4314.102539,4299.743652,4313.974121,4312.948730,4306.794922,4353.333496,4303.205078,4303.205078,4309.743652,4277.179688,4467.563965,4488.846191,4364.102539,4405.384766,2329.000000,2.000000,50.000000,,,,0.000000,4.000000,4.000000,4.000000,4.000000,4.000000,4.000000,4.000000,4.000000,2.000000,4.000000,4.000000,4.000000,4.000000,4.000000,83.333336,1.000000,83.333336,4.000000,4.000000,4.000000,4.000000,4.000000,4.000000,4.000000,4.000000,2.000000,4.000000,4.000000,4.000000,4.000000,4.000000,1.000000,0.519122,-0.922973,-1.379914,0.201204,1.000000,0.148168,2.748933,1.792000,8.250425,0.241108,1.000000,0.235456,25.909599,-30.960415,184.090652,1.000000,0.168298,0.130187,0.093147,0.311225,1.000000,0.401257,3.728683,-3.856798,14.543272,1.000000,0.384457,0.384457,0.000000,1.000000
1665780221.781479,1665780221.782337,6.000000,0.000000,4319.871582,4298.461426,4313.077148,4310.384766,4306.666504,4352.179688,4297.948730,4310.128418,4310.769043,4281.538574,4473.717773,4493.974121,4372.179688,4410.769043,2140.000000,2.000000,50.000000,,,,0.000000,4.000000,4.000000,4.000000,4.000000,4.000000,4.000000,4.000000,4.000000,2.000000,4.000000,4.000000,4.000000,4.000000,4.000000,83.333336,,,,,,,,,,,,,,,,,,,,,,,,,,,,,,,,,,,,,,,,,,,,,,,
1665780221.789287,1665780221.790046,7.000000,0.000000,4320.897461,4285.897461,4307.820313,4308.846191,4305.769043,4352.948730,4291.922852,4311.794922,4313.333496,4292.692383,4477.307617,4490.769043,4379.743652,4420.000000,2097.000000,2.000000,50.000000,,,,0.000000,4.000000,4.000000,4.000000,4.000000,4.000000,4.000000,4.000000,4.000000,2.000000,4.000000,4.000000,4.000000,4.000000,4.000000,83.333336,,,,,,,,,,,,,,,,,,,,,,,,,,,,,,,,,,,,,,,,,,,,,,,
1665780221.797095,1665780221.797854,8.000000,0.000000,4323.077148,4283.846191,4309.230957,4313.589844,4307.563965,4352.948730,4293.077148,4313.333496,4319.743652,4301.922852,4475.512695,4499.230957,4380.769043,4428.974121,1052.000000,2.000000,50.000000,,,,0.000000,4.000000,4.000000,4.000000,4.000000,4.000000,4.000000,4.000000,4.000000,2.000000,4.000000,4.000000,4.000000,4.000000,4.000000,83.333336,,,,,,,,,,,,,,,,,,,,,,,,,,,,,,,,,,,,,,,,,,,,,,,
1665780221.804904,1665780221.805563,9.000000,0.000000,4324.871582,4292.179688,4312.948730,4320.256348,4311.922852,4351.666504,4292.307617,4319.871582,4317.436035,4300.256348,4481.922852,4508.589844,4380.000000,4430.384766,2374.000000,2.000000,50.000000,,,,0.000000,4.000000,4.000000,4.000000,4.000000,4.000000,4.000000,4.000000,4.000000,2.000000,4.000000,4.000000,4.000000,4.000000,4.000000,83.333336,,,,,,,,,,,,,,,,,,,,,,,,,,,,,,,,,,,,,,,,,,,,,,,
1665780221.812712,1665780221.813371,10.000000,0.000000,4322.563965,4293.717773,4312.307617,4320.128418,4311.538574,4350.128418,4291.282227,4321.794922,4310.641113,4295.256348,4487.820313,4502.051270,4379.358887,4427.692383,2655.000000,2.000000,50.000000,,,,0.000000,4.000000,4.000000,4.000000,4.000000,4.000000,4.000000,4.000000,4.000000,2.000000,4.000000,4.000000,4.000000,4.000000,4.000000,83.333336,,,,,,,,,,,,,,,,,,,,,,,,,,,,,,,,,,,,,,,,,,,,,,,
1665780221.820521,1665780221.821080,11.000000,0.000000,4321.922852,4292.307617,4312.307617,4320.256348,4307.436035,4350.256348,4297.563965,4318.205078,4310.769043,4294.871582,4483.077148,4493.333496,4375.000000,4427.307617,2635.000000,2.000000,50.000000,,,,0.000000,4.000000,4.000000,4.000000,4.000000,4.000000,4.000000,4.000000,4.000000,2.000000,4.000000,4.000000,4.000000,4.000000,4.000000,83.333336,,,,,,,,,,,,,,,,,,,,,,,,,,,,,,,,,,,,,,,,,,,,,,,
1665780221.828329,1665780221.828888,12.000000,0.000000,4321.153809,4295.897461,4313.589844,4321.153809,4309.358887,4353.333496,4307.948730,4314.871582,4312.563965,4292.051270,4476.666504,4494.230957,4375.512695,4427.820313,2835.000000,2.000000,50.000000,,,,0.000000,4.000000,4.000000,4.000000,4.000000,4.000000,4.000000,4.000000,4.000000,2.000000,4.000000,4.000000,4.000000,4.000000,4.000000,83.333336,,,,,,,,,,,,,,,,,,,,,,,,,,,,,,,,,,,,,,,,,,,,,,,
1665780221.836137,1665780221.836597,13.000000,0.000000,4318.974121,4296.410156,4311.538574,4314.871582,4310.512695,4357.436035,4312.563965,4309.743652,4308.205078,4287.179688,4475.256348,4496.410156,4383.589844,4426.794922,3069.000000,2.000000,50.000000,,,,0.000000,4.000000,4.000000,4.000000,4.000000,4.000000,4.000000,4.000000,4.000000,2.000000,4.000000,4.000000,4.000000,4.000000,4.000000,83.333336,,,,,,,,,,,,,,,,,,,,,,,,,,,,,,,,,,,,,,,,,,,,,,,
1665780221.843946,1665780221.844405,14.000000,0.000000,4322.307617,4293.974121,4308.846191,4314.102539,4303.461426,4355.128418,4305.000000,4300.256348,4302.820313,4289.102539,4473.717773,4492.692383,4384.102539,4427.307617,2655.000000,2.000000,50.000000,,,,0.000000,4.000000,4.000000,4.000000,4.000000,4.000000,4.000000,4.000000,4.000000,2.000000,4.000000,4.000000,4.000000,4.000000,4.000000,83.333336,,,,,,,,,,,,,,,,,,,,,,,,,,,,,,,,,,,,,,,,,,,,,,,
1665780221.851754,1665780221.852114,15.000000,0.000000,4326.538574,4292.051270,4308.717773,4323.461426,4303.589844,4352.307617,4296.922852,4297.948730,4304.358887,4294.743652,4473.205078,4496.282227,4380.897461,4433.974121,2635.000000,2.000000,50.000000,,,,0.000000,4.000000,4.000000,4.000000,4.000000,4.000000,4.000000,4.000000,4.000000,2.000000,4.000000,4.000000,4.000000,4.000000,4.000000,83.333336,,,,,,,,,,,,,,,,,,,,,,,,,,,,,,,,,,,,,,,,,,,,,,,
1665780221.859563,1665780221.860022,16.000000,0.000000,4327.179688,4290.641113,4309.743652,4325.897461,4317.948730,4354.615234,4298.717773,4305.384766,4309.230957,4297.563965,4474.871582,4501.410156,4380.897461,4441.538574,0.000000,2.000000,50.000000,,,,0.000000,4.000000,4.000000,4.000000,4.000000,4.000000,4.000000,4.000000,4.000000,2.000000,4.000000,4.000000,4.000000,4.000000,4.000000,83.333336,,,,,,,,,,,,,,,,,,,,,,,,,,,,,,,,,,,,,,,,,,,,,,,
1665780221.867371,1665780221.867831,17.000000,0.000000,4326.410156,4294.871582,4309.358887,4323.846191,4325.512695,4353.461426,4298.205078,4310.512695,4310.641113,4296.538574,4473.461426,4500.256348,4380.384766,4441.153809,0.000000,2.000000,50.000000,,,,0.000000,4.000000,4.000000,4.000000,4.000000,4.000000,4.000000,4.000000,4.000000,2.000000,4.000000,4.000000,4.000000,4.000000,4.000000,83.333336,,,,,,,,,,,,,,,,,,,,,,,,,,,,,,,,,,,,,,,,,,,,,,,
1665780221.875179,1665780221.875739,18.000000,0.000000,4323.333496,4296.794922,4312.307617,4324.487305,4317.820313,4344.230957,4293.846191,4313.974121,4311.794922,4294.230957,4479.230957,4500.769043,4378.846191,4439.743652,0.000000,2.000000,50.000000,,,,0.000000,4.000000,4.000000,4.000000,4.000000,4.000000,4.000000,4.000000,4.000000,2.000000,4.000000,4.000000,4.000000,4.000000,4.000000,83.333336,,,,,,,,,,,,,,,,,,,,,,,,,,,,,,,,,,,,,,,,,,,,,,,
1665780221.882988,1665780221.883548,19.000000,0.000000,4322.179688,4299.230957,4321.922852,4324.871582,4310.128418,4339.615234,4302.563965,4322.692383,4316.794922,4298.717773,4489.743652,4507.051270,4383.077148,4442.820313,0.000000,2.000000,50.000000,,,,0.000000,4.000000,4.000000,4.000000,4.000000,4.000000,4.000000,4.000000,4.000000,2.000000,4.000000,4.000000,4.000000,4.000000,4.000000,83.333336,,,,,,,,,,,,,,,,,,,,,,,,,,,,,,,,,,,,,,,,,,,,,,,
1665780221.890796,1665780221.891456,20.000000,0.000000,4327.179688,4306.922852,4328.461426,4325.256348,4310.641113,4345.512695,4312.307617,4328.974121,4319.615234,4305.128418,4490.512695,4516.794922,4393.205078,4444.102539,0.000000,2.000000,50.000000,,,,0.000000,4.000000,4.000000,4.000000,4.000000,4.000000,4.000000,4.000000,4.000000,2.000000,4.000000,4.000000,4.000000,4.000000,4.000000,83.333336,,,,,,,,,,,,,,,,,,,,,,,,,,,,,,,,,,,,,,,,,,,,,,,
1665780221.898605,1665780221.899264,21.000000,0.000000,4329.487305,4306.794922,4327.820313,4327.692383,4312.948730,4352.948730,4306.794922,4328.717773,4319.230957,4303.974121,4484.487305,4524.358887,4396.410156,4442.820313,0.000000,2.000000,50.000000,,,,0.000000,4.000000,4.000000,4.000000,4.000000,4.000000,4.000000,4.000000,4.000000,2.000000,4.000000,4.000000,4.000000,4.000000,4.000000,83.333336,,,,,,,,,,,,,,,,,,,,,,,,,,,,,,,,,,,,,,,,,,,,,,,
1665780221.906413,1665780221.907173,22.000000,0.000000,4326.922852,4299.871582,4325.128418,4329.615234,4311.922852,4350.641113,4299.743652,4327.820313,4320.000000,4300.897461,4478.461426,4520.769043,4386.153809,4444.743652,0.000000,2.000000,50.000000,,,,0.000000,4.000000,4.000000,4.000000,4.000000,4.000000,4.000000,4.000000,4.000000,2.000000,4.000000,4.000000,4.000000,4.000000,4.000000,83.333336,,,,,,,,,,,,,,,,,,,,,,,,,,,,,,,,,,,,,,,,,,,,,,,
1665780221.914222,1665780221.914981,23.000000,0.000000,4322.563965,4294.871582,4320.512695,4328.461426,4309.102539,4342.948730,4297.179688,4325.897461,4318.205078,4299.615234,4473.333496,4506.922852,4373.589844,4444.743652,0.000000,2.000000,50.000000,,,,0.000000,4.000000,4.000000,4.000000,4.000000,4.000000,4.000000,4.000000,4.000000,2.000000,4.000000,4.000000,4.000000,4.000000,4.000000,83.333336,,,,,,,,,,,,,,,,,,,,,,,,,,,,,,,,,,,,,,,,,,,,,,,
1665780221.922030,1665780221.922890,24.000000,0.000000,4319.615234,4294.230957,4319.615234,4327.051270,4316.666504,4346.025879,4298.846191,4327.051270,4313.205078,4296.410156,4473.717773,4505.384766,4372.307617,4445.000000,0.000000,2.000000,50.000000,,,,0.000000,4.000000,4.000000,4.000000,4.000000,4.000000,4.000000,4.000000,4.000000,2.000000,4.000000,4.000000,4.000000,4.000000,4.000000,83.333336,,,,,,,,,,,,,,,,,,,,,,,,,,,,,,,,,,,,,,,,,,,,,,,
1665780221.929838,1665780221.930698,25.000000,0.000000,4319.615234,4298.205078,4323.974121,4327.179688,4327.820313,4351.922852,4308.333496,4327.563965,4312.948730,4288.974121,4476.666504,4507.179688,4374.871582,4446.410156,0.000000,2.000000,50.000000,,,,0.000000,4.000000,4.000000,4.000000,4.000000,4.000000,4.000000,4.000000,4.000000,2.000000,4.000000,4.000000,4.000000,4.000000,4.000000,83.333336,,,,,,,,,,,,,,,,,,,,,,,,,,,,,,,,,,,,,,,,,,,,,,,
1665780221.937647,1665780221.938606,26.000000,0.000000,4316.538574,4300.128418,4320.641113,4321.666504,4323.205078,4346.282227,4313.974121,4319.487305,4314.102539,4283.333496,4468.974121,4495.512695,4366.666504,4438.717773,0.000000,2.000000,50.000000,,,,0.000000,4.000000,4.000000,4.000000,4.000000,4.000000,4.000000,4.000000,4.000000,2.000000,4.000000,4.000000,4.000000,4.000000,4.000000,83.333336,,,,,,,,,,,,,,,,,,,,,,,,,,,,,,,,,,,,,,,,,,,,,,,
1665780221.945455,1665780221.946415,27.000000,0.000000,4311.666504,4298.333496,4310.769043,4314.102539,4316.153809,4344.743652,4314.615234,4310.641113,4305.256348,4278.461426,4461.282227,4488.846191,4357.563965,4428.461426,0.000000,2.000000,50.000000,,,,0.000000,4.000000,4.000000,4.000000,4.000000,4.000000,4.000000,4.000000,4.000000,2.000000,4.000000,4.000000,4.000000,4.000000,4.000000,83.333336,,,,,,,,,,,,,,,,,,,,,,,,,,,,,,,,,,,,,,,,,,,,,,,
1665780221.953264,1665780221.954123,28.000000,0.000000,4308.077148,4291.666504,4303.461426,4310.384766,4316.153809,4348.846191,4313.077148,4302.179688,4296.922852,4268.846191,4454.358887,4485.000000,4356.410156,4425.256348,0.000000,2.000000,50.000000,,,,0.000000,4.000000,4.000000,4.000000,4.000000,4.000000,4.000000,4.000000,4.000000,2.000000,4.000000,4.000000,4.000000,4.000000,4.000000,83.333336,,,,,,,,,,,,,,,,,,,,,,,,,,,,,,,,,,,,,,,,,,,,,,,
1665780221.961072,1665780221.961932,29.000000,0.000000,4304.230957,4281.410156,4295.769043,4308.974121,4309.358887,4344.358887,4303.589844,4296.153809,4300.769043,4268.333496,4444.230957,4476.282227,4356.025879,4424.871582,0.000000,2.000000,50.000000,,,,0.000000,4.000000,4.000000,4.000000,4.000000,4.000000,4.000000,4.000000,4.000000,2.000000,4.000000,4.000000,4.000000,4.000000,4.000000,83.333336,,,,,,,,,,,,,,,,,,,,,,,,,,,,,,,,,,,,,,,,,,,,,,,
1665780221.968881,1665780221.969640,30.000000,0.000000,4309.487305,4279.743652,4292.563965,4310.512695,4305.128418,4341.282227,4296.538574,4299.871582,4306.538574,4279.230957,4444.871582,4477.179688,4357.820313,4429.487305,0.000000,2.000000,50.000000,,,,0.000000,4.000000,4.000000,4.000000,4.000000,4.000000,4.000000,4.000000,4.000000,2.000000,4.000000,4.000000,4.000000,4.000000,4.000000,83.333336,,,,,,,,,,,,,,,,,,,,,,,,,,,,,,,,,,,,,,,,,,,,,,,
1665780221.976689,1665780221.977449,31.000000,0.000000,4318.589844,4290.128418,4302.436035,4315.641113,4311.410156,4345.256348,4297.307617,4310.000000,4308.717773,4282.051270,4457.692383,4488.974121,4362.820313,4441.025879,0.000000,2.000000,50.000000,,,,0.000000,4.000000,4.000000,4.000000,4.000000,4.000000,4.000000,4.000000,4.000000,2.000000,4.000000,4.000000,4.000000,4.000000,4.000000,83.333336,,,,,,,,,,,,,,,,,,,,,,,,,,,,,,,,,,,,,,,,,,,,,,,
1665780221.984497,1665780221.985157,32.000000,0.000000,4316.410156,4295.384766,4314.102539,4322.179688,4312.948730,4341.025879,4301.794922,4322.692383,4315.000000,4282.692383,4470.384766,4497.692383,4365.256348,4447.692383,0.000000,2.000000,50.000000,,,,0.000000,4.000000,4.000000,4.000000,4.000000,4.000000,4.000000,4.000000,4.000000,2.000000,4.000000,4.000000,4.000000,4.000000,4.000000,83.333336,,,,,,,,,,,,,,,,,,,,,,,,,,,,,,,,,,,,,,,,,,,,,,,
1665780221.992306,1665780221.992966,33.000000,0.000000,4311.025879,4293.461426,4319.743652,4323.461426,4313.205078,4333.846191,4305.128418,4335.384766,4320.000000,4289.102539,4476.922852,4505.641113,4368.333496,4446.410156,0.000000,2.000000,50.000000,,,,0.000000,4.000000,4.000000,4.000000,4.000000,4.000000,4.000000,4.000000,4.000000,2.000000,4.000000,4.000000,4.000000,4.000000,4.000000,83.333336,,,,,,,,,,,,,,,,,,,,,,,,,,,,,,,,,,,,,,,,,,,,,,,
1665780222.000114,1665780222.000674,34.000000,0.000000,4316.153809,4295.256348,4325.384766,4320.000000,4309.487305,4334.615234,4304.743652,4338.846191,4320.384766,4285.897461,4477.563965,4511.410156,4374.871582,4444.743652,0.000000,2.000000,50.000000,,,,0.000000,4.000000,4.000000,4.000000,4.000000,4.000000,4.000000,4.000000,4.000000,2.000000,4.000000,4.000000,4.000000,4.000000,4.000000,83.333336,,,,,,,,,,,,,,,,,,,,,,,,,,,,,,,,,,,,,,,,,,,,,,,
1665780222.007923,1665780222.008483,35.000000,0.000000,4322.820313,4298.974121,4328.461426,4318.717773,4299.230957,4334.743652,4302.820313,4330.512695,4320.512695,4281.666504,4474.230957,4508.717773,4377.948730,4445.256348,0.000000,2.000000,50.000000,,,,0.000000,4.000000,4.000000,4.000000,4.000000,4.000000,4.000000,4.000000,4.000000,2.000000,4.000000,4.000000,4.000000,4.000000,4.000000,83.333336,,,,,,,,,,,,,,,,,,,,,,,,,,,,,,,,,,,,,,,,,,,,,,,
1665780222.015731,1665780222.016191,36.000000,0.000000,4327.051270,4305.128418,4328.077148,4325.256348,4303.717773,4334.487305,4308.077148,4327.051270,4316.153809,4293.589844,4475.512695,4514.615234,4381.666504,4451.538574,0.000000,2.000000,50.000000,,,,0.000000,4.000000,4.000000,4.000000,4.000000,4.000000,4.000000,4.000000,4.000000,2.000000,4.000000,4.000000,4.000000,4.000000,4.000000,83.333336,,,,,,,,,,,,,,,,,,,,,,,,,,,,,,,,,,,,,,,,,,,,,,,
1665780222.023539,1665780222.024000,37.000000,0.000000,4329.487305,4306.538574,4327.692383,4334.615234,4315.128418,4338.717773,4314.358887,4327.436035,4312.051270,4299.615234,4476.666504,4522.436035,4384.615234,4460.256348,0.000000,2.000000,50.000000,,,,0.000000,4.000000,4.000000,4.000000,4.000000,4.000000,4.000000,4.000000,4.000000,2.000000,4.000000,4.000000,4.000000,4.000000,4.000000,83.333336,,,,,,,,,,,,,,,,,,,,,,,,,,,,,,,,,,,,,,,,,,,,,,,
1665780222.031348,1665780222.031708,38.000000,0.000000,4328.205078,4302.820313,4327.820313,4335.256348,4315.128418,4343.205078,4312.820313,4321.538574,4312.820313,4288.205078,4473.846191,4514.230957,4374.871582,4460.256348,0.000000,2.000000,50.000000,,,,0.000000,4.000000,4.000000,4.000000,4.000000,4.000000,4.000000,4.000000,4.000000,2.000000,4.000000,4.000000,4.000000,4.000000,4.000000,83.333336,,,,,,,,,,,,,,,,,,,,,,,,,,,,,,,,,,,,,,,,,,,,,,,
1665780222.039156,1665780222.039617,39.000000,0.000000,4326.538574,4302.948730,4327.051270,4330.512695,4319.230957,4341.410156,4317.436035,4318.461426,4311.538574,4280.897461,4472.436035,4502.436035,4366.282227,4453.461426,0.000000,2.000000,50.000000,,,,0.000000,4.000000,4.000000,4.000000,4.000000,4.000000,4.000000,4.000000,4.000000,2.000000,4.000000,4.000000,4.000000,4.000000,4.000000,83.333336,,,,,,,,,,,,,,,,,,,,,,,,,,,,,,,,,,,,,,,,,,,,,,,
1665780222.046965,1665780222.047425,40.000000,0.000000,4319.358887,4302.307617,4323.589844,4327.563965,4322.948730,4337.692383,4323.077148,4319.871582,4307.820313,4282.436035,4469.487305,4495.256348,4365.897461,4448.461426,0.000000,2.000000,50.000000,,,,0.000000,4.000000,4.000000,4.000000,4.000000,4.000000,4.000000,4.000000,4.000000,2.000000,4.000000,4.000000,4.000000,4.000000,4.000000,83.333336,,,,,,,,,,,,,,,,,,,,,,,,,,,,,,,,,,,,,,,,,,,,,,,
1665780222.054773,1665780222.055234,41.000000,0.000000,4311.153809,4298.205078,4320.897461,4321.410156,4311.153809,4330.256348,4316.922852,4317.051270,4310.000000,4276.410156,4462.948730,4490.256348,4359.615234,4439.615234,0.000000,2.000000,50.000000,,,,0.000000,4.000000,4.000000,4.000000,4.000000,4.000000,4.000000,4.000000,4.000000,2.000000,4.000000,4.000000,4.000000,4.000000,4.000000,83.333336,,,,,,,,,,,,,,,,,,,,,,,,,,,,,,,,,,,,,,,,,,,,,,,
1665780222.062581,1665780222.062942,42.000000,0.000000,4310.128418,4295.512695,4317.179688,4309.743652,4302.307617,4321.794922,4308.333496,4311.410156,4312.948730,4266.538574,4453.589844,4488.333496,4353.717773,4430.000000,0.000000,2.000000,50.000000,,,,0.000000,4.000000,4.000000,4.000000,4.000000,4.000000,4.000000,4.000000,4.000000,2.000000,4.000000,4.000000,4.000000,4.000000,4.000000,83.333336,,,,,,,,,,,,,,,,,,,,,,,,,,,,,,,,,,,,,,,,,,,,,,,
1665780222.070390,1665780222.070850,43.000000,0.000000,4312.692383,4296.282227,4314.358887,4308.461426,4308.205078,4327.436035,4307.307617,4311.794922,4311.794922,4273.846191,4451.025879,4492.563965,4362.307617,4433.205078,0.000000,2.000000,50.000000,,,,0.000000,4.000000,4.000000,4.000000,4.000000,4.000000,4.000000,4.000000,4.000000,2.000000,4.000000,4.000000,4.000000,4.000000,4.000000,83.333336,,,,,,,,,,,,,,,,,,,,,,,,,,,,,,,,,,,,,,,,,,,,,,,
1665780222.078198,1665780222.078659,44.000000,0.000000,4317.948730,4297.436035,4315.512695,4319.615234,4311.794922,4336.794922,4304.230957,4310.897461,4312.820313,4288.333496,4460.384766,4497.307617,4373.717773,4446.794922,0.000000,2.000000,50.000000,,,,0.000000,4.000000,4.000000,4.000000,4.000000,4.000000,4.000000,4.000000,4.000000,2.000000,4.000000,4.000000,4.000000,4.000000,4.000000,83.333336,,,,,,,,,,,,,,,,,,,,,,,,,,,,,,,,,,,,,,,,,,,,,,,
1665780222.086007,1665780222.086567,45.000000,0.000000,4318.205078,4293.974121,4314.102539,4320.512695,4306.666504,4331.153809,4294.230957,4303.461426,4311.666504,4285.128418,4463.717773,4495.256348,4367.563965,4448.717773,0.000000,2.000000,50.000000,,,,0.000000,4.000000,4.000000,4.000000,4.000000,4.000000,4.000000,4.000000,4.000000,2.000000,4.000000,4.000000,4.000000,4.000000,4.000000,83.333336,,,,,,,,,,,,,,,,,,,,,,,,,,,,,,,,,,,,,,,,,,,,,,,
1665780222.093815,1665780222.094376,46.000000,0.000000,4309.871582,4288.333496,4308.461426,4315.897461,4304.102539,4323.077148,4291.153809,4302.307617,4307.820313,4273.717773,4451.025879,4488.846191,4354.487305,4437.051270,0.000000,2.000000,50.000000,,,,0.000000,4.000000,4.000000,4.000000,4.000000,4.000000,4.000000,4.000000,4.000000,2.000000,4.000000,4.000000,4.000000,4.000000,4.000000,83.333336,,,,,,,,,,,,,,,,,,,,,,,,,,,,,,,,,,,,,,,,,,,,,,,
1665780222.101623,1665780222.102284,47.000000,0.000000,4305.384766,4290.256348,4312.948730,4318.461426,4309.615234,4326.153809,4295.384766,4309.615234,4309.871582,4270.384766,4446.153809,4487.436035,4349.358887,4434.102539,0.000000,2.000000,50.000000,,,,0.000000,4.000000,4.000000,4.000000,4.000000,4.000000,4.000000,4.000000,4.000000,2.000000,4.000000,4.000000,4.000000,4.000000,4.000000,83.333336,,,,,,,,,,,,,,,,,,,,,,,,,,,,,,,,,,,,,,,,,,,,,,,
1665780222.109432,1665780222.110092,48.000000,0.000000,4303.717773,4293.846191,4319.358887,4316.666504,4308.589844,4326.410156,4296.282227,4313.846191,4312.051270,4268.077148,4451.794922,4486.666504,4345.897461,4433.589844,0.000000,2.000000,50.000000,,,,0.000000,4.000000,4.000000,4.000000,4.000000,4.000000,4.000000,4.000000,4.000000,2.000000,4.000000,4.000000,4.000000,4.000000,4.000000,83.333336,,,,,,,,,,,,,,,,,,,,,,,,,,,,,,,,,,,,,,,,,,,,,,,
1665780222.117240,1665780222.118001,49.000000,0.000000,4296.153809,4288.077148,4314.230957,4306.025879,4299.487305,4319.743652,4295.769043,4310.384766,4306.025879,4260.897461,4447.307617,4481.282227,4338.974121,4427.051270,0.000000,2.000000,50.000000,,,,0.000000,4.000000,4.000000,4.000000,4.000000,4.000000,4.000000,4.000000,4.000000,2.000000,4.000000,4.000000,4.000000,4.000000,4.000000,83.333336,,,,,,,,,,,,,,,,,,,,,,,,,,,,,,,,,,,,,,,,,,,,,,,
1665780222.125049,1665780222.125809,50.000000,0.000000,4301.794922,4290.128418,4315.512695,4307.051270,4301.666504,4322.820313,4305.512695,4313.589844,4306.794922,4265.641113,4449.615234,4490.256348,4347.563965,4431.410156,0.000000,2.000000,50.000000,,,,0.000000,4.000000,4.000000,4.000000,4.000000,4.000000,4.000000,4.000000,4.000000,2.000000,4.000000,4.000000,4.000000,4.000000,4.000000,83.333336,,,,,,,,,,,,,,,,,,,,,,,,,,,,,,,,,,,,,,,,,,,,,,,
1665780222.132857,1665780222.133718,51.000000,0.000000,4325.000000,4306.666504,4329.358887,4322.051270,4314.102539,4334.871582,4321.410156,4325.256348,4317.179688,4288.205078,4469.871582,4513.205078,4375.128418,4451.153809,0.000000,2.000000,50.000000,,,,0.000000,4.000000,4.000000,4.000000,4.000000,4.000000,4.000000,4.000000,4.000000,2.000000,4.000000,4.000000,4.000000,4.000000,4.000000,83.333336,,,,,,,,,,,,,,,,,,,,,,,,,,,,,,,,,,,,,,,,,,,,,,,
1665780222.140665,1665780222.141526,52.000000,0.000000,4330.769043,4314.487305,4331.282227,4328.717773,4319.487305,4342.563965,4324.871582,4325.128418,4317.563965,4303.589844,4482.051270,4520.897461,4391.282227,4464.230957,0.000000,2.000000,50.000000,,,,0.000000,4.000000,4.000000,4.000000,4.000000,4.000000,4.000000,4.000000,4.000000,2.000000,4.000000,4.000000,4.000000,4.000000,4.000000,83.333336,,,,,,,,,,,,,,,,,,,,,,,,,,,,,,,,,,,,,,,,,,,,,,,
1665780222.148474,1665780222.149235,53.000000,0.000000,4316.410156,4306.282227,4320.256348,4325.384766,4317.948730,4336.666504,4315.384766,4313.205078,4311.153809,4299.102539,4471.410156,4510.384766,4383.333496,4461.282227,0.000000,2.000000,50.000000,,,,0.000000,4.000000,4.000000,4.000000,4.000000,4.000000,4.000000,4.000000,4.000000,2.000000,4.000000,4.000000,4.000000,4.000000,4.000000,83.333336,,,,,,,,,,,,,,,,,,,,,,,,,,,,,,,,,,,,,,,,,,,,,,,
1665780222.156282,1665780222.157043,54.000000,0.000000,4307.436035,4301.025879,4319.230957,4323.717773,4320.000000,4329.102539,4310.384766,4308.974121,4309.615234,4288.974121,4462.692383,4501.153809,4371.794922,4454.743652,0.000000,2.000000,50.000000,,,,0.000000,4.000000,4.000000,4.000000,4.000000,4.000000,4.000000,4.000000,4.000000,2.000000,4.000000,4.000000,4.000000,4.000000,4.000000,83.333336,,,,,,,,,,,,,,,,,,,,,,,,,,,,,,,,,,,,,,,,,,,,,,,
1665780222.164091,1665780222.164752,55.000000,0.000000,4305.000000,4305.000000,4324.487305,4320.512695,4319.487305,4325.641113,4311.666504,4314.487305,4311.666504,4282.051270,4467.563965,4494.743652,4366.025879,4446.922852,0.000000,2.000000,50.000000,,,,0.000000,4.000000,4.000000,4.000000,4.000000,4.000000,4.000000,4.000000,4.000000,2.000000,4.000000,4.000000,4.000000,4.000000,4.000000,83.333336,,,,,,,,,,,,,,,,,,,,,,,,,,,,,,,,,,,,,,,,,,,,,,,
1665780222.171899,1665780222.172560,56.000000,0.000000,4298.461426,4306.410156,4320.897461,4311.666504,4310.384766,4321.282227,4309.102539,4319.487305,4316.025879,4281.538574,4474.230957,4490.769043,4365.256348,4438.077148,0.000000,2.000000,50.000000,,,,0.000000,4.000000,4.000000,4.000000,4.000000,4.000000,4.000000,4.000000,4.000000,2.000000,4.000000,4.000000,4.000000,4.000000,4.000000,83.333336,,,,,,,,,,,,,,,,,,,,,,,,,,,,,,,,,,,,,,,,,,,,,,,
1665780222.179707,1665780222.180269,57.000000,0.000000,4295.384766,4308.077148,4315.897461,4307.820313,4307.563965,4318.846191,4309.743652,4323.461426,4319.358887,4290.000000,4474.871582,4497.563965,4376.282227,4439.230957,0.000000,2.000000,50.000000,,,,0.000000,4.000000,4.000000,4.000000,4.000000,4.000000,4.000000,4.000000,4.000000,2.000000,4.000000,4.000000,4.000000,4.000000,4.000000,83.333336,,,,,,,,,,,,,,,,,,,,,,,,,,,,,,,,,,,,,,,,,,,,,,,
1665780222.187516,1665780222.188177,58.000000,0.000000,4302.820313,4311.282227,4316.922852,4311.153809,4310.384766,4319.743652,4310.384766,4325.897461,4318.077148,4295.000000,4473.974121,4505.641113,4388.974121,4448.333496,0.000000,2.000000,50.000000,,,,0.000000,4.000000,4.000000,4.000000,4.000000,4.000000,4.000000,4.000000,4.000000,2.000000,4.000000,4.000000,4.000000,4.000000,4.000000,83.333336,,,,,,,,,,,,,,,,,,,,,,,,,,,,,,,,,,,,,,,,,,,,,,,
1665780222.195324,1665780222.195985,59.000000,0.000000,4316.794922,4316.794922,4319.615234,4318.974121,4309.487305,4320.769043,4299.871582,4324.743652,4318.846191,4293.589844,4479.743652,4509.743652,4395.897461,4459.358887,0.000000,2.000000,50.000000,,,,0.000000,4.000000,4.000000,4.000000,4.000000,4.000000,4.000000,4.000000,4.000000,2.000000,4.000000,4.000000,4.000000,4.000000,4.000000,83.333336,,,,,,,,,,,,,,,,,,,,,,,,,,,,,,,,,,,,,,,,,,,,,,,
1665780222.203133,1665780222.203894,60.000000,0.000000,4333.717773,4329.615234,4324.230957,4326.794922,4315.128418,4322.307617,4293.974121,4326.922852,4320.897461,4299.743652,4491.538574,4522.051270,4411.666504,4483.589844,0.000000,2.000000,50.000000,,,,0.000000,4.000000,4.000000,4.000000,4.000000,4.000000,4.000000,4.000000,4.000000,2.000000,4.000000,4.000000,4.000000,4.000000,4.000000,83.333336,,,,,,,,,,,,,,,,,,,,,,,,,,,,,,,,,,,,,,,,,,,,,,,
1665780222.210941,1665780222.211702,61.000000,0.000000,4351.794922,4345.769043,4337.692383,4335.769043,4325.128418,4325.512695,4304.615234,4332.820313,4319.358887,4307.563965,4508.205078,4539.487305,4438.461426,4524.230957,0.000000,2.000000,50.000000,,,,0.000000,4.000000,4.000000,4.000000,4.000000,4.000000,4.000000,4.000000,4.000000,2.000000,4.000000,4.000000,4.000000,4.000000,4.000000,83.333336,,,,,,,,,,,,,,,,,,,,,,,,,,,,,,,,,,,,,,,,,,,,,,,
1665780222.218750,1665780222.219611,62.000000,0.000000,4381.794922,4374.487305,4356.922852,4357.563965,4325.897461,4325.512695,4317.692383,4338.846191,4321.794922,4305.641113,4526.538574,4553.205078,4463.461426,4569.871582,0.000000,2.000000,50.000000,,,,0.000000,4.000000,4.000000,4.000000,4.000000,4.000000,4.000000,4.000000,4.000000,2.000000,4.000000,4.000000,4.000000,4.000000,4.000000,83.333336,,,,,,,,,,,,,,,,,,,,,,,,,,,,,,,,,,,,,,,,,,,,,,,
1665780222.226558,1665780222.227419,63.000000,0.000000,4423.974121,4413.589844,4376.538574,4380.384766,4330.641113,4328.974121,4326.922852,4341.282227,4323.846191,4302.692383,4543.846191,4568.589844,4490.641113,4616.025879,0.000000,2.000000,50.000000,,,,0.000000,4.000000,4.000000,4.000000,4.000000,4.000000,4.000000,4.000000,4.000000,2.000000,4.000000,4.000000,4.000000,4.000000,4.000000,83.333336,,,,,,,,,,,,,,,,,,,,,,,,,,,,,,,,,,,,,,,,,,,,,,,
1665780222.234366,1665780222.235227,64.000000,0.000000,4457.051270,4444.871582,4390.769043,4389.743652,4343.846191,4339.230957,4340.256348,4337.820313,4320.128418,4303.589844,4556.410156,4584.743652,4519.102539,4658.974121,2358.000000,2.000000,50.000000,,,,0.000000,4.000000,4.000000,4.000000,4.000000,4.000000,4.000000,4.000000,4.000000,2.000000,4.000000,4.000000,4.000000,4.000000,4.000000,83.333336,,,,,,,,,,,,,,,,,,,,,,,,,,,,,,,,,,,,,,,,,,,,,,,
1665780222.242175,1665780222.242936,65.000000,0.000000,4478.589844,4464.871582,4399.487305,4398.461426,4345.641113,4343.077148,4347.307617,4331.922852,4317.563965,4300.512695,4559.743652,4590.512695,4530.641113,4681.666504,2349.000000,2.000000,50.000000,,,,0.000000,4.000000,4.000000,4.000000,4.000000,4.000000,4.000000,4.000000,4.000000,2.000000,4.000000,4.000000,4.000000,4.000000,4.000000,83.333336,,,,,,,,,,,,,,,,,,,,,,,,,,,,,,,,,,,,,,,,,,,,,,,
1665780222.249983,1665780222.250744,66.000000,0.000000,4496.794922,4480.128418,4403.333496,4408.333496,4339.102539,4339.487305,4339.102539,4326.025879,4314.358887,4295.128418,4554.615234,4588.205078,4533.846191,4686.922852,2246.000000,2.000000,50.000000,,,,0.000000,4.000000,4.000000,4.000000,4.000000,4.000000,4.000000,4.000000,4.000000,2.000000,4.000000,4.000000,4.000000,4.000000,4.000000,83.333336,,,,,,,,,,,,,,,,,,,,,,,,,,,,,,,,,,,,,,,,,,,,,,,
1665780222.257792,1665780222.258453,67.000000,0.000000,4496.666504,4483.589844,4394.230957,4405.641113,4339.102539,4336.666504,4327.948730,4317.692383,4311.410156,4294.487305,4544.487305,4582.820313,4536.282227,4687.051270,2327.000000,2.000000,50.000000,,,,0.000000,4.000000,4.000000,4.000000,4.000000,4.000000,4.000000,4.000000,4.000000,2.000000,4.000000,4.000000,4.000000,4.000000,4.000000,83.333336,,,,,,,,,,,,,,,,,,,,,,,,,,,,,,,,,,,,,,,,,,,,,,,
1665780222.265600,1665780222.266361,68.000000,0.000000,4477.820313,4469.230957,4377.307617,4398.077148,4340.256348,4335.000000,4320.897461,4313.333496,4315.641113,4296.410156,4538.333496,4571.025879,4533.205078,4678.205078,2301.000000,2.000000,50.000000,,,,0.000000,4.000000,4.000000,4.000000,4.000000,4.000000,4.000000,4.000000,4.000000,2.000000,4.000000,4.000000,4.000000,4.000000,4.000000,83.333336,,,,,,,,,,,,,,,,,,,,,,,,,,,,,,,,,,,,,,,,,,,,,,,
1665780222.273409,1665780222.274170,69.000000,0.000000,4463.205078,4454.102539,4369.487305,4394.615234,4339.358887,4329.615234,4314.743652,4318.846191,4315.897461,4295.000000,4538.974121,4556.666504,4522.179688,4662.436035,2314.000000,2.000000,50.000000,,,,0.000000,4.000000,4.000000,4.000000,4.000000,4.000000,4.000000,4.000000,4.000000,2.000000,4.000000,4.000000,4.000000,4.000000,4.000000,83.333336,1.000000,75.000000,4.000000,4.000000,4.000000,4.000000,4.000000,4.000000,4.000000,4.000000,2.000000,4.000000,4.000000,4.000000,4.000000,3.000000,1.000000,0.513673,-0.724166,-1.379798,0.201069,1.000000,0.133501,2.654205,1.792000,8.250425,0.238995,1.000000,0.234606,25.686298,-30.979204,184.067184,1.000000,0.166953,0.126233,0.093145,0.311187,1.000000,0.393699,3.480755,-3.856817,14.541489,1.000000,0.383313,0.383313,0.000000,1.000000
1665780222.281217,1665780222.282078,70.000000,0.000000,4454.743652,4440.512695,4373.205078,4385.384766,4340.128418,4321.410156,4308.717773,4325.128418,4312.307617,4293.333496,4539.871582,4554.871582,4511.025879,4647.563965,2140.000000,2.000000,50.000000,,,,0.000000,4.000000,4.000000,4.000000,4.000000,4.000000,4.000000,4.000000,4.000000,2.000000,4.000000,4.000000,4.000000,4.000000,4.000000,83.333336,,,,,,,,,,,,,,,,,,,,,,,,,,,,,,,,,,,,,,,,,,,,,,,
1665780222.289025,1665780222.289887,71.000000,0.000000,4446.153809,4426.666504,4381.794922,4376.922852,4335.641113,4317.820313,4308.077148,4328.461426,4317.563965,4293.077148,4541.153809,4566.794922,4509.358887,4639.487305,2084.000000,2.000000,50.000000,,,,0.000000,4.000000,4.000000,4.000000,4.000000,4.000000,4.000000,4.000000,4.000000,2.000000,4.000000,4.000000,4.000000,4.000000,4.000000,83.333336,,,,,,,,,,,,,,,,,,,,,,,,,,,,,,,,,,,,,,,,,,,,,,,
1665780222.296834,1665780222.297795,72.000000,0.000000,4435.769043,4412.307617,4382.692383,4369.487305,4324.871582,4316.666504,4309.743652,4329.230957,4318.846191,4291.410156,4543.717773,4567.563965,4505.641113,4623.974121,1033.000000,2.000000,50.000000,,,,0.000000,4.000000,4.000000,4.000000,4.000000,4.000000,4.000000,4.000000,4.000000,2.000000,4.000000,4.000000,4.000000,4.000000,4.000000,83.333336,,,,,,,,,,,,,,,,,,,,,,,,,,,,,,,,,,,,,,,,,,,,,,,
1665780222.304642,1665780222.305603,73.000000,0.000000,4422.948730,4392.692383,4372.436035,4357.820313,4316.025879,4312.307617,4307.179688,4327.051270,4311.794922,4288.589844,4539.102539,4558.333496,4497.820313,4597.179688,2374.000000,2.000000,50.000000,,,,0.000000,4.000000,4.000000,4.000000,4.000000,4.000000,4.000000,4.000000,4.000000,2.000000,4.000000,4.000000,4.000000,4.000000,4.000000,83.333336,,,,,,,,,,,,,,,,,,,,,,,,,,,,,,,,,,,,,,,,,,,,,,,
1665780222.312451,1665780222.313312,74.000000,0.000000,4411.153809,4371.025879,4359.871582,4348.077148,4313.333496,4312.692383,4309.743652,4324.871582,4315.256348,4286.666504,4527.948730,4556.025879,4488.974121,4571.922852,2626.000000,2.000000,50.000000,,,,0.000000,4.000000,4.000000,4.000000,4.000000,4.000000,4.000000,4.000000,4.000000,2.000000,4.000000,4.000000,4.000000,4.000000,4.000000,83.333336,,,,,,,,,,,,,,,,,,,,,,,,,,,,,,,,,,,,,,,,,,,,,,,
1665780222.320259,1665780222.321120,75.000000,0.000000,4393.589844,4347.948730,4342.820313,4337.563965,4310.897461,4316.410156,4319.871582,4317.948730,4318.846191,4282.563965,4514.871582,4545.897461,4471.282227,4547.051270,2595.000000,2.000000,50.000000,,,,0.000000,4.000000,4.000000,4.000000,4.000000,4.000000,4.000000,4.000000,4.000000,2.000000,4.000000,4.000000,4.000000,4.000000,4.000000,83.333336,,,,,,,,,,,,,,,,,,,,,,,,,,,,,,,,,,,,,,,,,,,,,,,
1665780222.328067,1665780222.328829,76.000000,0.000000,4367.051270,4326.538574,4323.589844,4324.358887,4305.128418,4313.846191,4320.769043,4307.179688,4311.282227,4276.666504,4498.077148,4520.128418,4446.666504,4517.436035,2808.000000,2.000000,50.000000,,,,0.000000,4.000000,4.000000,4.000000,4.000000,4.000000,4.000000,4.000000,4.000000,2.000000,4.000000,4.000000,4.000000,4.000000,4.000000,83.333336,,,,,,,,,,,,,,,,,,,,,,,,,,,,,,,,,,,,,,,,,,,,,,,
1665780222.335876,1665780222.336737,77.000000,0.000000,4349.743652,4313.589844,4319.871582,4322.436035,4305.256348,4308.205078,4314.358887,4311.025879,4310.641113,4277.820313,4491.538574,4507.563965,4434.743652,4492.692383,3059.000000,2.000000,50.000000,,,,0.000000,4.000000,4.000000,4.000000,4.000000,4.000000,4.000000,4.000000,4.000000,2.000000,4.000000,4.000000,4.000000,4.000000,4.000000,83.333336,,,,,,,,,,,,,,,,,,,,,,,,,,,,,,,,,,,,,,,,,,,,,,,
1665780222.343684,1665780222.344546,78.000000,0.000000,4346.282227,4308.974121,4323.974121,4326.282227,4306.922852,4304.102539,4313.077148,4321.922852,4317.692383,4282.948730,4494.358887,4508.846191,4431.282227,4478.077148,2626.000000,2.000000,50.000000,,,,0.000000,4.000000,4.000000,4.000000,4.000000,4.000000,4.000000,4.000000,4.000000,2.000000,4.000000,4.000000,4.000000,4.000000,4.000000,83.333336,,,,,,,,,,,,,,,,,,,,,,,,,,,,,,,,,,,,,,,,,,,,,,,
1665780222.351493,1665780222.352354,79.000000,0.000000,4335.256348,4303.589844,4317.692383,4316.153809,4301.153809,4298.589844,4307.563965,4315.897461,4315.384766,4279.358887,4485.256348,4498.077148,4414.871582,4458.461426,2595.000000,2.000000,50.000000,,,,0.000000,4.000000,4.000000,4.000000,4.000000,4.000000,4.000000,4.000000,4.000000,2.000000,4.000000,4.000000,4.000000,4.000000,4.000000,83.333336,,,,,,,,,,,,,,,,,,,,,,,,,,,,,,,,,,,,,,,,,,,,,,,
1665780222.359301,1665780222.360063,80.000000,0.000000,4316.794922,4292.179688,4307.820313,4301.538574,4293.461426,4294.230957,4296.666504,4301.025879,4307.563965,4270.769043,4470.384766,4484.743652,4401.794922,4435.769043,2808.000000,2.000000,50.000000,,,,0.000000,4.000000,4.000000,4.000000,4.000000,4.000000,4.000000,4.000000,4.000000,2.000000,4.000000,4.000000,4.000000,4.000000,4.000000,83.333336,,,,,,,,,,,,,,,,,,,,,,,,,,,,,,,,,,,,,,,,,,,,,,,
1665780222.367109,1665780222.367871,81.000000,0.000000,4310.641113,4282.179688,4302.436035,4296.922852,4287.179688,4294.615234,4292.820313,4296.538574,4306.538574,4272.307617,4467.307617,4487.692383,4403.077148,4426.666504,3059.000000,2.000000,50.000000,,,,0.000000,4.000000,4.000000,4.000000,4.000000,4.000000,4.000000,4.000000,4.000000,2.000000,4.000000,4.000000,4.000000,4.000000,4.000000,83.333336,,,,,,,,,,,,,,,,,,,,,,,,,,,,,,,,,,,,,,,,,,,,,,,
1665780222.374918,1665780222.375580,82.000000,0.000000,4309.871582,4276.410156,4296.922852,4296.025879,4281.410156,4295.256348,4289.615234,4295.769043,4307.051270,4276.410156,4464.615234,4492.692383,4399.615234,4422.436035,2626.000000,2.000000,50.000000,,,,0.000000,4.000000,4.000000,4.000000,4.000000,4.000000,4.000000,4.000000,4.000000,2.000000,4.000000,4.000000,4.000000,4.000000,4.000000,83.333336,,,,,,,,,,,,,,,,,,,,,,,,,,,,,,,,,,,,,,,,,,,,,,,
1665780222.382726,1665780222.383388,83.000000,0.000000,4305.000000,4274.871582,4295.000000,4298.846191,4282.820313,4296.282227,4280.384766,4294.871582,4308.077148,4270.769043,4458.717773,4488.717773,4388.717773,4415.384766,2595.000000,2.000000,50.000000,,,,0.000000,4.000000,4.000000,4.000000,4.000000,4.000000,4.000000,4.000000,4.000000,2.000000,4.000000,4.000000,4.000000,4.000000,4.000000,83.333336,,,,,,,,,,,,,,,,,,,,,,,,,,,,,,,,,,,,,,,,,,,,,,,
1665780222.390535,1665780222.391097,84.000000,0.000000,4303.974121,4275.384766,4301.153809,4302.948730,4293.333496,4296.538574,4277.051270,4300.128418,4311.666504,4272.563965,4460.641113,4487.307617,4381.538574,4412.692383,2808.000000,2.000000,50.000000,,,,0.000000,4.000000,4.000000,4.000000,4.000000,4.000000,4.000000,4.000000,4.000000,2.000000,4.000000,4.000000,4.000000,4.000000,4.000000,83.333336,,,,,,,,,,,,,,,,,,,,,,,,,,,,,,,,,,,,,,,,,,,,,,,
1665780222.398343,1665780222.398905,85.000000,0.000000,4304.102539,4276.794922,4306.922852,4302.179688,4300.512695,4294.871582,4284.743652,4306.538574,4311.282227,4277.820313,4464.102539,4487.563965,4375.641113,4408.589844,3059.000000,2.000000,50.000000,1,1,1,0.000000,4.000000,4.000000,4.000000,4.000000,4.000000,4.000000,4.000000,4.000000,2.000000,4.000000,4.000000,4.000000,4.000000,4.000000,83.333336,,,,,,,,,,,,,,,,,,,,,,,,,,,,,,,,,,,,,,,,,,,,,,,
1665780222.406151,1665780222.406614,86.000000,0.000000,4298.077148,4279.615234,4308.846191,4302.051270,4300.256348,4299.358887,4297.820313,4310.384766,4309.230957,4270.128418,4462.307617,4488.846191,4371.025879,4399.358887,2626.000000,2.000000,50.000000,,,,0.000000,4.000000,4.000000,4.000000,4.000000,4.000000,4.000000,4.000000,4.000000,2.000000,4.000000,4.000000,4.000000,4.000000,4.000000,83.333336,,,,,,,,,,,,,,,,,,,,,,,,,,,,,,,,,,,,,,,,,,,,,,,
1665780222.413960,1665780222.414422,87.000000,0.000000,4292.307617,4283.333496,4311.922852,4302.563965,4298.077148,4304.230957,4311.025879,4311.153809,4308.717773,4262.820313,4462.820313,4490.897461,4371.922852,4395.897461,2595.000000,2.000000,50.000000,,,,0.000000,4.000000,4.000000,4.000000,4.000000,4.000000,4.000000,4.000000,4.000000,2.000000,4.000000,4.000000,4.000000,4.000000,4.000000,83.333336,,,,,,,,,,,,,,,,,,,,,,,,,,,,,,,,,,,,,,,,,,,,,,,
1665780222.421768,1665780222.422131,88.000000,0.000000,4281.538574,4282.436035,4305.512695,4295.000000,4294.743652,4300.641113,4310.897461,4303.333496,4305.256348,4264.615234,4459.358887,4482.820313,4369.871582,4389.743652,2808.000000,2.000000,50.000000,,,,0.000000,4.000000,4.000000,4.000000,4.000000,4.000000,4.000000,4.000000,4.000000,2.000000,4.000000,4.000000,4.000000,4.000000,4.000000,83.333336,,,,,,,,,,,,,,,,,,,,,,,,,,,,,,,,,,,,,,,,,,,,,,,
1665780222.429577,1665780222.430039,89.000000,0.000000,4266.794922,4273.333496,4293.846191,4288.205078,4293.974121,4300.384766,4304.102539,4296.538574,4303.717773,4266.153809,4449.102539,4471.922852,4361.922852,4375.384766,3059.000000,2.000000,50.000000,,,,0.000000,4.000000,4.000000,4.000000,4.000000,4.000000,4.000000,4.000000,4.000000,2.000000,4.000000,4.000000,4.000000,4.000000,4.000000,83.333336,,,,,,,,,,,,,,,,,,,,,,,,,,,,,,,,,,,,,,,,,,,,,,,
1665780222.437385,1665780222.437847,90.000000,0.000000,4267.948730,4263.589844,4293.333496,4291.922852,4295.000000,4308.205078,4307.051270,4303.974121,4310.256348,4265.769043,4443.333496,4473.333496,4359.743652,4371.410156,2626.000000,2.000000,50.000000,,,,0.000000,4.000000,4.000000,4.000000,4.000000,4.000000,4.000000,4.000000,4.000000,2.000000,4.000000,4.000000,4.000000,4.000000,4.000000,83.333336,,,,,,,,,,,,,,,,,,,,,,,,,,,,,,,,,,,,,,,,,,,,,,,
1665780222.445193,1665780222.445756,91.000000,0.000000,4273.077148,4263.974121,4292.820313,4296.153809,4295.128418,4303.589844,4307.179688,4312.948730,4314.487305,4267.051270,4446.410156,4477.436035,4358.589844,4374.615234,2595.000000,2.000000,50.000000,,,,0.000000,4.000000,4.000000,4.000000,4.000000,4.000000,4.000000,4.000000,4.000000,2.000000,4.000000,4.000000,4.000000,4.000000,4.000000,83.333336,,,,,,,,,,,,,,,,,,,,,,,,,,,,,,,,,,,,,,,,,,,,,,,
1665780222.453002,1665780222.453564,92.000000,0.000000,4263.077148,4264.871582,4282.692383,4294.487305,4293.846191,4290.512695,4297.563965,4312.692383,4313.205078,4270.256348,4452.436035,4469.615234,4352.051270,4367.692383,2808.000000,2.000000,50.000000,,,,0.000000,4.000000,4.000000,4.000000,4.000000,4.000000,4.000000,4.000000,4.000000,2.000000,4.000000,4.000000,4.000000,4.000000,4.000000,83.333336,,,,,,,,,,,,,,,,,,,,,,,,,,,,,,,,,,,,,,,,,,,,,,,
1665780222.460810,1665780222.461473,93.000000,0.000000,4257.307617,4260.769043,4282.051270,4291.282227,4293.974121,4289.230957,4294.230957,4313.589844,4314.871582,4276.922852,4457.563965,4462.820313,4349.102539,4361.153809,3059.000000,2.000000,50.000000,,,,0.000000,4.000000,4.000000,4.000000,4.000000,4.000000,4.000000,4.000000,4.000000,2.000000,4.000000,4.000000,4.000000,4.000000,4.000000,83.333336,,,,,,,,,,,,,,,,,,,,,,,,,,,,,,,,,,,,,,,,,,,,,,,
1665780222.468619,1665780222.469281,94.000000,0.000000,4263.974121,4264.487305,4290.512695,4289.358887,4294.487305,4290.641113,4297.563965,4313.589844,4313.461426,4274.102539,4458.333496,4460.128418,4349.615234,4355.897461,2626.000000,2.000000,50.000000,,,,0.000000,4.000000,4.000000,4.000000,4.000000,4.000000,4.000000,4.000000,4.000000,2.000000,4.000000,4.000000,4.000000,4.000000,4.000000,83.333336,,,,,,,,,,,,,,,,,,,,,,,,,,,,,,,,,,,,,,,,,,,,,,,
1665780222.476427,1665780222.477189,95.000000,0.000000,4266.025879,4276.410156,4292.692383,4293.205078,4293.461426,4288.461426,4296.794922,4306.922852,4304.871582,4263.333496,4454.230957,4460.000000,4353.205078,4351.153809,2595.000000,2.000000,50.000000,,,,0.000000,4.000000,4.000000,4.000000,4.000000,4.000000,4.000000,4.000000,4.000000,2.000000,4.000000,4.000000,4.000000,4.000000,4.000000,83.333336,,,,,,,,,,,,,,,,,,,,,,,,,,,,,,,,,,,,,,,,,,,,,,,
1665780222.484235,1665780222.484998,96.000000,0.000000,4262.051270,4276.922852,4290.384766,4296.282227,4291.922852,4291.410156,4302.563965,4305.897461,4304.871582,4266.922852,4450.769043,4470.000000,4356.282227,4352.051270,2808.000000,2.000000,50.000000,,,,0.000000,4.000000,4.000000,4.000000,4.000000,4.000000,4.000000,4.000000,4.000000,2.000000,4.000000,4.000000,4.000000,4.000000,4.000000,83.333336,,,,,,,,,,,,,,,,,,,,,,,,,,,,,,,,,,,,,,,,,,,,,,,
1665780222.492044,1665780222.492906,97.000000,0.000000,4265.128418,4262.179688,4285.000000,4288.333496,4290.897461,4296.153809,4308.461426,4310.256348,4312.948730,4278.589844,4448.589844,4476.282227,4351.410156,4352.692383,3059.000000,2.000000,50.000000,,,,0.000000,4.000000,4.000000,4.000000,4.000000,4.000000,4.000000,4.000000,4.000000,2.000000,4.000000,4.000000,4.000000,4.000000,4.000000,83.333336,,,,,,,,,,,,,,,,,,,,,,,,,,,,,,,,,,,,,,,,,,,,,,,
1665780222.499852,1665780222.500715,98.000000,0.000000,4264.358887,4247.563965,4278.205078,4278.717773,4291.666504,4295.897461,4299.358887,4308.205078,4312.820313,4274.230957,4443.461426,4465.256348,4342.692383,4350.769043,2626.000000,2.000000,50.000000,,,,0.000000,4.000000,4.000000,4.000000,4.000000,4.000000,4.000000,4.000000,4.000000,2.000000,4.000000,4.000000,4.000000,4.000000,4.000000,83.333336,,,,,,,,,,,,,,,,,,,,,,,,,,,,,,,,,,,,,,,,,,,,,,,
1665780222.507661,1665780222.508623,99.000000,0.000000,4254.743652,4245.128418,4277.948730,4281.666504,4294.230957,4293.846191,4296.282227,4305.769043,4307.692383,4263.974121,4442.563965,4454.487305,4337.948730,4347.436035,2595.000000,2.000000,50.000000,,,,0.000000,4.000000,4.000000,4.000000,4.000000,4.000000,4.000000,4.000000,4.000000,2.000000,4.000000,4.000000,4.000000,4.000000,4.000000,83.333336,,,,,,,,,,,,,,,,,,,,,,,,,,,,,,,,,,,,,,,,,,,,,,,
1665780222.515469,1665780222.516431,100.000000,0.000000,4253.846191,4255.384766,4283.974121,4292.820313,4297.563965,4294.615234,4307.307617,4314.743652,4309.615234,4270.512695,4451.922852,4459.487305,4338.717773,4345.384766,2808.000000,2.000000,50.000000,,,,0.000000,4.000000,4.000000,4.000000,4.000000,4.000000,4.000000,4.000000,4.000000,2.000000,4.000000,4.000000,4.000000,4.000000,4.000000,83.333336,,,,,,,,,,,,,,,,,,,,,,,,,,,,,,,,,,,,,,,,,,,,,,,
1665780222.523278,1665780222.524140,101.000000,0.000000,4263.077148,4264.871582,4291.153809,4297.051270,4299.102539,4297.820313,4315.897461,4323.461426,4314.487305,4281.025879,4460.384766,4463.077148,4339.871582,4347.563965,3059.000000,2.000000,50.000000,,,,0.000000,4.000000,4.000000,4.000000,4.000000,4.000000,4.000000,4.000000,4.000000,2.000000,4.000000,4.000000,4.000000,4.000000,4.000000,83.333336,,,,,,,,,,,,,,,,,,,,,,,,,,,,,,,,,,,,,,,,,,,,,,,
1665780222.531086,1665780222.531948,102.000000,0.000000,4264.487305,4265.384766,4294.871582,4291.794922,4296.666504,4298.717773,4315.641113,4323.333496,4314.102539,4271.922852,4460.512695,4462.948730,4340.000000,4351.025879,2626.000000,2.000000,50.000000,,,,0.000000,4.000000,4.000000,4.000000,4.000000,4.000000,4.000000,4.000000,4.000000,2.000000,4.000000,4.000000,4.000000,4.000000,4.000000,83.333336,,,,,,,,,,,,,,,,,,,,,,,,,,,,,,,,,,,,,,,,,,,,,,,
1665780222.538894,1665780222.539657,103.000000,0.000000,4259.743652,4266.025879,4294.743652,4288.589844,4293.846191,4296.538574,4314.102539,4324.230957,4313.333496,4265.641113,4458.846191,4471.666504,4340.256348,4351.025879,2595.000000,2.000000,50.000000,,,,0.000000,4.000000,4.000000,4.000000,4.000000,4.000000,4.000000,4.000000,4.000000,2.000000,4.000000,4.000000,4.000000,4.000000,4.000000,83.333336,,,,,,,,,,,,,,,,,,,,,,,,,,,,,,,,,,,,,,,,,,,,,,,
1665780222.546703,1665780222.547465,104.000000,0.000000,4263.205078,4267.436035,4289.615234,4290.384766,4293.846191,4296.666504,4312.179688,4320.512695,4312.820313,4276.153809,4453.077148,4477.436035,4340.641113,4349.743652,2808.000000,2.000000,50.000000,,,,0.000000,4.000000,4.000000,4.000000,4.000000,4.000000,4.000000,4.000000,4.000000,2.000000,4.000000,4.000000,4.000000,4.000000,4.000000,83.333336,,,,,,,,,,,,,,,,,,,,,,,,,,,,,,,,,,,,,,,,,,,,,,,
1665780222.554511,1665780222.555174,105.000000,0.000000,4262.820313,4263.717773,4282.948730,4291.025879,4294.230957,4296.153809,4307.948730,4311.153809,4311.666504,4274.230957,4444.871582,4470.384766,4336.794922,4350.769043,3059.000000,2.000000,50.000000,,,,0.000000,4.000000,4.000000,4.000000,4.000000,4.000000,4.000000,4.000000,4.000000,2.000000,4.000000,4.000000,4.000000,4.000000,4.000000,83.333336,,,,,,,,,,,,,,,,,,,,,,,,,,,,,,,,,,,,,,,,,,,,,,,
1665780222.562320,1665780222.562982,106.000000,0.000000,4253.974121,4261.282227,4282.051270,4292.179688,4296.666504,4294.487305,4304.487305,4312.179688,4313.205078,4261.922852,4444.102539,4463.461426,4329.358887,4353.333496,2626.000000,2.000000,50.000000,,,,0.000000,4.000000,4.000000,4.000000,4.000000,4.000000,4.000000,4.000000,4.000000,2.000000,4.000000,4.000000,4.000000,4.000000,4.000000,83.333336,,,,,,,,,,,,,,,,,,,,,,,,,,,,,,,,,,,,,,,,,,,,,,,
1665780222.570128,1665780222.570691,107.000000,0.000000,4251.410156,4262.820313,4281.538574,4296.666504,4298.846191,4296.666504,4301.922852,4314.358887,4312.563965,4262.948730,4447.179688,4459.487305,4319.871582,4352.948730,2595.000000,2.000000,50.000000,,,,0.000000,4.000000,4.000000,4.000000,4.000000,4.000000,4.000000,4.000000,4.000000,2.000000,4.000000,4.000000,4.000000,4.000000,4.000000,83.333336,,,,,,,,,,,,,,,,,,,,,,,,,,,,,,,,,,,,,,,,,,,,,,,
1665780222.577937,1665780222.578499,108.000000,0.000000,4250.512695,4259.871582,4277.692383,4296.666504,4296.922852,4298.077148,4301.666504,4306.153809,4307.179688,4263.846191,4442.948730,4451.666504,4312.051270,4345.000000,2808.000000,2.000000,50.000000,,,,0.000000,4.000000,4.000000,4.000000,4.000000,4.000000,4.000000,4.000000,4.000000,2.000000,4.000000,4.000000,4.000000,4.000000,4.000000,83.333336,,,,,,,,,,,,,,,,,,,,,,,,,,,,,,,,,,,,,,,,,,,,,,,
1665780222.585745,1665780222.586208,109.000000,0.000000,4246.153809,4261.922852,4283.333496,4292.179688,4299.358887,4296.025879,4304.358887,4302.307617,4303.205078,4255.897461,4442.051270,4451.922852,4319.230957,4343.461426,3059.000000,2.000000,50.000000,,,,0.000000,4.000000,4.000000,4.000000,4.000000,4.000000,4.000000,4.000000,4.000000,2.000000,4.000000,4.000000,4.000000,4.000000,4.000000,83.333336,,,,,,,,,,,,,,,,,,,,,,,,,,,,,,,,,,,,,,,,,,,,,,,
1665780222.593553,1665780222.594016,110.000000,0.000000,4252.436035,4274.230957,4293.077148,4293.589844,4306.666504,4300.000000,4311.025879,4303.717773,4303.717773,4259.102539,4449.487305,4461.538574,4335.512695,4351.410156,2626.000000,2.000000,50.000000,,,,0.000000,4.000000,4.000000,4.000000,4.000000,4.000000,4.000000,4.000000,4.000000,2.000000,4.000000,4.000000,4.000000,4.000000,4.000000,83.333336,,,,,,,,,,,,,,,,,,,,,,,,,,,,,,,,,,,,,,,,,,,,,,,
1665780222.601362,1665780222.601725,111.000000,0.000000,4262.692383,4277.563965,4287.692383,4298.077148,4306.794922,4309.487305,4312.436035,4298.461426,4303.846191,4266.922852,4451.282227,4463.717773,4339.615234,4353.205078,2595.000000,2.000000,50.000000,,,,0.000000,4.000000,4.000000,4.000000,4.000000,4.000000,4.000000,4.000000,4.000000,2.000000,4.000000,4.000000,4.000000,4.000000,4.000000,83.333336,,,,,,,,,,,,,,,,,,,,,,,,,,,,,,,,,,,,,,,,,,,,,,,
1665780222.609170,1665780222.609633,112.000000,0.000000,4254.743652,4265.897461,4277.307617,4292.307617,4298.205078,4309.871582,4302.436035,4292.051270,4301.282227,4263.717773,4443.333496,4458.333496,4333.077148,4349.615234,2808.000000,2.000000,50.000000,,,,0.000000,4.000000,4.000000,4.000000,4.000000,4.000000,4.000000,4.000000,4.000000,2.000000,4.000000,4.000000,4.000000,4.000000,4.000000,83.333336,,,,,,,,,,,,,,,,,,,,,,,,,,,,,,,,,,,,,,,,,,,,,,,
1665780222.616979,1665780222.617442,113.000000,0.000000,4245.897461,4262.179688,4275.897461,4288.205078,4295.000000,4305.384766,4296.794922,4295.897461,4303.461426,4262.051270,4442.179688,4456.410156,4333.077148,4350.512695,3059.000000,2.000000,50.000000,,,,0.000000,4.000000,4.000000,4.000000,4.000000,4.000000,4.000000,4.000000,4.000000,2.000000,4.000000,4.000000,4.000000,4.000000,4.000000,83.333336,,,,,,,,,,,,,,,,,,,,,,,,,,,,,,,,,,,,,,,,,,,,,,,
1665780222.624787,1665780222.625350,114.000000,0.000000,4254.358887,4273.461426,4280.256348,4296.538574,4303.589844,4305.128418,4303.077148,4306.025879,4310.256348,4268.077148,4452.563965,4458.077148,4337.948730,4354.230957,2626.000000,2.000000,50.000000,,,,0.000000,4.000000,4.000000,4.000000,4.000000,4.000000,4.000000,4.000000,4.000000,2.000000,4.000000,4.000000,4.000000,4.000000,4.000000,83.333336,,,,,,,,,,,,,,,,,,,,,,,,,,,,,,,,,,,,,,,,,,,,,,,
1665780222.632595,1665780222.633158,115.000000,0.000000,4260.256348,4279.487305,4287.436035,4299.615234,4309.615234,4300.641113,4307.179688,4311.666504,4312.563965,4270.512695,4460.000000,4463.846191,4337.820313,4356.666504,2595.000000,2.000000,50.000000,,,,0.000000,4.000000,4.000000,4.000000,4.000000,4.000000,4.000000,4.000000,4.000000,2.000000,4.000000,4.000000,4.000000,4.000000,4.000000,83.333336,,,,,,,,,,,,,,,,,,,,,,,,,,,,,,,,,,,,,,,,,,,,,,,
1665780222.640404,1665780222.641067,116.000000,0.000000,4259.230957,4279.230957,4294.615234,4296.410156,4306.922852,4293.717773,4307.563965,4310.384766,4309.230957,4267.307617,4460.000000,4472.563965,4334.615234,4359.871582,2808.000000,2.000000,50.000000,,,,0.000000,4.000000,4.000000,4.000000,4.000000,4.000000,4.000000,4.000000,4.000000,2.000000,4.000000,4.000000,4.000000,4.000000,4.000000,83.333336,,,,,,,,,,,,,,,,,,,,,,,,,,,,,,,,,,,,,,,,,,,,,,,
1665780222.648212,1665780222.648875,117.000000,0.000000,4258.205078,4274.230957,4296.666504,4291.282227,4300.128418,4295.000000,4315.256348,4310.641113,4308.077148,4264.743652,4458.077148,4474.487305,4337.307617,4357.563965,3059.000000,2.000000,50.000000,,,,0.000000,4.000000,4.000000,4.000000,4.000000,4.000000,4.000000,4.000000,4.000000,2.000000,4.000000,4.000000,4.000000,4.000000,4.000000,83.333336,,,,,,,,,,,,,,,,,,,,,,,,,,,,,,,,,,,,,,,,,,,,,,,
1665780222.656021,1665780222.656784,118.000000,0.000000,4255.256348,4264.487305,4294.358887,4282.307617,4295.512695,4298.205078,4319.615234,4312.307617,4308.589844,4266.025879,4459.230957,4469.358887,4342.692383,4351.410156,2626.000000,2.000000,50.000000,,,,0.000000,4.000000,4.000000,4.000000,4.000000,4.000000,4.000000,4.000000,4.000000,2.000000,4.000000,4.000000,4.000000,4.000000,4.000000,83.333336,,,,,,,,,,,,,,,,,,,,,,,,,,,,,,,,,,,,,,,,,,,,,,,
1665780222.663829,1665780222.664592,119.000000,0.000000,4259.487305,4267.820313,4291.922852,4284.615234,4296.922852,4296.410156,4311.794922,4304.871582,4307.179688,4272.563965,4456.538574,4468.333496,4342.179688,4355.512695,2595.000000,2.000000,50.000000,,,,0.000000,4.000000,4.000000,4.000000,4.000000,4.000000,4.000000,4.000000,4.000000,2.000000,4.000000,4.000000,4.000000,4.000000,4.000000,83.333336,,,,,,,,,,,,,,,,,,,,,,,,,,,,,,,,,,,,,,,,,,,,,,,
1665780222.671637,1665780222.672500,120.000000,0.000000,4267.563965,4280.769043,4291.794922,4301.922852,4303.461426,4296.153809,4304.615234,4298.589844,4307.307617,4280.128418,4448.589844,4472.820313,4339.871582,4365.641113,2808.000000,2.000000,50.000000,,,,0.000000,4.000000,4.000000,4.000000,4.000000,4.000000,4.000000,4.000000,4.000000,2.000000,4.000000,4.000000,4.000000,4.000000,4.000000,83.333336,,,,,,,,,,,,,,,,,,,,,,,,,,,,,,,,,,,,,,,,,,,,,,,
1665780222.679446,1665780222.680309,121.000000,0.000000,4267.051270,4283.077148,4294.358887,4310.384766,4307.051270,4296.538574,4306.538574,4307.179688,4310.641113,4280.641113,4450.641113,4475.641113,4341.666504,4368.461426,3059.000000,2.000000,50.000000,,,,0.000000,4.000000,4.000000,4.000000,4.000000,4.000000,4.000000,4.000000,4.000000,2.000000,4.000000,4.000000,4.000000,4.000000,4.000000,83.333336,,,,,,,,,,,,,,,,,,,,,,,,,,,,,,,,,,,,,,,,,,,,,,,
1665780222.687254,1665780222.688117,122.000000,0.000000,4266.922852,4277.563965,4295.256348,4307.179688,4303.846191,4294.615234,4310.384766,4319.102539,4317.051270,4279.230957,4459.743652,4475.000000,4342.051270,4367.692383,2626.000000,2.000000,50.000000,,,,0.000000,4.000000,4.000000,4.000000,4.000000,4.000000,4.000000,4.000000,4.000000,2.000000,4.000000,4.000000,4.000000,4.000000,4.000000,83.333336,,,,,,,,,,,,,,,,,,,,,,,,,,,,,,,,,,,,,,,,,,,,,,,
1665780222.695063,1665780222.695926,123.000000,0.000000,4270.384766,4279.743652,4298.974121,4306.538574,4304.487305,4290.897461,4309.615234,4322.820313,4321.922852,4284.871582,4462.563965,4474.871582,4341.153809,4369.230957,2595.000000,2.000000,50.000000,,,,0.000000,4.000000,4.000000,4.000000,4.000000,4.000000,4.000000,4.000000,4.000000,2.000000,4.000000,4.000000,4.000000,4.000000,4.000000,83.333336,,,,,,,,,,,,,,,,,,,,,,,,,,,,,,,,,,,,,,,,,,,,,,,
1665780222.702871,1665780222.703634,124.000000,0.000000,4267.692383,4282.179688,4304.358887,4300.256348,4306.153809,4286.025879,4307.307617,4321.922852,4318.717773,4284.871582,4460.000000,4476.922852,4341.922852,4366.538574,2808.000000,2.000000,50.000000,,,,0.000000,4.000000,4.000000,4.000000,4.000000,4.000000,4.000000,4.000000,4.000000,2.000000,4.000000,4.000000,4.000000,4.000000,4.000000,83.333336,,,,,,,,,,,,,,,,,,,,,,,,,,,,,,,,,,,,,,,,,,,,,,,
1665780222.710679,1665780222.711443,125.000000,0.000000,4266.153809,4282.563965,4302.692383,4294.743652,4303.205078,4288.077148,4308.974121,4319.615234,4313.205078,4278.461426,4462.307617,4477.436035,4343.205078,4362.436035,3059.000000,2.000000,50.000000,,,,0.000000,4.000000,4.000000,4.000000,4.000000,4.000000,4.000000,4.000000,4.000000,2.000000,4.000000,4.000000,4.000000,4.000000,4.000000,83.333336,,,,,,,,,,,,,,,,,,,,,,,,,,,,,,,,,,,,,,,,,,,,,,,
1665780222.718488,1665780222.719151,126.000000,0.000000,4269.230957,4284.102539,4296.282227,4297.563965,4298.717773,4293.846191,4311.538574,4314.230957,4312.692383,4279.871582,4460.897461,4477.692383,4345.000000,4364.358887,2626.000000,2.000000,50.000000,,,,0.000000,4.000000,4.000000,4.000000,4.000000,4.000000,4.000000,4.000000,4.000000,2.000000,4.000000,4.000000,4.000000,4.000000,4.000000,83.333336,,,,,,,,,,,,,,,,,,,,,,,,,,,,,,,,,,,,,,,,,,,,,,,
1665780222.726296,1665780222.726960,127.000000,0.000000,4264.743652,4279.871582,4287.051270,4294.358887,4294.487305,4293.846191,4305.256348,4308.333496,4311.538574,4279.871582,4453.077148,4475.641113,4343.589844,4365.000000,50.000000,2.000000,50.000000,,,,0.000000,4.000000,4.000000,4.000000,4.000000,4.000000,4.000000,4.000000,4.000000,2.000000,4.000000,4.000000,4.000000,4.000000,4.000000,83.333336,,,,,,,,,,,,,,,,,,,,,,,,,,,,,,,,,,,,,,,,,,,,,,,
1665780222.734105,1665780222.734668,0.000000,0.000000,4261.153809,4277.436035,4281.025879,4289.615234,4294.102539,4291.410156,4294.230957,4307.692383,4309.743652,4274.358887,4447.563965,4472.563965,4337.307617,4364.487305,2356.000000,2.000000,50.000000,,,,0.000000,4.000000,4.000000,4.000000,4.000000,4.000000,4.000000,4.000000,4.000000,2.000000,4.000000,4.000000,4.000000,4.000000,4.000000,83.333336,,,,,,,,,,,,,,,,,,,,,,,,,,,,,,,,,,,,,,,,,,,,,,,
1665780222.741913,1665780222.742477,1.000000,0.000000,4263.717773,4280.384766,4285.384766,4294.358887,4298.205078,4292.692383,4294.871582,4309.487305,4311.410156,4273.205078,4447.307617,4471.794922,4336.410156,4368.461426,2349.000000,2.000000,50.000000,,,,0.000000,4.000000,4.000000,4.000000,4.000000,4.000000,4.000000,4.000000,4.000000,2.000000,4.000000,4.000000,4.000000,4.000000,4.000000,83.333336,,,,,,,,,,,,,,,,,,,,,,,,,,,,,,,,,,,,,,,,,,,,,,,
1665780222.749721,1665780222.750185,2.000000,0.000000,4263.461426,4279.615234,4296.410156,4297.051270,4301.153809,4292.563965,4308.205078,4312.948730,4313.077148,4275.000000,4454.871582,4472.948730,4339.358887,4373.461426,2256.000000,2.000000,50.000000,,,,0.000000,4.000000,4.000000,4.000000,4.000000,4.000000,4.000000,4.000000,4.000000,2.000000,4.000000,4.000000,4.000000,4.000000,4.000000,83.333336,,,,,,,,,,,,,,,,,,,,,,,,,,,,,,,,,,,,,,,,,,,,,,,
1665780222.757530,1665780222.758094,3.000000,0.000000,4261.922852,4281.922852,4308.846191,4294.743652,4306.410156,4293.461426,4320.384766,4319.615234,4311.922852,4276.153809,4460.769043,4476.538574,4338.974121,4374.743652,2343.000000,2.000000,50.000000,,,,0.000000,4.000000,4.000000,4.000000,4.000000,4.000000,4.000000,4.000000,4.000000,2.000000,4.000000,4.000000,4.000000,4.000000,4.000000,83.333336,,,,,,,,,,,,,,,,,,,,,,,,,,,,,,,,,,,,,,,,,,,,,,,
1665780222.765338,1665780222.765902,4.000000,0.000000,4261.922852,4292.948730,4313.717773,4299.102539,4310.384766,4299.615234,4326.410156,4322.948730,4311.538574,4275.256348,4454.743652,4478.589844,4338.846191,4375.512695,2294.000000,2.000000,50.000000,,,,0.000000,4.000000,4.000000,4.000000,4.000000,4.000000,4.000000,4.000000,4.000000,2.000000,4.000000,4.000000,4.000000,4.000000,4.000000,83.333336,,,,,,,,,,,,,,,,,,,,,,,,,,,,,,,,,,,,,,,,,,,,,,,
1665780222.773147,1665780222.773810,5.000000,0.000000,4262.692383,4293.333496,4303.589844,4302.179688,4301.794922,4302.563965,4323.333496,4318.717773,4312.820313,4268.333496,4445.897461,4476.666504,4337.436035,4372.948730,2307.000000,2.000000,50.000000,,,,0.000000,4.000000,4.000000,4.000000,4.000000,4.000000,4.000000,4.000000,4.000000,2.000000,4.000000,4.000000,4.000000,4.000000,4.000000,83.333336,1.000000,75.000000,4.000000,4.000000,4.000000,4.000000,4.000000,4.000000,4.000000,4.000000,2.000000,4.000000,4.000000,4.000000,4.000000,3.000000,1.000000,0.508290,-0.598857,-1.379687,0.200934,1.000000,0.190935,3.025142,1.792000,8.250425,0.237841,1.000000,0.237479,26.352072,-30.997164,184.043472,1.000000,0.165753,0.117306,0.093143,0.311148,1.000000,0.385227,3.313760,-3.857006,14.539752,1.000000,0.387121,0.387121,0.000000,1.000000
1665780222.780955,1665780222.781619,6.000000,0.000000,4261.538574,4282.307617,4292.307617,4295.897461,4296.666504,4304.102539,4317.307617,4310.256348,4311.538574,4262.307617,4439.871582,4475.128418,4328.589844,4363.205078,2147.000000,2.000000,50.000000,,,,0.000000,4.000000,4.000000,4.000000,4.000000,4.000000,4.000000,4.000000,4.000000,2.000000,4.000000,4.000000,4.000000,4.000000,4.000000,83.333336,,,,,,,,,,,,,,,,,,,,,,,,,,,,,,,,,,,,,,,,,,,,,,,
1665780222.788764,1665780222.789527,7.000000,0.000000,4260.769043,4277.179688,4290.897461,4294.102539,4303.205078,4305.128418,4315.000000,4310.128418,4310.769043,4263.461426,4429.615234,4470.897461,4320.769043,4357.179688,2067.000000,2.000000,50.000000,,,,0.000000,4.000000,4.000000,4.000000,4.000000,4.000000,4.000000,4.000000,4.000000,2.000000,4.000000,4.000000,4.000000,4.000000,4.000000,83.333336,,,,,,,,,,,,,,,,,,,,,,,,,,,,,,,,,,,,,,,,,,,,,,,
1665780222.796572,1665780222.797336,8.000000,0.000000,4266.538574,4279.102539,4295.000000,4298.846191,4305.769043,4304.102539,4318.461426,4320.897461,4316.153809,4267.436035,4430.384766,4471.153809,4322.179688,4368.974121,1030.000000,2.000000,50.000000,,,,0.000000,4.000000,4.000000,4.000000,4.000000,4.000000,4.000000,4.000000,4.000000,2.000000,4.000000,4.000000,4.000000,4.000000,4.000000,83.333336,,,,,,,,,,,,,,,,,,,,,,,,,,,,,,,,,,,,,,,,,,,,,,,
1665780222.804380,1665780222.805144,9.000000,0.000000,4279.230957,4288.589844,4309.615234,4308.205078,4310.000000,4304.615234,4322.307617,4331.282227,4322.692383,4277.179688,4455.000000,4486.410156,4327.820313,4387.179688,2374.000000,2.000000,50.000000,,,,0.000000,4.000000,4.000000,4.000000,4.000000,4.000000,4.000000,4.000000,4.000000,2.000000,4.000000,4.000000,4.000000,4.000000,4.000000,83.333336,,,,,,,,,,,,,,,,,,,,,,,,,,,,,,,,,,,,,,,,,,,,,,,
1665780222.812189,1665780222.812853,10.000000,0.000000,4283.846191,4298.717773,4318.846191,4314.615234,4318.333496,4300.769043,4318.205078,4327.179688,4318.205078,4282.051270,4464.230957,4493.461426,4332.692383,4387.820313,2663.000000,2.000000,50.000000,,,,0.000000,4.000000,4.000000,4.000000,4.000000,4.000000,4.000000,4.000000,4.000000,2.000000,4.000000,4.000000,4.000000,4.000000,4.000000,83.333336,,,,,,,,,,,,,,,,,,,,,,,,,,,,,,,,,,,,,,,,,,,,,,,
1665780222.819997,1665780222.820761,11.000000,0.000000,4280.128418,4295.769043,4313.205078,4306.922852,4313.846191,4294.487305,4316.410156,4320.128418,4311.025879,4268.717773,4447.051270,4483.717773,4333.974121,4380.128418,2610.000000,2.000000,50.000000,,,,0.000000,4.000000,4.000000,4.000000,4.000000,4.000000,4.000000,4.000000,4.000000,2.000000,4.000000,4.000000,4.000000,4.000000,4.000000,83.333336,,,,,,,,,,,,,,,,,,,,,,,,,,,,,,,,,,,,,,,,,,,,,,,
1665780222.827806,1665780222.828569,12.000000,0.000000,4287.179688,4295.512695,4313.846191,4302.820313,4308.205078,4300.000000,4324.102539,4325.769043,4311.922852,4263.077148,4446.153809,4486.282227,4336.282227,4388.589844,2813.000000,2.000000,50.000000,,,,0.000000,4.000000,4.000000,4.000000,4.000000,4.000000,4.000000,4.000000,4.000000,2.000000,4.000000,4.000000,4.000000,4.000000,4.000000,83.333336,,,,,,,,,,,,,,,,,,,,,,,,,,,,,,,,,,,,,,,,,,,,,,,
1665780222.835614,1665780222.836478,13.000000,0.000000,4296.794922,4304.102539,4316.794922,4310.384766,4311.538574,4309.230957,4328.205078,4326.025879,4314.230957,4275.641113,4456.025879,4496.666504,4341.666504,4398.846191,3069.000000,2.000000,50.000000,,,,0.000000,4.000000,4.000000,4.000000,4.000000,4.000000,4.000000,4.000000,4.000000,2.000000,4.000000,4.000000,4.000000,4.000000,4.000000,83.333336,,,,,,,,,,,,,,,,,,,,,,,,,,,,,,,,,,,,,,,,,,,,,,,
1665780222.843422,1665780222.844286,14.000000,0.000000,4295.000000,4300.897461,4310.769043,4312.051270,4310.128418,4306.794922,4323.717773,4317.948730,4314.102539,4282.051270,4454.615234,4494.102539,4343.461426,4398.333496,2663.000000,2.000000,50.000000,,,,0.000000,4.000000,4.000000,4.000000,4.000000,4.000000,4.000000,4.000000,4.000000,2.000000,4.000000,4.000000,4.000000,4.000000,4.000000,83.333336,,,,,,,,,,,,,,,,,,,,,,,,,,,,,,,,,,,,,,,,,,,,,,,
1665780222.851231,1665780222.852195,15.000000,0.000000,4291.666504,4295.000000,4308.461426,4310.512695,4308.461426,4303.589844,4321.538574,4320.897461,4312.179688,4279.102539,4455.128418,4491.794922,4342.820313,4403.077148,2610.000000,2.000000,50.000000,,,,0.000000,4.000000,4.000000,4.000000,4.000000,4.000000,4.000000,4.000000,4.000000,2.000000,4.000000,4.000000,4.000000,4.000000,4.000000,83.333336,,,,,,,,,,,,,,,,,,,,,,,,,,,,,,,,,,,,,,,,,,,,,,,
1665780222.859039,1665780222.860003,16.000000,0.000000,4291.538574,4301.794922,4312.307617,4314.615234,4311.282227,4299.615234,4320.128418,4327.307617,4311.794922,4277.436035,4460.512695,4491.922852,4341.666504,4408.717773,0.000000,2.000000,50.000000,,,,0.000000,4.000000,4.000000,4.000000,4.000000,4.000000,4.000000,4.000000,4.000000,2.000000,4.000000,4.000000,4.000000,4.000000,4.000000,83.333336,,,,,,,,,,,,,,,,,,,,,,,,,,,,,,,,,,,,,,,,,,,,,,,
1665780222.866848,1665780222.867911,17.000000,0.000000,4291.922852,4310.128418,4314.230957,4314.230957,4312.436035,4294.102539,4320.256348,4327.563965,4316.922852,4278.461426,4466.153809,4488.717773,4343.077148,4408.333496,0.000000,2.000000,50.000000,,,,0.000000,4.000000,4.000000,4.000000,4.000000,4.000000,4.000000,4.000000,4.000000,2.000000,4.000000,4.000000,4.000000,4.000000,4.000000,83.333336,,,,,,,,,,,,,,,,,,,,,,,,,,,,,,,,,,,,,,,,,,,,,,,
1665780222.874656,1665780222.875720,18.000000,0.000000,4293.974121,4316.282227,4322.179688,4310.769043,4310.769043,4296.410156,4327.820313,4327.051270,4319.743652,4281.666504,4476.666504,4495.512695,4349.102539,4411.025879,0.000000,2.000000,50.000000,,,,0.000000,4.000000,4.000000,4.000000,4.000000,4.000000,4.000000,4.000000,4.000000,2.000000,4.000000,4.000000,4.000000,4.000000,4.000000,83.333336,,,,,,,,,,,,,,,,,,,,,,,,,,,,,,,,,,,,,,,,,,,,,,,
1665780222.882465,1665780222.883628,19.000000,0.000000,4296.282227,4320.128418,4328.846191,4314.871582,4304.743652,4297.948730,4328.077148,4321.153809,4313.589844,4283.846191,4477.051270,4500.512695,4352.307617,4412.436035,0.000000,2.000000,50.000000,,,,0.000000,4.000000,4.000000,4.000000,4.000000,4.000000,4.000000,4.000000,4.000000,2.000000,4.000000,4.000000,4.000000,4.000000,4.000000,83.333336,,,,,,,,,,,,,,,,,,,,,,,,,,,,,,,,,,,,,,,,,,,,,,,
1665780222.890273,1665780222.891437,20.000000,0.000000,4293.846191,4315.512695,4319.871582,4314.743652,4301.410156,4294.487305,4320.641113,4311.282227,4309.358887,4281.666504,4462.820313,4495.384766,4350.769043,4410.641113,0.000000,2.000000,50.000000,,,,0.000000,4.000000,4.000000,4.000000,4.000000,4.000000,4.000000,4.000000,4.000000,2.000000,4.000000,4.000000,4.000000,4.000000,4.000000,83.333336,,,,,,,,,,,,,,,,,,,,,,,,,,,,,,,,,,,,,,,,,,,,,,,
1665780222.898081,1665780222.899145,21.000000,0.000000,4292.948730,4307.820313,4310.000000,4308.589844,4308.589844,4296.025879,4316.025879,4311.025879,4313.461426,4280.384766,4459.230957,4493.333496,4349.102539,4412.307617,0.000000,2.000000,50.000000,,,,0.000000,4.000000,4.000000,4.000000,4.000000,4.000000,4.000000,4.000000,4.000000,2.000000,4.000000,4.000000,4.000000,4.000000,4.000000,83.333336,,,,,,,,,,,,,,,,,,,,,,,,,,,,,,,,,,,,,,,,,,,,,,,
1665780222.905890,1665780222.907054,22.000000,0.000000,4298.589844,4308.846191,4314.743652,4312.820313,4310.769043,4299.230957,4309.743652,4313.333496,4313.205078,4279.743652,4464.102539,4495.384766,4346.282227,4415.769043,0.000000,2.000000,50.000000,,,,0.000000,4.000000,4.000000,4.000000,4.000000,4.000000,4.000000,4.000000,4.000000,2.000000,4.000000,4.000000,4.000000,4.000000,4.000000,83.333336,,,,,,,,,,,,,,,,,,,,,,,,,,,,,,,,,,,,,,,,,,,,,,,
1665780222.913698,1665780222.914862,23.000000,0.000000,4308.846191,4316.538574,4324.230957,4322.692383,4304.871582,4295.384766,4302.179688,4308.461426,4308.974121,4276.666504,4462.179688,4493.205078,4341.794922,4417.820313,0.000000,2.000000,50.000000,,,,0.000000,4.000000,4.000000,4.000000,4.000000,4.000000,4.000000,4.000000,4.000000,2.000000,4.000000,4.000000,4.000000,4.000000,4.000000,83.333336,,,,,,,,,,,,,,,,,,,,,,,,,,,,,,,,,,,,,,,,,,,,,,,
1665780222.921507,1665780222.922670,24.000000,0.000000,4311.410156,4318.589844,4325.897461,4320.769043,4308.461426,4293.461426,4304.230957,4310.256348,4308.205078,4278.077148,4462.307617,4490.128418,4341.153809,4419.358887,0.000000,2.000000,50.000000,,,,0.000000,4.000000,4.000000,4.000000,4.000000,4.000000,4.000000,4.000000,4.000000,2.000000,4.000000,4.000000,4.000000,4.000000,4.000000,83.333336,,,,,,,,,,,,,,,,,,,,,,,,,,,,,,,,,,,,,,,,,,,,,,,
1665780222.929315,1665780222.930379,25.000000,0.000000,4302.563965,4314.615234,4324.102539,4311.794922,4312.563965,4294.358887,4312.051270,4318.846191,4309.102539,4280.512695,4465.769043,4493.077148,4343.461426,4415.256348,0.000000,2.000000,50.000000,,,,0.000000,4.000000,4.000000,4.000000,4.000000,4.000000,4.000000,4.000000,4.000000,2.000000,4.000000,4.000000,4.000000,4.000000,4.000000,83.333336,,,,,,,,,,,,,,,,,,,,,,,,,,,,,,,,,,,,,,,,,,,,,,,
1665780222.937123,1665780222.938187,26.000000,0.000000,4293.461426,4310.897461,4318.333496,4307.948730,4301.794922,4287.692383,4313.077148,4317.179688,4304.487305,4271.666504,4462.307617,4488.974121,4338.077148,4403.717773,0.000000,2.000000,50.000000,,,,0.000000,4.000000,4.000000,4.000000,4.000000,4.000000,4.000000,4.000000,4.000000,2.000000,4.000000,4.000000,4.000000,4.000000,4.000000,83.333336,,,,,,,,,,,,,,,,,,,,,,,,,,,,,,,,,,,,,,,,,,,,,,,
1665780222.944932,1665780222.945896,27.000000,0.000000,4290.512695,4307.820313,4307.692383,4305.384766,4294.358887,4285.256348,4310.256348,4305.384766,4297.051270,4262.051270,4454.615234,4475.384766,4330.512695,4394.230957,0.000000,2.000000,50.000000,,,,0.000000,4.000000,4.000000,4.000000,4.000000,4.000000,4.000000,4.000000,4.000000,2.000000,4.000000,4.000000,4.000000,4.000000,4.000000,83.333336,,,,,,,,,,,,,,,,,,,,,,,,,,,,,,,,,,,,,,,,,,,,,,,
1665780222.952740,1665780222.953704,28.000000,0.000000,4296.153809,4307.307617,4308.205078,4308.717773,4300.128418,4295.128418,4312.820313,4303.846191,4297.820313,4270.384766,4458.205078,4477.692383,4339.358887,4401.922852,0.000000,2.000000,50.000000,,,,0.000000,4.000000,4.000000,4.000000,4.000000,4.000000,4.000000,4.000000,4.000000,2.000000,4.000000,4.000000,4.000000,4.000000,4.000000,83.333336,,,,,,,,,,,,,,,,,,,,,,,,,,,,,,,,,,,,,,,,,,,,,,,
1665780222.960549,1665780222.961413,29.000000,0.000000,4303.974121,4310.000000,4313.077148,4314.615234,4305.769043,4300.128418,4313.205078,4310.256348,4303.333496,4281.025879,4464.487305,4493.205078,4348.717773,4414.743652,0.000000,2.000000,50.000000,,,,0.000000,4.000000,4.000000,4.000000,4.000000,4.000000,4.000000,4.000000,4.000000,2.000000,4.000000,4.000000,4.000000,4.000000,4.000000,83.333336,,,,,,,,,,,,,,,,,,,,,,,,,,,,,,,,,,,,,,,,,,,,,,,
1665780222.968357,1665780222.969221,30.000000,0.000000,4303.846191,4309.743652,4312.563965,4313.846191,4308.461426,4294.615234,4308.461426,4308.333496,4306.794922,4277.692383,4463.333496,4495.128418,4340.512695,4416.153809,0.000000,2.000000,50.000000,,,,0.000000,4.000000,4.000000,4.000000,4.000000,4.000000,4.000000,4.000000,4.000000,2.000000,4.000000,4.000000,4.000000,4.000000,4.000000,83.333336,,,,,,,,,,,,,,,,,,,,,,,,,,,,,,,,,,,,,,,,,,,,,,,
1665780222.976165,1665780222.976930,31.000000,0.000000,4303.974121,4309.102539,4318.717773,4314.743652,4312.307617,4296.410156,4308.205078,4309.102539,4310.769043,4282.948730,4469.358887,4491.410156,4340.897461,4418.589844,0.000000,2.000000,50.000000,,,,0.000000,4.000000,4.000000,4.000000,4.000000,4.000000,4.000000,4.000000,4.000000,2.000000,4.000000,4.000000,4.000000,4.000000,4.000000,83.333336,,,,,,,,,,,,,,,,,,,,,,,,,,,,,,,,,,,,,,,,,,,,,,,
1665780222.983974,1665780222.984738,32.000000,0.000000,4307.820313,4312.820313,4328.461426,4318.333496,4312.692383,4296.538574,4312.692383,4316.410156,4317.051270,4296.282227,4481.794922,4494.615234,4351.666504,4422.692383,0.000000,2.000000,50.000000,,,,0.000000,4.000000,4.000000,4.000000,4.000000,4.000000,4.000000,4.000000,4.000000,2.000000,4.000000,4.000000,4.000000,4.000000,4.000000,83.333336,,,,,,,,,,,,,,,,,,,,,,,,,,,,,,,,,,,,,,,,,,,,,,,
1665780222.991782,1665780222.992447,33.000000,0.000000,4305.897461,4313.846191,4325.128418,4313.974121,4308.717773,4283.205078,4308.461426,4313.077148,4317.436035,4290.384766,4478.461426,4491.538574,4346.666504,4417.051270,0.000000,2.000000,50.000000,,,,0.000000,4.000000,4.000000,4.000000,4.000000,4.000000,4.000000,4.000000,4.000000,2.000000,4.000000,4.000000,4.000000,4.000000,4.000000,83.333336,,,,,,,,,,,,,,,,,,,,,,,,,,,,,,,,,,,,,,,,,,,,,,,
1665780222.999591,1665780223.000255,34.000000,0.000000,4301.538574,4316.410156,4320.000000,4310.384766,4307.179688,4281.025879,4298.333496,4307.307617,4311.922852,4277.436035,4469.358887,4489.358887,4343.205078,4412.692383,0.000000,2.000000,50.000000,,,,0.000000,4.000000,4.000000,4.000000,4.000000,4.000000,4.000000,4.000000,4.000000,2.000000,4.000000,4.000000,4.000000,4.000000,4.000000,83.333336,,,,,,,,,,,,,,,,,,,,,,,,,,,,,,,,,,,,,,,,,,,,,,,
1665780223.007399,1665780223.007964,35.000000,0.000000,4301.025879,4320.512695,4320.128418,4312.948730,4306.794922,4292.948730,4295.384766,4312.307617,4310.512695,4281.794922,4473.077148,4495.641113,4355.384766,4417.820313,0.000000,2.000000,50.000000,,,,0.000000,4.000000,4.000000,4.000000,4.000000,4.000000,4.000000,4.000000,4.000000,2.000000,4.000000,4.000000,4.000000,4.000000,4.000000,83.333336,,,,,,,,,,,,,,,,,,,,,,,,,,,,,,,,,,,,,,,,,,,,,,,
1665780223.015207,1665780223.015872,36.000000,0.000000,4294.743652,4313.333496,4312.820313,4309.487305,4301.922852,4288.461426,4293.461426,4315.128418,4309.743652,4285.897461,4469.871582,4493.077148,4354.102539,4416.410156,0.000000,2.000000,50.000000,,,,0.000000,4.000000,4.000000,4.000000,4.000000,4.000000,4.000000,4.000000,4.000000,2.000000,4.000000,4.000000,4.000000,4.000000,4.000000,83.333336,,,,,,,,,,,,,,,,,,,,,,,,,,,,,,,,,,,,,,,,,,,,,,,
1665780223.023016,1665780223.023681,37.000000,0.000000,4290.128418,4307.051270,4304.871582,4308.974121,4302.820313,4280.384766,4291.794922,4313.846191,4309.615234,4281.410156,4461.153809,4487.051270,4342.820313,4410.897461,0.000000,2.000000,50.000000,,,,0.000000,4.000000,4.000000,4.000000,4.000000,4.000000,4.000000,4.000000,4.000000,2.000000,4.000000,4.000000,4.000000,4.000000,4.000000,83.333336,,,,,,,,,,,,,,,,,,,,,,,,,,,,,,,,,,,,,,,,,,,,,,,
1665780223.030824,1665780223.031589,38.000000,0.000000,4293.846191,4310.641113,4307.948730,4316.025879,4308.205078,4288.974121,4301.794922,4319.487305,4316.025879,4286.282227,4469.743652,4490.256348,4345.641113,4418.077148,0.000000,2.000000,50.000000,,,,0.000000,4.000000,4.000000,4.000000,4.000000,4.000000,4.000000,4.000000,4.000000,2.000000,4.000000,4.000000,4.000000,4.000000,4.000000,83.333336,,,,,,,,,,,,,,,,,,,,,,,,,,,,,,,,,,,,,,,,,,,,,,,
1665780223.038633,1665780223.039398,39.000000,0.000000,4293.461426,4310.256348,4309.487305,4314.358887,4303.846191,4288.589844,4310.897461,4322.820313,4318.974121,4289.615234,4479.487305,4489.615234,4352.948730,4425.256348,0.000000,2.000000,50.000000,,,,0.000000,4.000000,4.000000,4.000000,4.000000,4.000000,4.000000,4.000000,4.000000,2.000000,4.000000,4.000000,4.000000,4.000000,4.000000,83.333336,,,,,,,,,,,,,,,,,,,,,,,,,,,,,,,,,,,,,,,,,,,,,,,
1665780223.046441,1665780223.047306,40.000000,0.000000,4290.512695,4311.538574,4310.641113,4310.256348,4301.538574,4281.282227,4310.769043,4316.922852,4315.641113,4281.922852,4477.179688,4485.128418,4352.563965,4421.153809,0.000000,2.000000,50.000000,,,,0.000000,4.000000,4.000000,4.000000,4.000000,4.000000,4.000000,4.000000,4.000000,2.000000,4.000000,4.000000,4.000000,4.000000,4.000000,83.333336,,,,,,,,,,,,,,,,,,,,,,,,,,,,,,,,,,,,,,,,,,,,,,,
1665780223.054249,1665780223.055114,41.000000,0.000000,4293.205078,4319.615234,4316.538574,4311.282227,4305.256348,4285.897461,4311.666504,4313.077148,4316.282227,4281.282227,4474.102539,4487.948730,4350.256348,4414.871582,0.000000,2.000000,50.000000,,,,0.000000,4.000000,4.000000,4.000000,4.000000,4.000000,4.000000,4.000000,4.000000,2.000000,4.000000,4.000000,4.000000,4.000000,4.000000,83.333336,,,,,,,,,,,,,,,,,,,,,,,,,,,,,,,,,,,,,,,,,,,,,,,
1665780223.062058,1665780223.063023,42.000000,0.000000,4294.743652,4321.538574,4316.025879,4309.102539,4299.615234,4285.000000,4307.436035,4310.897461,4316.025879,4284.102539,4470.000000,4491.538574,4353.846191,4414.102539,0.000000,2.000000,50.000000,,,,0.000000,4.000000,4.000000,4.000000,4.000000,4.000000,4.000000,4.000000,4.000000,2.000000,4.000000,4.000000,4.000000,4.000000,4.000000,83.333336,,,,,,,,,,,,,,,,,,,,,,,,,,,,,,,,,,,,,,,,,,,,,,,
1665780223.069866,1665780223.070831,43.000000,0.000000,4295.000000,4318.846191,4309.102539,4310.000000,4296.794922,4283.333496,4296.025879,4302.692383,4307.563965,4278.589844,4461.282227,4490.897461,4357.051270,4417.179688,0.000000,2.000000,50.000000,,,,0.000000,4.000000,4.000000,4.000000,4.000000,4.000000,4.000000,4.000000,4.000000,2.000000,4.000000,4.000000,4.000000,4.000000,4.000000,83.333336,,,,,,,,,,,,,,,,,,,,,,,,,,,,,,,,,,,,,,,,,,,,,,,
1665780223.077675,1665780223.078540,44.000000,0.000000,4296.153809,4315.512695,4309.615234,4317.051270,4304.743652,4292.948730,4292.820313,4294.743652,4303.461426,4276.794922,4457.436035,4486.282227,4352.948730,4418.589844,0.000000,2.000000,50.000000,,,,0.000000,4.000000,4.000000,4.000000,4.000000,4.000000,4.000000,4.000000,4.000000,2.000000,4.000000,4.000000,4.000000,4.000000,4.000000,83.333336,,,,,,,,,,,,,,,,,,,,,,,,,,,,,,,,,,,,,,,,,,,,,,,
1665780223.085483,1665780223.086348,45.000000,0.000000,4289.743652,4305.769043,4310.641113,4316.922852,4307.692383,4290.128418,4292.692383,4292.692383,4305.256348,4277.179688,4457.563965,4477.307617,4343.846191,4415.000000,0.000000,2.000000,50.000000,,,,0.000000,4.000000,4.000000,4.000000,4.000000,4.000000,4.000000,4.000000,4.000000,2.000000,4.000000,4.000000,4.000000,4.000000,4.000000,83.333336,,,,,,,,,,,,,,,,,,,,,,,,,,,,,,,,,,,,,,,,,,,,,,,
1665780223.093292,1665780223.094057,46.000000,0.000000,4280.769043,4296.666504,4301.410156,4312.820313,4306.025879,4278.461426,4283.717773,4294.871582,4304.230957,4267.692383,4455.000000,4471.538574,4338.846191,4411.666504,0.000000,2.000000,50.000000,,,,0.000000,4.000000,4.000000,4.000000,4.000000,4.000000,4.000000,4.000000,4.000000,2.000000,4.000000,4.000000,4.000000,4.000000,4.000000,83.333336,,,,,,,,,,,,,,,,,,,,,,,,,,,,,,,,,,,,,,,,,,,,,,,
1665780223.101100,1665780223.101865,47.000000,0.000000,4277.820313,4293.461426,4293.077148,4307.436035,4303.974121,4279.358887,4277.948730,4298.846191,4305.128418,4257.948730,4454.615234,4474.102539,4337.948730,4411.282227,0.000000,2.000000,50.000000,,,,0.000000,4.000000,4.000000,4.000000,4.000000,4.000000,4.000000,4.000000,4.000000,2.000000,4.000000,4.000000,4.000000,4.000000,4.000000,83.333336,,,,,,,,,,,,,,,,,,,,,,,,,,,,,,,,,,,,,,,,,,,,,,,
1665780223.108908,1665780223.109574,48.000000,0.000000,4279.487305,4300.769043,4301.282227,4302.692383,4299.615234,4280.512695,4287.563965,4305.897461,4307.563965,4264.871582,4463.461426,4480.384766,4340.128418,4411.794922,0.000000,2.000000,50.000000,,,,0.000000,4.000000,4.000000,4.000000,4.000000,4.000000,4.000000,4.000000,4.000000,2.000000,4.000000,4.000000,4.000000,4.000000,4.000000,83.333336,,,,,,,,,,,,,,,,,,,,,,,,,,,,,,,,,,,,,,,,,,,,,,,
1665780223.116717,1665780223.117382,49.000000,0.000000,4286.922852,4318.974121,4316.666504,4311.794922,4305.256348,4280.641113,4298.333496,4312.179688,4312.307617,4286.025879,4474.871582,4491.666504,4355.512695,4419.358887,0.000000,2.000000,50.000000,,,,0.000000,4.000000,4.000000,4.000000,4.000000,4.000000,4.000000,4.000000,4.000000,2.000000,4.000000,4.000000,4.000000,4.000000,4.000000,83.333336,,,,,,,,,,,,,,,,,,,,,,,,,,,,,,,,,,,,,,,,,,,,,,,
1665780223.124525,1665780223.125091,50.000000,0.000000,4297.820313,4331.410156,4321.538574,4322.307617,4313.333496,4289.230957,4300.000000,4314.871582,4316.282227,4298.846191,4477.948730,4501.538574,4374.230957,4431.153809,0.000000,2.000000,50.000000,,,,0.000000,4.000000,4.000000,4.000000,4.000000,4.000000,4.000000,4.000000,4.000000,2.000000,4.000000,4.000000,4.000000,4.000000,4.000000,83.333336,,,,,,,,,,,,,,,,,,,,,,,,,,,,,,,,,,,,,,,,,,,,,,,
1665780223.132334,1665780223.132899,51.000000,0.000000,4302.179688,4326.666504,4316.410156,4320.128418,4309.487305,4296.538574,4301.922852,4313.974121,4315.641113,4298.205078,4477.051270,4500.769043,4380.384766,4436.922852,0.000000,2.000000,50.000000,,,,0.000000,4.000000,4.000000,4.000000,4.000000,4.000000,4.000000,4.000000,4.000000,2.000000,4.000000,4.000000,4.000000,4.000000,4.000000,83.333336,,,,,,,,,,,,,,,,,,,,,,,,,,,,,,,,,,,,,,,,,,,,,,,
1665780223.140142,1665780223.140608,52.000000,0.000000,4298.717773,4315.641113,4312.948730,4319.358887,4305.128418,4295.512695,4303.589844,4308.461426,4314.358887,4294.743652,4476.922852,4495.000000,4371.282227,4436.282227,0.000000,2.000000,50.000000,,,,0.000000,4.000000,4.000000,4.000000,4.000000,4.000000,4.000000,4.000000,4.000000,2.000000,4.000000,4.000000,4.000000,4.000000,4.000000,83.333336,,,,,,,,,,,,,,,,,,,,,,,,,,,,,,,,,,,,,,,,,,,,,,,
1665780223.147951,1665780223.148416,53.000000,0.000000,4296.410156,4310.384766,4309.358887,4320.641113,4308.333496,4291.794922,4298.846191,4306.538574,4316.666504,4286.922852,4473.717773,4487.820313,4358.717773,4432.051270,0.000000,2.000000,50.000000,,,,0.000000,4.000000,4.000000,4.000000,4.000000,4.000000,4.000000,4.000000,4.000000,2.000000,4.000000,4.000000,4.000000,4.000000,4.000000,83.333336,,,,,,,,,,,,,,,,,,,,,,,,,,,,,,,,,,,,,,,,,,,,,,,
1665780223.155759,1665780223.156125,54.000000,0.000000,4297.692383,4313.717773,4309.871582,4320.000000,4308.717773,4290.512695,4300.897461,4310.000000,4318.333496,4278.461426,4473.974121,4484.743652,4357.820313,4430.000000,0.000000,2.000000,50.000000,,,,0.000000,4.000000,4.000000,4.000000,4.000000,4.000000,4.000000,4.000000,4.000000,2.000000,4.000000,4.000000,4.000000,4.000000,4.000000,83.333336,,,,,,,,,,,,,,,,,,,,,,,,,,,,,,,,,,,,,,,,,,,,,,,
1665780223.163567,1665780223.163933,55.000000,0.000000,4296.666504,4324.102539,4316.410156,4323.846191,4304.743652,4289.358887,4309.102539,4313.589844,4316.922852,4283.974121,4480.769043,4489.871582,4365.256348,4432.179688,0.000000,2.000000,50.000000,,,,0.000000,4.000000,4.000000,4.000000,4.000000,4.000000,4.000000,4.000000,4.000000,2.000000,4.000000,4.000000,4.000000,4.000000,4.000000,83.333336,,,,,,,,,,,,,,,,,,,,,,,,,,,,,,,,,,,,,,,,,,,,,,,
1665780223.171376,1665780223.171642,56.000000,0.000000,4294.871582,4327.436035,4317.948730,4320.512695,4301.922852,4286.666504,4311.538574,4309.102539,4314.743652,4288.974121,4481.025879,4494.358887,4367.436035,4431.282227,0.000000,2.000000,50.000000,,,,0.000000,4.000000,4.000000,4.000000,4.000000,4.000000,4.000000,4.000000,4.000000,2.000000,4.000000,4.000000,4.000000,4.000000,4.000000,83.333336,,,,,,,,,,,,,,,,,,,,,,,,,,,,,,,,,,,,,,,,,,,,,,,
1665780223.179184,1665780223.179450,57.000000,0.000000,4295.256348,4319.102539,4309.871582,4310.384766,4303.333496,4290.512695,4310.641113,4301.538574,4312.307617,4282.563965,4470.384766,4488.974121,4363.846191,4427.820313,0.000000,2.000000,50.000000,,,,0.000000,4.000000,4.000000,4.000000,4.000000,4.000000,4.000000,4.000000,4.000000,2.000000,4.000000,4.000000,4.000000,4.000000,4.000000,83.333336,,,,,,,,,,,,,,,,,,,,,,,,,,,,,,,,,,,,,,,,,,,,,,,
1665780223.186993,1665780223.187159,58.000000,0.000000,4288.974121,4306.282227,4299.487305,4306.538574,4301.666504,4296.025879,4305.769043,4300.256348,4312.436035,4279.615234,4458.205078,4478.589844,4358.717773,4423.974121,0.000000,2.000000,50.000000,,,,0.000000,4.000000,4.000000,4.000000,4.000000,4.000000,4.000000,4.000000,4.000000,2.000000,4.000000,4.000000,4.000000,4.000000,4.000000,83.333336,,,,,,,,,,,,,,,,,,,,,,,,,,,,,,,,,,,,,,,,,,,,,,,
1665780223.194801,1665780223.195067,59.000000,0.000000,4277.436035,4295.897461,4292.820313,4305.256348,4296.410156,4290.512695,4296.025879,4302.436035,4309.743652,4279.230957,4455.769043,4473.333496,4350.128418,4418.846191,0.000000,2.000000,50.000000,,,,0.000000,4.000000,4.000000,4.000000,4.000000,4.000000,4.000000,4.000000,4.000000,2.000000,4.000000,4.000000,4.000000,4.000000,4.000000,83.333336,,,,,,,,,,,,,,,,,,,,,,,,,,,,,,,,,,,,,,,,,,,,,,,
1665780223.202609,1665780223.202875,60.000000,0.000000,4276.538574,4296.025879,4293.717773,4305.384766,4298.717773,4284.743652,4291.410156,4307.692383,4307.179688,4277.436035,4459.358887,4476.410156,4347.179688,4421.922852,0.000000,2.000000,50.000000,,,,0.000000,4.000000,4.000000,4.000000,4.000000,4.000000,4.000000,4.000000,4.000000,2.000000,4.000000,4.000000,4.000000,4.000000,4.000000,83.333336,,,,,,,,,,,,,,,,,,,,,,,,,,,,,,,,,,,,,,,,,,,,,,,
1665780223.210418,1665780223.210784,61.000000,0.000000,4285.000000,4304.487305,4301.282227,4310.769043,4309.358887,4285.769043,4292.051270,4317.179688,4316.025879,4278.589844,4462.051270,4478.717773,4349.871582,4429.102539,0.000000,2.000000,50.000000,,,,0.000000,4.000000,4.000000,4.000000,4.000000,4.000000,4.000000,4.000000,4.000000,2.000000,4.000000,4.000000,4.000000,4.000000,4.000000,83.333336,,,,,,,,,,,,,,,,,,,,,,,,,,,,,,,,,,,,,,,,,,,,,,,
1665780223.218226,1665780223.218592,62.000000,0.000000,4287.307617,4311.153809,4308.717773,4311.282227,4310.256348,4281.666504,4296.025879,4322.051270,4320.384766,4280.128418,4468.717773,4476.410156,4349.871582,4428.333496,0.000000,2.000000,50.000000,,,,0.000000,4.000000,4.000000,4.000000,4.000000,4.000000,4.000000,4.000000,4.000000,2.000000,4.000000,4.000000,4.000000,4.000000,4.000000,83.333336,,,,,,,,,,,,,,,,,,,,,,,,,,,,,,,,,,,,,,,,,,,,,,,
1665780223.226035,1665780223.226501,63.000000,0.000000,4286.666504,4309.743652,4311.538574,4307.692383,4300.384766,4277.051270,4301.922852,4317.436035,4310.897461,4278.333496,4472.051270,4482.948730,4353.333496,4424.615234,0.000000,2.000000,50.000000,,,,0.000000,4.000000,4.000000,4.000000,4.000000,4.000000,4.000000,4.000000,4.000000,2.000000,4.000000,4.000000,4.000000,4.000000,4.000000,83.333336,,,,,,,,,,,,,,,,,,,,,,,,,,,,,,,,,,,,,,,,,,,,,,,
1665780223.233843,1665780223.234309,64.000000,0.000000,4291.538574,4311.153809,4313.205078,4310.384766,4295.000000,4284.487305,4306.282227,4309.871582,4305.512695,4277.820313,4464.615234,4493.205078,4358.846191,4427.820313,2351.000000,2.000000,50.000000,,,,0.000000,4.000000,4.000000,4.000000,4.000000,4.000000,4.000000,4.000000,4.000000,2.000000,4.000000,4.000000,4.000000,4.000000,4.000000,83.333336,,,,,,,,,,,,,,,,,,,,,,,,,,,,,,,,,,,,,,,,,,,,,,,
1665780223.241651,1665780223.242217,65.000000,0.000000,4292.051270,4313.589844,4307.948730,4311.666504,4296.666504,4291.666504,4307.179688,4302.051270,4306.794922,4278.717773,4459.102539,4488.333496,4358.205078,4429.358887,2359.000000,2.000000,50.000000,,,,0.000000,4.000000,4.000000,4.000000,4.000000,4.000000,4.000000,4.000000,4.000000,2.000000,4.000000,4.000000,4.000000,4.000000,4.000000,83.333336,,,,,,,,,,,,,,,,,,,,,,,,,,,,,,,,,,,,,,,,,,,,,,,
1665780223.249460,1665780223.250026,66.000000,0.000000,4284.230957,4303.974121,4299.743652,4310.641113,4296.538574,4294.487305,4305.128418,4293.461426,4305.512695,4280.897461,4456.794922,4476.025879,4356.538574,4426.794922,2271.000000,2.000000,50.000000,,,,0.000000,4.000000,4.000000,4.000000,4.000000,4.000000,4.000000,4.000000,4.000000,2.000000,4.000000,4.000000,4.000000,4.000000,4.000000,83.333336,,,,,,,,,,,,,,,,,,,,,,,,,,,,,,,,,,,,,,,,,,,,,,,
1665780223.257268,1665780223.257934,67.000000,0.000000,4278.717773,4292.820313,4294.358887,4308.205078,4293.974121,4295.769043,4301.025879,4293.333496,4307.948730,4280.000000,4452.948730,4469.487305,4355.128418,4425.000000,2339.000000,2.000000,50.000000,,,,0.000000,4.000000,4.000000,4.000000,4.000000,4.000000,4.000000,4.000000,4.000000,2.000000,4.000000,4.000000,4.000000,4.000000,4.000000,83.333336,,,,,,,,,,,,,,,,,,,,,,,,,,,,,,,,,,,,,,,,,,,,,,,
1665780223.265077,1665780223.265743,68.000000,0.000000,4280.256348,4293.333496,4288.846191,4300.256348,4297.051270,4287.563965,4297.692383,4297.179688,4312.563965,4270.256348,4455.512695,4463.461426,4351.538574,4420.512695,2282.000000,2.000000,50.000000,,,,0.000000,4.000000,4.000000,4.000000,4.000000,4.000000,4.000000,4.000000,4.000000,2.000000,4.000000,4.000000,4.000000,4.000000,4.000000,83.333336,,,,,,,,,,,,,,,,,,,,,,,,,,,,,,,,,,,,,,,,,,,,,,,
1665780223.272885,1665780223.273451,69.000000,0.000000,4275.512695,4292.436035,4284.230957,4296.282227,4298.333496,4277.948730,4294.487305,4295.641113,4307.436035,4264.615234,4460.641113,4456.153809,4349.871582,4414.487305,2326.000000,2.000000,50.000000,,,,0.000000,4.000000,4.000000,4.000000,4.000000,4.000000,4.000000,4.000000,4.000000,2.000000,4.000000,4.000000,4.000000,4.000000,4.000000,83.333336,1.000000,66.666664,4.000000,3.000000,3.000000,4.000000,4.000000,4.000000,4.000000,4.000000,2.000000,4.000000,4.000000,4.000000,4.000000,3.000000,1.000000,0.502669,-0.701391,-1.379581,0.200799,1.000000,0.185489,2.989966,1.792000,8.250425,0.236587,1.000000,0.240548,27.058622,-31.014257,184.019516,1.000000,0.164682,0.174907,0.093140,0.311110,1.000000,0.381360,3.418072,-3.857277,14.538038,1.000000,0.388155,0.388155,0.000000,1.000000
1665780223.280693,1665780223.281260,70.000000,0.000000,4266.794922,4284.358887,4286.922852,4297.307617,4286.794922,4275.769043,4292.307617,4291.538574,4303.077148,4264.871582,4458.077148,4455.769043,4350.128418,4411.410156,2155.000000,2.000000,50.000000,,,,0.000000,4.000000,4.000000,4.000000,4.000000,4.000000,4.000000,4.000000,4.000000,2.000000,4.000000,4.000000,4.000000,4.000000,4.000000,83.333336,,,,,,,,,,,,,,,,,,,,,,,,,,,,,,,,,,,,,,,,,,,,,,,
1665780223.288502,1665780223.288968,71.000000,0.000000,4264.871582,4273.974121,4290.128418,4290.128418,4276.794922,4275.384766,4293.205078,4293.205078,4306.794922,4261.282227,4458.077148,4458.974121,4353.333496,4405.769043,2084.000000,2.000000,50.000000,,,,0.000000,4.000000,4.000000,4.000000,4.000000,4.000000,4.000000,4.000000,4.000000,2.000000,4.000000,4.000000,4.000000,4.000000,4.000000,83.333336,,,,,,,,,,,,,,,,,,,,,,,,,,,,,,,,,,,,,,,,,,,,,,,
1665780223.296310,1665780223.296777,72.000000,0.000000,4266.410156,4265.897461,4287.307617,4282.436035,4281.794922,4276.025879,4295.512695,4297.307617,4308.589844,4262.436035,4459.615234,4461.538574,4358.974121,4395.128418,1043.000000,2.000000,50.000000,,,,0.000000,4.000000,4.000000,4.000000,4.000000,4.000000,4.000000,4.000000,4.000000,2.000000,4.000000,4.000000,4.000000,4.000000,4.000000,83.333336,,,,,,,,,,,,,,,,,,,,,,,,,,,,,,,,,,,,,,,,,,,,,,,
1665780223.304119,1665780223.304485,73.000000,0.000000,4262.692383,4262.692383,4279.487305,4286.922852,4288.589844,4281.666504,4292.179688,4295.384766,4302.820313,4264.358887,4450.641113,4459.487305,4356.666504,4386.153809,2386.000000,2.000000,50.000000,,,,0.000000,4.000000,4.000000,4.000000,4.000000,4.000000,4.000000,4.000000,4.000000,2.000000,4.000000,4.000000,4.000000,4.000000,4.000000,83.333336,,,,,,,,,,,,,,,,,,,,,,,,,,,,,,,,,,,,,,,,,,,,,,,
1665780223.311927,1665780223.312294,74.000000,0.000000,4254.487305,4255.897461,4269.743652,4291.025879,4289.487305,4280.384766,4283.077148,4292.307617,4300.128418,4255.384766,4441.666504,4453.846191,4347.307617,4380.000000,2685.000000,2.000000,50.000000,,,,0.000000,4.000000,4.000000,4.000000,4.000000,4.000000,4.000000,4.000000,4.000000,2.000000,4.000000,4.000000,4.000000,4.000000,4.000000,83.333336,,,,,,,,,,,,,,,,,,,,,,,,,,,,,,,,,,,,,,,,,,,,,,,
1665780223.319735,1665780223.320002,75.000000,0.000000,4255.000000,4246.922852,4270.641113,4286.794922,4291.282227,4268.974121,4277.692383,4293.333496,4303.333496,4248.205078,4442.948730,4452.307617,4341.538574,4376.922852,2645.000000,2.000000,50.000000,,,,0.000000,4.000000,4.000000,4.000000,4.000000,4.000000,4.000000,4.000000,4.000000,2.000000,4.000000,4.000000,4.000000,4.000000,4.000000,83.333336,,,,,,,,,,,,,,,,,,,,,,,,,,,,,,,,,,,,,,,,,,,,,,,
1665780223.327544,1665780223.327910,76.000000,0.000000,4262.436035,4253.461426,4279.743652,4286.282227,4292.436035,4263.846191,4278.589844,4292.436035,4300.384766,4249.358887,4446.410156,4447.820313,4342.948730,4373.717773,2827.000000,2.000000,50.000000,,,,0.000000,4.000000,4.000000,4.000000,4.000000,4.000000,4.000000,4.000000,4.000000,2.000000,4.000000,4.000000,4.000000,4.000000,4.000000,83.333336,,,,,,,,,,,,,,,,,,,,,,,,,,,,,,,,,,,,,,,,,,,,,,,
1665780223.335352,1665780223.335719,77.000000,0.000000,4263.846191,4265.641113,4280.128418,4290.897461,4290.128418,4266.025879,4280.128418,4289.615234,4294.230957,4247.179688,4445.384766,4442.051270,4342.436035,4366.153809,3087.000000,2.000000,50.000000,,,,0.000000,4.000000,4.000000,4.000000,4.000000,4.000000,4.000000,4.000000,4.000000,2.000000,4.000000,4.000000,4.000000,4.000000,4.000000,83.333336,,,,,,,,,,,,,,,,,,,,,,,,,,,,,,,,,,,,,,,,,,,,,,,
1665780223.343161,1665780223.343627,78.000000,0.000000,4261.666504,4263.333496,4278.589844,4289.743652,4286.282227,4266.666504,4281.538574,4287.307617,4294.743652,4243.077148,4444.230957,4448.077148,4337.948730,4363.333496,2685.000000,2.000000,50.000000,,,,0.000000,4.000000,4.000000,4.000000,4.000000,4.000000,4.000000,4.000000,4.000000,2.000000,4.000000,4.000000,4.000000,4.000000,4.000000,83.333336,,,,,,,,,,,,,,,,,,,,,,,,,,,,,,,,,,,,,,,,,,,,,,,
1665780223.350969,1665780223.351436,79.000000,0.000000,4268.333496,4259.358887,4281.666504,4281.282227,4280.384766,4264.615234,4280.641113,4283.333496,4295.000000,4245.128418,4445.384766,4458.846191,4340.384766,4365.512695,2645.000000,2.000000,50.000000,,,,0.000000,4.000000,4.000000,4.000000,4.000000,4.000000,4.000000,4.000000,4.000000,2.000000,4.000000,4.000000,4.000000,4.000000,4.000000,83.333336,,,,,,,,,,,,,,,,,,,,,,,,,,,,,,,,,,,,,,,,,,,,,,,
1665780223.358777,1665780223.359344,80.000000,0.000000,4278.077148,4264.230957,4281.153809,4279.743652,4277.179688,4263.717773,4277.820313,4276.410156,4293.205078,4254.102539,4444.871582,4458.974121,4350.000000,4367.051270,2827.000000,2.000000,50.000000,,,,0.000000,4.000000,4.000000,4.000000,4.000000,4.000000,4.000000,4.000000,4.000000,2.000000,4.000000,4.000000,4.000000,4.000000,4.000000,83.333336,,,,,,,,,,,,,,,,,,,,,,,,,,,,,,,,,,,,,,,,,,,,,,,
1665780223.366586,1665780223.367153,81.000000,0.000000,4283.461426,4263.717773,4279.358887,4288.846191,4277.563965,4264.743652,4277.436035,4276.410156,4295.000000,4261.538574,4443.461426,4457.436035,4355.256348,4371.922852,3087.000000,2.000000,50.000000,,,,0.000000,4.000000,4.000000,4.000000,4.000000,4.000000,4.000000,4.000000,4.000000,2.000000,4.000000,4.000000,4.000000,4.000000,4.000000,83.333336,,,,,,,,,,,,,,,,,,,,,,,,,,,,,,,,,,,,,,,,,,,,,,,
1665780223.374394,1665780223.374961,82.000000,0.000000,4290.897461,4262.436035,4287.948730,4295.512695,4277.563965,4269.358887,4280.641113,4286.538574,4301.538574,4264.871582,4448.974121,4467.051270,4359.230957,4380.256348,2685.000000,2.000000,50.000000,,,,0.000000,4.000000,4.000000,4.000000,4.000000,4.000000,4.000000,4.000000,4.000000,2.000000,4.000000,4.000000,4.000000,4.000000,4.000000,83.333336,,,,,,,,,,,,,,,,,,,,,,,,,,,,,,,,,,,,,,,,,,,,,,,
1665780223.382203,1665780223.382669,83.000000,0.000000,4296.538574,4270.641113,4296.794922,4299.358887,4280.128418,4269.871582,4282.820313,4299.743652,4308.974121,4269.615234,4464.230957,4478.077148,4366.153809,4386.922852,2645.000000,2.000000,50.000000,,,,0.000000,4.000000,4.000000,4.000000,4.000000,4.000000,4.000000,4.000000,4.000000,2.000000,4.000000,4.000000,4.000000,4.000000,4.000000,83.333336,,,,,,,,,,,,,,,,,,,,,,,,,,,,,,,,,,,,,,,,,,,,,,,
1665780223.390011,1665780223.390578,84.000000,0.000000,4295.769043,4279.871582,4298.589844,4304.615234,4286.282227,4263.077148,4285.256348,4308.974121,4311.025879,4270.769043,4473.846191,4477.820313,4365.897461,4387.436035,2827.000000,2.000000,50.000000,,,,0.000000,4.000000,4.000000,4.000000,4.000000,4.000000,4.000000,4.000000,4.000000,2.000000,4.000000,4.000000,4.000000,4.000000,4.000000,83.333336,,,,,,,,,,,,,,,,,,,,,,,,,,,,,,,,,,,,,,,,,,,,,,,
1665780223.397820,1665780223.398386,85.000000,0.000000,4295.256348,4285.641113,4302.051270,4304.230957,4291.153809,4267.820313,4295.128418,4311.282227,4307.692383,4265.512695,4473.589844,4474.230957,4363.974121,4386.794922,3087.000000,2.000000,50.000000,,,,0.000000,4.000000,4.000000,4.000000,4.000000,4.000000,4.000000,4.000000,4.000000,2.000000,4.000000,4.000000,4.000000,4.000000,4.000000,83.333336,,,,,,,,,,,,,,,,,,,,,,,,,,,,,,,,,,,,,,,,,,,,,,,
1665780223.405628,1665780223.406295,86.000000,0.000000,4297.179688,4288.077148,4307.820313,4300.000000,4294.102539,4280.769043,4303.205078,4312.436035,4306.282227,4270.641113,4476.410156,4484.358887,4370.512695,4388.974121,2685.000000,2.000000,50.000000,,,,0.000000,4.000000,4.000000,4.000000,4.000000,4.000000,4.000000,4.000000,4.000000,2.000000,4.000000,4.000000,4.000000,4.000000,4.000000,83.333336,,,,,,,,,,,,,,,,,,,,,,,,,,,,,,,,,,,,,,,,,,,,,,,
1665780223.413436,1665780223.414103,87.000000,0.000000,4295.769043,4286.153809,4304.358887,4299.230957,4295.256348,4282.307617,4300.000000,4309.871582,4309.487305,4282.820313,4476.153809,4491.538574,4375.897461,4388.333496,2645.000000,2.000000,50.000000,,,,0.000000,4.000000,4.000000,4.000000,4.000000,4.000000,4.000000,4.000000,4.000000,2.000000,4.000000,4.000000,4.000000,4.000000,4.000000,83.333336,,,,,,,,,,,,,,,,,,,,,,,,,,,,,,,,,,,,,,,,,,,,,,,
1665780223.421245,1665780223.422011,88.000000,0.000000,4295.128418,4283.205078,4295.641113,4301.410156,4295.384766,4277.820313,4290.512695,4301.410156,4309.358887,4285.128418,4466.794922,4481.666504,4374.743652,4382.051270,2827.000000,2.000000,50.000000,,,,0.000000,4.000000,4.000000,4.000000,4.000000,4.000000,4.000000,4.000000,4.000000,2.000000,4.000000,4.000000,4.000000,4.000000,4.000000,83.333336,,,,,,,,,,,,,,,,,,,,,,,,,,,,,,,,,,,,,,,,,,,,,,,
1665780223.429053,1665780223.429820,89.000000,0.000000,4292.692383,4280.000000,4292.307617,4299.487305,4295.384766,4279.487305,4283.461426,4295.384766,4306.153809,4282.051270,4461.153809,4472.436035,4367.820313,4379.615234,3087.000000,2.000000,50.000000,,,,0.000000,4.000000,4.000000,4.000000,4.000000,4.000000,4.000000,4.000000,4.000000,2.000000,4.000000,4.000000,4.000000,4.000000,4.000000,83.333336,,,,,,,,,,,,,,,,,,,,,,,,,,,,,,,,,,,,,,,,,,,,,,,
1665780223.436862,1665780223.437728,90.000000,0.000000,4287.436035,4277.948730,4291.922852,4298.205078,4300.512695,4281.666504,4283.717773,4293.974121,4305.256348,4279.102539,4459.743652,4471.794922,4361.666504,4378.717773,2685.000000,2.000000,50.000000,,,,0.000000,4.000000,4.000000,4.000000,4.000000,4.000000,4.000000,4.000000,4.000000,2.000000,4.000000,4.000000,4.000000,4.000000,4.000000,83.333336,,,,,,,,,,,,,,,,,,,,,,,,,,,,,,,,,,,,,,,,,,,,,,,
1665780223.444670,1665780223.445537,91.000000,0.000000,4288.846191,4279.358887,4293.589844,4304.871582,4306.922852,4281.538574,4289.487305,4294.743652,4303.846191,4275.256348,4460.384766,4472.948730,4360.256348,4373.205078,2645.000000,2.000000,50.000000,,,,0.000000,4.000000,4.000000,4.000000,4.000000,4.000000,4.000000,4.000000,4.000000,2.000000,4.000000,4.000000,4.000000,4.000000,4.000000,83.333336,,,,,,,,,,,,,,,,,,,,,,,,,,,,,,,,,,,,,,,,,,,,,,,
1665780223.452479,1665780223.453245,92.000000,0.000000,4292.820313,4283.846191,4297.307617,4309.871582,4304.358887,4280.384766,4294.743652,4297.820313,4305.512695,4272.563965,4467.563965,4471.282227,4358.846191,4374.871582,2827.000000,2.000000,50.000000,,,,0.000000,4.000000,4.000000,4.000000,4.000000,4.000000,4.000000,4.000000,4.000000,2.000000,4.000000,4.000000,4.000000,4.000000,4.000000,83.333336,,,,,,,,,,,,,,,,,,,,,,,,,,,,,,,,,,,,,,,,,,,,,,,
1665780223.460287,1665780223.461054,93.000000,0.000000,4295.512695,4288.333496,4300.641113,4307.051270,4297.692383,4282.692383,4298.846191,4302.820313,4309.871582,4273.461426,4476.410156,4476.794922,4360.128418,4381.025879,3087.000000,2.000000,50.000000,,,,0.000000,4.000000,4.000000,4.000000,4.000000,4.000000,4.000000,4.000000,4.000000,2.000000,4.000000,4.000000,4.000000,4.000000,4.000000,83.333336,,,,,,,,,,,,,,,,,,,,,,,,,,,,,,,,,,,,,,,,,,,,,,,
1665780223.468095,1665780223.468762,94.000000,0.000000,4300.000000,4294.102539,4305.256348,4306.410156,4296.794922,4289.358887,4303.205078,4304.871582,4309.871582,4276.666504,4476.538574,4488.077148,4365.384766,4380.512695,2685.000000,2.000000,50.000000,,,,0.000000,4.000000,4.000000,4.000000,4.000000,4.000000,4.000000,4.000000,4.000000,2.000000,4.000000,4.000000,4.000000,4.000000,4.000000,83.333336,,,,,,,,,,,,,,,,,,,,,,,,,,,,,,,,,,,,,,,,,,,,,,,
1665780223.475904,1665780223.476671,95.000000,0.000000,4300.897461,4294.615234,4308.077148,4310.512695,4296.666504,4294.358887,4305.512695,4307.307617,4307.179688,4278.461426,4468.974121,4493.077148,4368.461426,4380.256348,2645.000000,2.000000,50.000000,,,,0.000000,4.000000,4.000000,4.000000,4.000000,4.000000,4.000000,4.000000,4.000000,2.000000,4.000000,4.000000,4.000000,4.000000,4.000000,83.333336,,,,,,,,,,,,,,,,,,,,,,,,,,,,,,,,,,,,,,,,,,,,,,,
1665780223.483712,1665780223.484479,96.000000,0.000000,4299.230957,4287.179688,4307.179688,4311.410156,4298.333496,4294.102539,4306.922852,4311.538574,4309.230957,4278.461426,4465.256348,4491.410156,4365.641113,4385.512695,2827.000000,2.000000,50.000000,,,,0.000000,4.000000,4.000000,4.000000,4.000000,4.000000,4.000000,4.000000,4.000000,2.000000,4.000000,4.000000,4.000000,4.000000,4.000000,83.333336,,,,,,,,,,,,,,,,,,,,,,,,,,,,,,,,,,,,,,,,,,,,,,,
1665780223.491521,1665780223.492287,97.000000,0.000000,4297.436035,4285.000000,4307.820313,4309.871582,4302.948730,4287.692383,4304.743652,4311.794922,4311.922852,4280.512695,4471.153809,4492.307617,4362.179688,4389.871582,3087.000000,2.000000,50.000000,,,,0.000000,4.000000,4.000000,4.000000,4.000000,4.000000,4.000000,4.000000,4.000000,2.000000,4.000000,4.000000,4.000000,4.000000,4.000000,83.333336,,,,,,,,,,,,,,,,,,,,,,,,,,,,,,,,,,,,,,,,,,,,,,,
1665780223.499329,1665780223.499996,98.000000,0.000000,4297.179688,4291.538574,4311.922852,4311.282227,4300.769043,4279.615234,4300.512695,4315.000000,4311.410156,4280.897461,4476.282227,4492.051270,4359.871582,4390.256348,2685.000000,2.000000,50.000000,,,,0.000000,4.000000,4.000000,4.000000,4.000000,4.000000,4.000000,4.000000,4.000000,2.000000,4.000000,4.000000,4.000000,4.000000,4.000000,83.333336,,,,,,,,,,,,,,,,,,,,,,,,,,,,,,,,,,,,,,,,,,,,,,,
1665780223.507137,1665780223.507804,99.000000,0.000000,4300.769043,4297.820313,4314.487305,4314.487305,4296.922852,4279.230957,4301.282227,4320.000000,4311.282227,4281.153809,4475.128418,4487.307617,4358.717773,4389.743652,2645.000000,2.000000,50.000000,,,,0.000000,4.000000,4.000000,4.000000,4.000000,4.000000,4.000000,4.000000,4.000000,2.000000,4.000000,4.000000,4.000000,4.000000,4.000000,83.333336,,,,,,,,,,,,,,,,,,,,,,,,,,,,,,,,,,,,,,,,,,,,,,,
1665780223.514946,1665780223.515513,100.000000,0.000000,4303.205078,4299.230957,4315.769043,4312.820313,4298.333496,4282.307617,4301.282227,4319.615234,4310.384766,4281.538574,4478.333496,4491.153809,4359.743652,4386.666504,2827.000000,2.000000,50.000000,,,,0.000000,4.000000,4.000000,4.000000,4.000000,4.000000,4.000000,4.000000,4.000000,2.000000,4.000000,4.000000,4.000000,4.000000,4.000000,83.333336,,,,,,,,,,,,,,,,,,,,,,,,,,,,,,,,,,,,,,,,,,,,,,,
1665780223.522754,1665780223.523321,101.000000,0.000000,4298.461426,4298.717773,4312.307617,4301.666504,4295.256348,4278.205078,4295.897461,4312.307617,4307.179688,4275.128418,4476.025879,4491.922852,4357.307617,4381.025879,3087.000000,2.000000,50.000000,,,,0.000000,4.000000,4.000000,4.000000,4.000000,4.000000,4.000000,4.000000,4.000000,2.000000,4.000000,4.000000,4.000000,4.000000,4.000000,83.333336,,,,,,,,,,,,,,,,,,,,,,,,,,,,,,,,,,,,,,,,,,,,,,,
1665780223.530563,1665780223.531030,102.000000,0.000000,4289.871582,4294.230957,4300.000000,4295.000000,4289.102539,4275.641113,4293.333496,4300.897461,4302.820313,4264.743652,4461.153809,4480.897461,4349.102539,4373.717773,2685.000000,2.000000,50.000000,,,,0.000000,4.000000,4.000000,4.000000,4.000000,4.000000,4.000000,4.000000,4.000000,2.000000,4.000000,4.000000,4.000000,4.000000,4.000000,83.333336,,,,,,,,,,,,,,,,,,,,,,,,,,,,,,,,,,,,,,,,,,,,,,,
1665780223.538371,1665780223.538838,103.000000,0.000000,4285.000000,4283.077148,4290.000000,4294.743652,4290.384766,4286.410156,4293.205078,4293.077148,4296.153809,4262.179688,4453.205078,4472.563965,4340.769043,4369.230957,2645.000000,2.000000,50.000000,,,,0.000000,4.000000,4.000000,4.000000,4.000000,4.000000,4.000000,4.000000,4.000000,2.000000,4.000000,4.000000,4.000000,4.000000,4.000000,83.333336,,,,,,,,,,,,,,,,,,,,,,,,,,,,,,,,,,,,,,,,,,,,,,,
1665780223.546179,1665780223.546547,104.000000,0.000000,4285.512695,4277.307617,4292.692383,4295.128418,4294.230957,4297.436035,4292.692383,4294.871582,4295.512695,4268.461426,4456.410156,4473.974121,4339.615234,4373.846191,2827.000000,2.000000,50.000000,,,,0.000000,4.000000,4.000000,4.000000,4.000000,4.000000,4.000000,4.000000,4.000000,2.000000,4.000000,4.000000,4.000000,4.000000,4.000000,83.333336,,,,,,,,,,,,,,,,,,,,,,,,,,,,,,,,,,,,,,,,,,,,,,,
1665780223.553988,1665780223.554355,105.000000,0.000000,4291.025879,4285.641113,4301.282227,4302.948730,4298.846191,4297.436035,4295.256348,4304.615234,4305.897461,4270.897461,4459.743652,4485.128418,4341.666504,4383.205078,3087.000000,2.000000,50.000000,,,,0.000000,4.000000,4.000000,4.000000,4.000000,4.000000,4.000000,4.000000,4.000000,2.000000,4.000000,4.000000,4.000000,4.000000,4.000000,83.333336,,,,,,,,,,,,,,,,,,,,,,,,,,,,,,,,,,,,,,,,,,,,,,,
1665780223.561796,1665780223.562064,106.000000,0.000000,4293.205078,4294.487305,4306.666504,4312.820313,4307.179688,4294.230957,4298.974121,4311.282227,4310.641113,4267.307617,4461.282227,4489.358887,4341.282227,4385.384766,2685.000000,2.000000,50.000000,,,,0.000000,4.000000,4.000000,4.000000,4.000000,4.000000,4.000000,4.000000,4.000000,2.000000,4.000000,4.000000,4.000000,4.000000,4.000000,83.333336,,,,,,,,,,,,,,,,,,,,,,,,,,,,,,,,,,,,,,,,,,,,,,,
1665780223.569605,1665780223.569972,107.000000,0.000000,4292.179688,4296.025879,4309.487305,4309.743652,4312.563965,4296.025879,4302.307617,4310.769043,4303.846191,4264.487305,4460.641113,4478.205078,4341.538574,4381.153809,2645.000000,2.000000,50.000000,,,,0.000000,4.000000,4.000000,4.000000,4.000000,4.000000,4.000000,4.000000,4.000000,2.000000,4.000000,4.000000,4.000000,4.000000,4.000000,83.333336,,,,,,,,,,,,,,,,,,,,,,,,,,,,,,,,,,,,,,,,,,,,,,,
1665780223.577413,1665780223.577781,108.000000,0.000000,4293.846191,4300.000000,4309.743652,4303.077148,4309.871582,4296.922852,4307.307617,4305.769043,4301.025879,4263.589844,4460.512695,4475.512695,4343.974121,4379.871582,2827.000000,2.000000,50.000000,,,,0.000000,4.000000,4.000000,4.000000,4.000000,4.000000,4.000000,4.000000,4.000000,2.000000,4.000000,4.000000,4.000000,4.000000,4.000000,83.333336,,,,,,,,,,,,,,,,,,,,,,,,,,,,,,,,,,,,,,,,,,,,,,,
1665780223.585221,1665780223.585689,109.000000,0.000000,4295.769043,4303.077148,4310.512695,4306.538574,4301.794922,4295.384766,4312.307617,4304.487305,4305.000000,4265.128418,4464.102539,4490.256348,4348.974121,4384.743652,3087.000000,2.000000,50.000000,,,,0.000000,4.000000,4.000000,4.000000,4.000000,4.000000,4.000000,4.000000,4.000000,2.000000,4.000000,4.000000,4.000000,4.000000,4.000000,83.333336,,,,,,,,,,,,,,,,,,,,,,,,,,,,,,,,,,,,,,,,,,,,,,,
1665780223.593030,1665780223.593498,110.000000,0.000000,4298.205078,4298.461426,4312.179688,4308.717773,4299.358887,4293.846191,4308.974121,4306.153809,4304.743652,4266.666504,4464.230957,4497.307617,4352.948730,4388.846191,2685.000000,2.000000,50.000000,,,,0.000000,4.000000,4.000000,4.000000,4.000000,4.000000,4.000000,4.000000,4.000000,2.000000,4.000000,4.000000,4.000000,4.000000,4.000000,83.333336,,,,,,,,,,,,,,,,,,,,,,,,,,,,,,,,,,,,,,,,,,,,,,,
1665780223.600838,1665780223.601406,111.000000,0.000000,4298.333496,4295.512695,4306.282227,4310.512695,4305.256348,4295.000000,4299.102539,4304.230957,4305.512695,4265.384766,4458.974121,4490.897461,4347.948730,4386.666504,2645.000000,2.000000,50.000000,,,,0.000000,4.000000,4.000000,4.000000,4.000000,4.000000,4.000000,4.000000,4.000000,2.000000,4.000000,4.000000,4.000000,4.000000,4.000000,83.333336,,,,,,,,,,,,,,,,,,,,,,,,,,,,,,,,,,,,,,,,,,,,,,,
