title:Psychopy_Kevin_Speakers_Closed, start timestamp:1665771848.362062, stop timestamp:1665771909.369143, headset type:EPOCX, headset serial:E2020A42, headset firmware:720, channels:86, sampling rate:eeg_128;pm_2, samples:7814      , version:2.1, 
Timestamp,OriginalTimestamp,EEG.Counter,EEG.Interpolated,EEG.AF3,EEG.F7,EEG.F3,EEG.FC5,EEG.T7,EEG.P7,EEG.O1,EEG.O2,EEG.P8,EEG.T8,EEG.FC6,EEG.F4,EEG.F8,EEG.AF4,EEG.RawCq,EEG.Battery,EEG.BatteryPercent,MarkerIndex,MarkerType,MarkerValueInt,EEG.MarkerHardware,CQ.AF3,CQ.F7,CQ.F3,CQ.FC5,CQ.T7,CQ.P7,CQ.O1,CQ.O2,CQ.P8,CQ.T8,CQ.FC6,CQ.F4,CQ.F8,CQ.AF4,CQ.Overall,EQ.SampleRateQuality,EQ.OVERALL,EQ.AF3,EQ.F7,EQ.F3,EQ.FC5,EQ.T7,EQ.P7,EQ.O1,EQ.O2,EQ.P8,EQ.T8,EQ.FC6,EQ.F4,EQ.F8,EQ.AF4,PM.Engagement.IsActive,PM.Engagement.Scaled,PM.Engagement.Raw,PM.Engagement.Min,PM.Engagement.Max,PM.Excitement.IsActive,PM.Excitement.Scaled,PM.Excitement.Raw,PM.Excitement.Min,PM.Excitement.Max,PM.LongTermExcitement,PM.Stress.IsActive,PM.Stress.Scaled,PM.Stress.Raw,PM.Stress.Min,PM.Stress.Max,PM.Relaxation.IsActive,PM.Relaxation.Scaled,PM.Relaxation.Raw,PM.Relaxation.Min,PM.Relaxation.Max,PM.Interest.IsActive,PM.Interest.Scaled,PM.Interest.Raw,PM.Interest.Min,PM.Interest.Max,PM.Focus.IsActive,PM.Focus.Scaled,PM.Focus.Raw,PM.Focus.Min,PM.Focus.Max
1665771848.362062,1665771848.361965,73.000000,0.000000,4236.410156,4261.794922,4284.230957,4298.205078,4271.666504,4287.179688,4292.179688,4294.615234,4293.333496,4264.358887,4460.256348,4482.563965,4352.436035,4393.974121,2396.000000,2.000000,52.000000,,,,0.000000,4.000000,4.000000,4.000000,4.000000,4.000000,4.000000,4.000000,4.000000,4.000000,4.000000,4.000000,4.000000,4.000000,4.000000,100.000000,,,,,,,,,,,,,,,,,,,,,,,,,,,,,,,,,,,,,,,,,,,,,,,
1665771848.369871,1665771848.369874,74.000000,0.000000,4234.743652,4256.410156,4285.512695,4290.897461,4261.538574,4280.256348,4290.512695,4291.153809,4293.846191,4255.384766,4459.615234,4478.589844,4344.743652,4392.307617,2570.000000,2.000000,52.000000,,,,0.000000,4.000000,4.000000,4.000000,4.000000,4.000000,4.000000,4.000000,4.000000,4.000000,4.000000,4.000000,4.000000,4.000000,4.000000,100.000000,,,,,,,,,,,,,,,,,,,,,,,,,,,,,,,,,,,,,,,,,,,,,,,
1665771848.377679,1665771848.377682,75.000000,0.000000,4240.384766,4257.692383,4289.358887,4289.615234,4266.282227,4280.128418,4283.717773,4290.256348,4287.563965,4254.743652,4453.589844,4479.230957,4336.922852,4392.563965,2466.000000,2.000000,52.000000,,,,0.000000,4.000000,4.000000,4.000000,4.000000,4.000000,4.000000,4.000000,4.000000,4.000000,4.000000,4.000000,4.000000,4.000000,4.000000,100.000000,,,,,,,,,,,,,,,,,,,,,,,,,,,,,,,,,,,,,,,,,,,,,,,
1665771848.385487,1665771848.385591,76.000000,0.000000,4251.538574,4260.641113,4292.179688,4291.410156,4266.794922,4276.282227,4278.205078,4289.487305,4281.025879,4266.538574,4451.153809,4480.000000,4345.128418,4396.794922,2638.000000,2.000000,52.000000,,,,0.000000,4.000000,4.000000,4.000000,4.000000,4.000000,4.000000,4.000000,4.000000,4.000000,4.000000,4.000000,4.000000,4.000000,4.000000,100.000000,,,,,,,,,,,,,,,,,,,,,,,,,,,,,,,,,,,,,,,,,,,,,,,
1665771848.393296,1665771848.393399,77.000000,0.000000,4264.102539,4270.769043,4297.948730,4299.102539,4266.025879,4266.922852,4276.666504,4283.846191,4282.436035,4268.205078,4459.230957,4482.051270,4360.641113,4408.333496,3321.000000,2.000000,52.000000,,,,0.000000,4.000000,4.000000,4.000000,4.000000,4.000000,4.000000,4.000000,4.000000,4.000000,4.000000,4.000000,4.000000,4.000000,4.000000,100.000000,,,,,,,,,,,,,,,,,,,,,,,,,,,,,,,,,,,,,,,,,,,,,,,
1665771848.401104,1665771848.401307,78.000000,0.000000,4273.461426,4287.051270,4309.358887,4312.051270,4280.128418,4266.538574,4277.179688,4280.897461,4277.820313,4264.615234,4468.717773,4485.769043,4363.589844,4419.102539,2570.000000,2.000000,52.000000,,,,0.000000,4.000000,4.000000,4.000000,4.000000,4.000000,4.000000,4.000000,4.000000,4.000000,4.000000,4.000000,4.000000,4.000000,4.000000,100.000000,,,,,,,,,,,,,,,,,,,,,,,,,,,,,,,,,,,,,,,,,,,,,,,
1665771848.408913,1665771848.409116,79.000000,0.000000,4277.051270,4296.922852,4314.871582,4317.051270,4290.512695,4270.256348,4278.589844,4282.179688,4266.666504,4268.717773,4471.153809,4489.102539,4363.077148,4422.436035,2466.000000,2.000000,52.000000,,,,0.000000,4.000000,4.000000,4.000000,4.000000,4.000000,4.000000,4.000000,4.000000,4.000000,4.000000,4.000000,4.000000,4.000000,4.000000,100.000000,,,,,,,,,,,,,,,,,,,,,,,,,,,,,,,,,,,,,,,,,,,,,,,
1665771848.416721,1665771848.417024,80.000000,0.000000,4278.974121,4300.000000,4315.128418,4315.384766,4290.128418,4265.641113,4277.820313,4280.256348,4263.717773,4262.307617,4472.692383,4498.974121,4368.205078,4424.102539,2638.000000,2.000000,52.000000,,,,0.000000,4.000000,4.000000,4.000000,4.000000,4.000000,4.000000,4.000000,4.000000,4.000000,4.000000,4.000000,4.000000,4.000000,4.000000,100.000000,,,,,,,,,,,,,,,,,,,,,,,,,,,,,,,,,,,,,,,,,,,,,,,
1665771848.424529,1665771848.424833,81.000000,0.000000,4271.922852,4295.641113,4316.666504,4311.153809,4291.410156,4262.948730,4276.153809,4278.077148,4262.820313,4249.487305,4472.307617,4503.717773,4367.179688,4423.205078,3321.000000,2.000000,52.000000,,,,0.000000,4.000000,4.000000,4.000000,4.000000,4.000000,4.000000,4.000000,4.000000,4.000000,4.000000,4.000000,4.000000,4.000000,4.000000,100.000000,,,,,,,,,,,,,,,,,,,,,,,,,,,,,,,,,,,,,,,,,,,,,,,
1665771848.432338,1665771848.432541,82.000000,0.000000,4258.205078,4285.000000,4311.794922,4302.051270,4287.692383,4273.974121,4284.358887,4283.461426,4264.871582,4253.461426,4472.051270,4497.820313,4365.384766,4417.179688,2570.000000,2.000000,52.000000,,,,0.000000,4.000000,4.000000,4.000000,4.000000,4.000000,4.000000,4.000000,4.000000,4.000000,4.000000,4.000000,4.000000,4.000000,4.000000,100.000000,,,,,,,,,,,,,,,,,,,,,,,,,,,,,,,,,,,,,,,,,,,,,,,
1665771848.440146,1665771848.440450,83.000000,0.000000,4251.666504,4280.641113,4301.922852,4295.256348,4283.846191,4283.846191,4291.538574,4288.717773,4277.692383,4259.230957,4470.769043,4493.846191,4365.769043,4407.179688,2466.000000,2.000000,52.000000,,,,0.000000,4.000000,4.000000,4.000000,4.000000,4.000000,4.000000,4.000000,4.000000,4.000000,4.000000,4.000000,4.000000,4.000000,4.000000,100.000000,,,,,,,,,,,,,,,,,,,,,,,,,,,,,,,,,,,,,,,,,,,,,,,
1665771848.447955,1665771848.448258,84.000000,0.000000,4240.256348,4277.820313,4291.282227,4290.000000,4285.641113,4281.410156,4284.230957,4282.820313,4276.922852,4248.205078,4460.512695,4476.794922,4352.179688,4392.051270,2638.000000,2.000000,52.000000,,,,0.000000,4.000000,4.000000,4.000000,4.000000,4.000000,4.000000,4.000000,4.000000,4.000000,4.000000,4.000000,4.000000,4.000000,4.000000,100.000000,,,,,,,,,,,,,,,,,,,,,,,,,,,,,,,,,,,,,,,,,,,,,,,
1665771848.455763,1665771848.456066,85.000000,0.000000,4227.051270,4264.615234,4281.282227,4277.948730,4282.563965,4279.871582,4276.794922,4271.538574,4261.666504,4237.307617,4448.589844,4454.871582,4337.563965,4380.769043,3321.000000,2.000000,52.000000,,,,0.000000,4.000000,4.000000,4.000000,4.000000,4.000000,4.000000,4.000000,4.000000,4.000000,4.000000,4.000000,4.000000,4.000000,4.000000,100.000000,,,,,,,,,,,,,,,,,,,,,,,,,,,,,,,,,,,,,,,,,,,,,,,
1665771848.463571,1665771848.463775,86.000000,0.000000,4229.230957,4256.282227,4276.153809,4268.589844,4278.846191,4283.077148,4277.563965,4270.128418,4265.641113,4239.102539,4445.512695,4453.461426,4338.717773,4380.897461,2570.000000,2.000000,52.000000,,,,0.000000,4.000000,4.000000,4.000000,4.000000,4.000000,4.000000,4.000000,4.000000,4.000000,4.000000,4.000000,4.000000,4.000000,4.000000,100.000000,,,,,,,,,,,,,,,,,,,,,,,,,,,,,,,,,,,,,,,,,,,,,,,
1665771848.471380,1665771848.471583,87.000000,0.000000,4232.436035,4260.512695,4276.282227,4270.512695,4280.512695,4282.563965,4279.487305,4277.820313,4280.641113,4244.487305,4444.743652,4457.563965,4340.256348,4380.641113,2466.000000,2.000000,52.000000,,,,0.000000,4.000000,4.000000,4.000000,4.000000,4.000000,4.000000,4.000000,4.000000,4.000000,4.000000,4.000000,4.000000,4.000000,4.000000,100.000000,,,,,,,,,,,,,,,,,,,,,,,,,,,,,,,,,,,,,,,,,,,,,,,
1665771848.479188,1665771848.479292,88.000000,0.000000,4229.871582,4259.743652,4277.563965,4278.589844,4278.974121,4280.256348,4279.615234,4282.179688,4280.769043,4253.589844,4443.846191,4454.102539,4340.128418,4378.846191,2638.000000,2.000000,52.000000,,,,0.000000,4.000000,4.000000,4.000000,4.000000,4.000000,4.000000,4.000000,4.000000,4.000000,4.000000,4.000000,4.000000,4.000000,4.000000,100.000000,,,,,,,,,,,,,,,,,,,,,,,,,,,,,,,,,,,,,,,,,,,,,,,
1665771848.486997,1665771848.487100,89.000000,0.000000,4243.846191,4260.384766,4286.538574,4284.230957,4274.743652,4282.307617,4278.205078,4280.000000,4278.333496,4258.333496,4450.384766,4460.384766,4343.974121,4385.769043,3321.000000,2.000000,52.000000,,,,0.000000,4.000000,4.000000,4.000000,4.000000,4.000000,4.000000,4.000000,4.000000,4.000000,4.000000,4.000000,4.000000,4.000000,4.000000,100.000000,,,,,,,,,,,,,,,,,,,,,,,,,,,,,,,,,,,,,,,,,,,,,,,
1665771848.494805,1665771848.494809,90.000000,0.000000,4260.384766,4271.153809,4296.794922,4286.025879,4279.615234,4280.000000,4273.461426,4275.769043,4277.307617,4251.153809,4451.794922,4468.974121,4344.487305,4391.666504,2570.000000,2.000000,52.000000,,,,0.000000,4.000000,4.000000,4.000000,4.000000,4.000000,4.000000,4.000000,4.000000,4.000000,4.000000,4.000000,4.000000,4.000000,4.000000,100.000000,,,,,,,,,,,,,,,,,,,,,,,,,,,,,,,,,,,,,,,,,,,,,,,
1665771848.502614,1665771848.502617,91.000000,0.000000,4266.794922,4282.692383,4302.692383,4291.153809,4291.025879,4278.461426,4277.179688,4278.205078,4273.077148,4245.897461,4451.025879,4471.922852,4346.922852,4396.025879,2466.000000,2.000000,52.000000,,,,0.000000,4.000000,4.000000,4.000000,4.000000,4.000000,4.000000,4.000000,4.000000,4.000000,4.000000,4.000000,4.000000,4.000000,4.000000,100.000000,,,,,,,,,,,,,,,,,,,,,,,,,,,,,,,,,,,,,,,,,,,,,,,
1665771848.510422,1665771848.510326,92.000000,0.000000,4276.153809,4291.666504,4313.333496,4299.230957,4299.102539,4287.820313,4290.128418,4285.897461,4278.333496,4259.743652,4465.641113,4490.128418,4359.743652,4408.461426,2638.000000,2.000000,52.000000,,,,0.000000,4.000000,4.000000,4.000000,4.000000,4.000000,4.000000,4.000000,4.000000,4.000000,4.000000,4.000000,4.000000,4.000000,4.000000,100.000000,,,,,,,,,,,,,,,,,,,,,,,,,,,,,,,,,,,,,,,,,,,,,,,
1665771848.518230,1665771848.518134,93.000000,0.000000,4288.333496,4296.922852,4327.948730,4303.589844,4297.436035,4294.102539,4295.641113,4293.461426,4293.461426,4284.743652,4486.025879,4518.717773,4375.769043,4428.974121,3321.000000,2.000000,52.000000,,,,0.000000,4.000000,4.000000,4.000000,4.000000,4.000000,4.000000,4.000000,4.000000,4.000000,4.000000,4.000000,4.000000,4.000000,4.000000,100.000000,1.000000,100.000000,4.000000,4.000000,4.000000,4.000000,4.000000,4.000000,4.000000,4.000000,4.000000,4.000000,4.000000,4.000000,4.000000,4.000000,1.000000,0.328502,-0.761255,-1.476940,0.729719,1.000000,0.002776,2.977745,2.951384,12.448110,0.051226,1.000000,0.417144,87.705727,-84.959137,313.714752,1.000000,0.697059,0.211137,0.088086,0.254016,1.000000,0.481328,6.824941,-4.315745,18.014456,1.000000,0.084180,0.084180,0.000000,1.000000
1665771848.526039,1665771848.525843,94.000000,0.000000,4301.794922,4304.615234,4335.256348,4308.333496,4296.538574,4286.794922,4297.436035,4301.538574,4308.077148,4302.948730,4501.794922,4540.000000,4393.077148,4450.128418,2570.000000,2.000000,52.000000,,,,0.000000,4.000000,4.000000,4.000000,4.000000,4.000000,4.000000,4.000000,4.000000,4.000000,4.000000,4.000000,4.000000,4.000000,4.000000,100.000000,,,,,,,,,,,,,,,,,,,,,,,,,,,,,,,,,,,,,,,,,,,,,,,
1665771848.533847,1665771848.533651,95.000000,0.000000,4313.333496,4312.307617,4341.282227,4314.615234,4298.717773,4280.128418,4303.205078,4308.589844,4314.743652,4312.948730,4516.153809,4551.538574,4409.230957,4461.153809,2466.000000,2.000000,52.000000,,,,0.000000,4.000000,4.000000,4.000000,4.000000,4.000000,4.000000,4.000000,4.000000,4.000000,4.000000,4.000000,4.000000,4.000000,4.000000,100.000000,,,,,,,,,,,,,,,,,,,,,,,,,,,,,,,,,,,,,,,,,,,,,,,
1665771848.541656,1665771848.541360,96.000000,0.000000,4305.512695,4307.563965,4338.589844,4310.000000,4293.077148,4278.461426,4298.461426,4303.077148,4308.077148,4304.615234,4516.025879,4541.922852,4407.948730,4450.641113,2638.000000,2.000000,52.000000,,,,0.000000,4.000000,4.000000,4.000000,4.000000,4.000000,4.000000,4.000000,4.000000,4.000000,4.000000,4.000000,4.000000,4.000000,4.000000,100.000000,,,,,,,,,,,,,,,,,,,,,,,,,,,,,,,,,,,,,,,,,,,,,,,
1665771848.549464,1665771848.549268,97.000000,0.000000,4287.948730,4295.128418,4322.307617,4295.256348,4288.205078,4274.487305,4290.000000,4293.589844,4296.410156,4282.436035,4497.436035,4516.666504,4389.487305,4431.538574,3321.000000,2.000000,52.000000,,,,0.000000,4.000000,4.000000,4.000000,4.000000,4.000000,4.000000,4.000000,4.000000,4.000000,4.000000,4.000000,4.000000,4.000000,4.000000,100.000000,,,,,,,,,,,,,,,,,,,,,,,,,,,,,,,,,,,,,,,,,,,,,,,
1665771848.557272,1665771848.557077,98.000000,0.000000,4282.051270,4291.025879,4311.922852,4290.128418,4295.000000,4276.410156,4298.589844,4297.692383,4287.179688,4268.333496,4483.717773,4502.307617,4373.077148,4422.307617,2570.000000,2.000000,52.000000,,,,0.000000,4.000000,4.000000,4.000000,4.000000,4.000000,4.000000,4.000000,4.000000,4.000000,4.000000,4.000000,4.000000,4.000000,4.000000,100.000000,,,,,,,,,,,,,,,,,,,,,,,,,,,,,,,,,,,,,,,,,,,,,,,
1665771848.565081,1665771848.564985,99.000000,0.000000,4288.846191,4295.897461,4315.769043,4294.487305,4306.538574,4289.358887,4311.538574,4301.025879,4281.922852,4266.410156,4479.615234,4504.615234,4367.051270,4420.000000,2466.000000,2.000000,52.000000,,,,0.000000,4.000000,4.000000,4.000000,4.000000,4.000000,4.000000,4.000000,4.000000,4.000000,4.000000,4.000000,4.000000,4.000000,4.000000,100.000000,,,,,,,,,,,,,,,,,,,,,,,,,,,,,,,,,,,,,,,,,,,,,,,
1665771848.572889,1665771848.572794,100.000000,0.000000,4295.256348,4300.384766,4317.179688,4295.256348,4309.487305,4295.897461,4304.230957,4290.000000,4276.794922,4257.436035,4470.384766,4500.897461,4365.641113,4417.692383,2638.000000,2.000000,52.000000,,,,0.000000,4.000000,4.000000,4.000000,4.000000,4.000000,4.000000,4.000000,4.000000,4.000000,4.000000,4.000000,4.000000,4.000000,4.000000,100.000000,,,,,,,,,,,,,,,,,,,,,,,,,,,,,,,,,,,,,,,,,,,,,,,
1665771848.580698,1665771848.580702,101.000000,0.000000,4297.820313,4303.846191,4312.820313,4292.820313,4305.641113,4292.820313,4291.410156,4278.717773,4267.307617,4242.051270,4457.692383,4489.487305,4359.871582,4415.641113,3321.000000,2.000000,52.000000,,,,0.000000,4.000000,4.000000,4.000000,4.000000,4.000000,4.000000,4.000000,4.000000,4.000000,4.000000,4.000000,4.000000,4.000000,4.000000,100.000000,,,,,,,,,,,,,,,,,,,,,,,,,,,,,,,,,,,,,,,,,,,,,,,
1665771848.588506,1665771848.588510,102.000000,0.000000,4305.641113,4304.615234,4321.153809,4298.077148,4305.769043,4294.487305,4295.897461,4278.846191,4261.538574,4241.922852,4456.410156,4495.128418,4355.128418,4417.948730,2570.000000,2.000000,52.000000,,,,0.000000,4.000000,4.000000,4.000000,4.000000,4.000000,4.000000,4.000000,4.000000,4.000000,4.000000,4.000000,4.000000,4.000000,4.000000,100.000000,,,,,,,,,,,,,,,,,,,,,,,,,,,,,,,,,,,,,,,,,,,,,,,
1665771848.596315,1665771848.596419,103.000000,0.000000,4314.358887,4304.743652,4328.205078,4302.436035,4310.897461,4297.948730,4298.846191,4278.846191,4268.205078,4253.589844,4463.205078,4508.077148,4356.666504,4422.051270,2466.000000,2.000000,52.000000,,,,0.000000,4.000000,4.000000,4.000000,4.000000,4.000000,4.000000,4.000000,4.000000,4.000000,4.000000,4.000000,4.000000,4.000000,4.000000,100.000000,,,,,,,,,,,,,,,,,,,,,,,,,,,,,,,,,,,,,,,,,,,,,,,
1665771848.604123,1665771848.604227,104.000000,0.000000,4309.230957,4302.820313,4321.538574,4297.563965,4315.512695,4296.153809,4289.102539,4276.410156,4275.384766,4263.205078,4466.025879,4506.538574,4362.948730,4426.153809,2638.000000,2.000000,52.000000,,,,0.000000,4.000000,4.000000,4.000000,4.000000,4.000000,4.000000,4.000000,4.000000,4.000000,4.000000,4.000000,4.000000,4.000000,4.000000,100.000000,,,,,,,,,,,,,,,,,,,,,,,,,,,,,,,,,,,,,,,,,,,,,,,
1665771848.611931,1665771848.612135,105.000000,0.000000,4301.794922,4297.948730,4316.153809,4294.230957,4312.820313,4295.256348,4284.358887,4281.922852,4278.205078,4272.948730,4472.948730,4506.410156,4373.974121,4432.692383,3321.000000,2.000000,52.000000,,,,0.000000,4.000000,4.000000,4.000000,4.000000,4.000000,4.000000,4.000000,4.000000,4.000000,4.000000,4.000000,4.000000,4.000000,4.000000,100.000000,,,,,,,,,,,,,,,,,,,,,,,,,,,,,,,,,,,,,,,,,,,,,,,
1665771848.619740,1665771848.619944,106.000000,0.000000,4303.717773,4294.871582,4318.077148,4291.794922,4303.333496,4295.512695,4290.256348,4293.205078,4288.461426,4283.077148,4488.974121,4519.615234,4386.025879,4441.410156,2570.000000,2.000000,52.000000,,,,0.000000,4.000000,4.000000,4.000000,4.000000,4.000000,4.000000,4.000000,4.000000,4.000000,4.000000,4.000000,4.000000,4.000000,4.000000,100.000000,,,,,,,,,,,,,,,,,,,,,,,,,,,,,,,,,,,,,,,,,,,,,,,
1665771848.627548,1665771848.627652,107.000000,0.000000,4297.692383,4284.230957,4311.025879,4276.922852,4293.333496,4293.077148,4287.692383,4295.769043,4297.307617,4283.461426,4494.487305,4521.794922,4387.692383,4438.717773,2466.000000,2.000000,52.000000,,,,0.000000,4.000000,4.000000,4.000000,4.000000,4.000000,4.000000,4.000000,4.000000,4.000000,4.000000,4.000000,4.000000,4.000000,4.000000,100.000000,,,,,,,,,,,,,,,,,,,,,,,,,,,,,,,,,,,,,,,,,,,,,,,
1665771848.635357,1665771848.635461,108.000000,0.000000,4283.717773,4267.179688,4299.871582,4262.563965,4284.871582,4291.666504,4289.615234,4299.871582,4296.922852,4282.692383,4486.282227,4509.871582,4378.974121,4426.282227,2638.000000,2.000000,52.000000,,,,0.000000,4.000000,4.000000,4.000000,4.000000,4.000000,4.000000,4.000000,4.000000,4.000000,4.000000,4.000000,4.000000,4.000000,4.000000,100.000000,,,,,,,,,,,,,,,,,,,,,,,,,,,,,,,,,,,,,,,,,,,,,,,
1665771848.643165,1665771848.643169,109.000000,0.000000,4274.615234,4260.000000,4292.307617,4260.641113,4279.615234,4287.692383,4298.717773,4307.436035,4293.974121,4282.820313,4474.230957,4499.102539,4366.025879,4413.974121,3321.000000,2.000000,52.000000,,,,0.000000,4.000000,4.000000,4.000000,4.000000,4.000000,4.000000,4.000000,4.000000,4.000000,4.000000,4.000000,4.000000,4.000000,4.000000,100.000000,,,,,,,,,,,,,,,,,,,,,,,,,,,,,,,,,,,,,,,,,,,,,,,
1665771848.650973,1665771848.650978,110.000000,0.000000,4270.128418,4262.948730,4284.615234,4260.000000,4274.230957,4280.128418,4293.333496,4306.538574,4292.692383,4274.615234,4465.512695,4483.589844,4356.666504,4402.948730,2570.000000,2.000000,52.000000,,,,0.000000,4.000000,4.000000,4.000000,4.000000,4.000000,4.000000,4.000000,4.000000,4.000000,4.000000,4.000000,4.000000,4.000000,4.000000,100.000000,,,,,,,,,,,,,,,,,,,,,,,,,,,,,,,,,,,,,,,,,,,,,,,
1665771848.658782,1665771848.658686,111.000000,0.000000,4271.410156,4268.077148,4278.974121,4258.717773,4275.384766,4278.974121,4286.025879,4300.000000,4289.743652,4264.871582,4463.205078,4465.256348,4355.000000,4395.000000,2466.000000,2.000000,52.000000,,,,0.000000,4.000000,4.000000,4.000000,4.000000,4.000000,4.000000,4.000000,4.000000,4.000000,4.000000,4.000000,4.000000,4.000000,4.000000,100.000000,,,,,,,,,,,,,,,,,,,,,,,,,,,,,,,,,,,,,,,,,,,,,,,
1665771848.666590,1665771848.666495,112.000000,0.000000,4277.436035,4273.717773,4281.410156,4266.153809,4288.846191,4281.282227,4288.717773,4294.615234,4283.589844,4260.128418,4459.871582,4458.461426,4351.538574,4392.563965,2638.000000,2.000000,52.000000,,,,0.000000,4.000000,4.000000,4.000000,4.000000,4.000000,4.000000,4.000000,4.000000,4.000000,4.000000,4.000000,4.000000,4.000000,4.000000,100.000000,,,,,,,,,,,,,,,,,,,,,,,,,,,,,,,,,,,,,,,,,,,,,,,
1665771848.674399,1665771848.674203,113.000000,0.000000,4283.974121,4283.846191,4289.102539,4276.922852,4296.410156,4279.615234,4285.897461,4288.717773,4277.692383,4257.820313,4454.871582,4463.077148,4348.589844,4395.000000,3321.000000,2.000000,52.000000,,,,0.000000,4.000000,4.000000,4.000000,4.000000,4.000000,4.000000,4.000000,4.000000,4.000000,4.000000,4.000000,4.000000,4.000000,4.000000,100.000000,,,,,,,,,,,,,,,,,,,,,,,,,,,,,,,,,,,,,,,,,,,,,,,
1665771848.682207,1665771848.682012,114.000000,0.000000,4299.487305,4292.563965,4301.794922,4282.051270,4293.205078,4283.589844,4282.307617,4288.974121,4281.410156,4263.974121,4462.692383,4479.871582,4358.077148,4404.487305,2570.000000,2.000000,52.000000,,,,0.000000,4.000000,4.000000,4.000000,4.000000,4.000000,4.000000,4.000000,4.000000,4.000000,4.000000,4.000000,4.000000,4.000000,4.000000,100.000000,,,,,,,,,,,,,,,,,,,,,,,,,,,,,,,,,,,,,,,,,,,,,,,
1665771848.690015,1665771848.689720,115.000000,0.000000,4317.051270,4289.358887,4313.461426,4284.487305,4293.974121,4294.358887,4289.743652,4294.743652,4289.230957,4267.179688,4470.641113,4501.025879,4366.153809,4414.871582,2466.000000,2.000000,52.000000,,,,0.000000,4.000000,4.000000,4.000000,4.000000,4.000000,4.000000,4.000000,4.000000,4.000000,4.000000,4.000000,4.000000,4.000000,4.000000,100.000000,,,,,,,,,,,,,,,,,,,,,,,,,,,,,,,,,,,,,,,,,,,,,,,
1665771848.697824,1665771848.697529,116.000000,0.000000,4321.153809,4281.282227,4316.922852,4282.820313,4299.743652,4296.410156,4295.769043,4293.974121,4288.974121,4266.410156,4467.948730,4512.563965,4365.769043,4420.256348,2638.000000,2.000000,52.000000,,,,0.000000,4.000000,4.000000,4.000000,4.000000,4.000000,4.000000,4.000000,4.000000,4.000000,4.000000,4.000000,4.000000,4.000000,4.000000,100.000000,,,,,,,,,,,,,,,,,,,,,,,,,,,,,,,,,,,,,,,,,,,,,,,
1665771848.705632,1665771848.705237,117.000000,0.000000,4322.307617,4281.794922,4315.128418,4280.897461,4301.025879,4296.794922,4297.051270,4292.820313,4291.025879,4275.000000,4474.230957,4514.358887,4371.282227,4420.897461,3321.000000,2.000000,52.000000,,,,0.000000,4.000000,4.000000,4.000000,4.000000,4.000000,4.000000,4.000000,4.000000,4.000000,4.000000,4.000000,4.000000,4.000000,4.000000,100.000000,,,,,,,,,,,,,,,,,,,,,,,,,,,,,,,,,,,,,,,,,,,,,,,
1665771848.713441,1665771848.713046,118.000000,0.000000,4318.717773,4281.282227,4304.871582,4278.974121,4299.743652,4300.897461,4292.820313,4290.000000,4292.307617,4274.230957,4476.794922,4507.820313,4371.410156,4412.436035,2570.000000,2.000000,52.000000,,,,0.000000,4.000000,4.000000,4.000000,4.000000,4.000000,4.000000,4.000000,4.000000,4.000000,4.000000,4.000000,4.000000,4.000000,4.000000,100.000000,,,,,,,,,,,,,,,,,,,,,,,,,,,,,,,,,,,,,,,,,,,,,,,
1665771848.721249,1665771848.720754,119.000000,0.000000,4307.948730,4275.000000,4294.358887,4277.051270,4297.948730,4298.717773,4283.461426,4282.563965,4283.205078,4265.512695,4469.487305,4496.410156,4363.333496,4407.307617,2466.000000,2.000000,52.000000,,,,0.000000,4.000000,4.000000,4.000000,4.000000,4.000000,4.000000,4.000000,4.000000,4.000000,4.000000,4.000000,4.000000,4.000000,4.000000,100.000000,,,,,,,,,,,,,,,,,,,,,,,,,,,,,,,,,,,,,,,,,,,,,,,
1665771848.729057,1665771848.728663,120.000000,0.000000,4305.769043,4278.333496,4293.717773,4279.743652,4293.077148,4294.358887,4282.436035,4284.743652,4282.820313,4272.692383,4472.948730,4494.102539,4369.487305,4416.025879,2638.000000,2.000000,52.000000,,,,0.000000,4.000000,4.000000,4.000000,4.000000,4.000000,4.000000,4.000000,4.000000,4.000000,4.000000,4.000000,4.000000,4.000000,4.000000,100.000000,,,,,,,,,,,,,,,,,,,,,,,,,,,,,,,,,,,,,,,,,,,,,,,
1665771848.736866,1665771848.736471,121.000000,0.000000,4311.282227,4284.102539,4297.436035,4280.897461,4296.794922,4297.563965,4295.384766,4300.512695,4294.358887,4274.871582,4476.794922,4500.769043,4373.077148,4424.358887,3321.000000,2.000000,52.000000,,,,0.000000,4.000000,4.000000,4.000000,4.000000,4.000000,4.000000,4.000000,4.000000,4.000000,4.000000,4.000000,4.000000,4.000000,4.000000,100.000000,,,,,,,,,,,,,,,,,,,,,,,,,,,,,,,,,,,,,,,,,,,,,,,
1665771848.744674,1665771848.744380,122.000000,0.000000,4304.230957,4278.333496,4292.692383,4272.948730,4303.333496,4298.846191,4303.205078,4306.922852,4289.615234,4262.051270,4465.128418,4496.666504,4355.000000,4412.820313,2570.000000,2.000000,52.000000,,,,0.000000,4.000000,4.000000,4.000000,4.000000,4.000000,4.000000,4.000000,4.000000,4.000000,4.000000,4.000000,4.000000,4.000000,4.000000,100.000000,,,,,,,,,,,,,,,,,,,,,,,,,,,,,,,,,,,,,,,,,,,,,,,
1665771848.752483,1665771848.752188,123.000000,0.000000,4298.461426,4273.846191,4289.743652,4269.615234,4300.000000,4291.794922,4300.512695,4304.487305,4279.743652,4269.230957,4464.358887,4485.384766,4346.794922,4399.487305,2466.000000,2.000000,52.000000,,,,0.000000,4.000000,4.000000,4.000000,4.000000,4.000000,4.000000,4.000000,4.000000,4.000000,4.000000,4.000000,4.000000,4.000000,4.000000,100.000000,,,,,,,,,,,,,,,,,,,,,,,,,,,,,,,,,,,,,,,,,,,,,,,
1665771848.760291,1665771848.760096,124.000000,0.000000,4306.538574,4281.538574,4296.794922,4278.333496,4295.512695,4288.589844,4298.333496,4308.077148,4289.743652,4291.282227,4474.615234,4487.307617,4357.051270,4401.025879,2638.000000,2.000000,52.000000,,,,0.000000,4.000000,4.000000,4.000000,4.000000,4.000000,4.000000,4.000000,4.000000,4.000000,4.000000,4.000000,4.000000,4.000000,4.000000,100.000000,,,,,,,,,,,,,,,,,,,,,,,,,,,,,,,,,,,,,,,,,,,,,,,
1665771848.768099,1665771848.767905,125.000000,0.000000,4312.692383,4291.025879,4306.282227,4284.615234,4295.000000,4293.333496,4302.179688,4309.358887,4297.436035,4294.487305,4477.307617,4498.461426,4360.641113,4405.256348,3321.000000,2.000000,52.000000,,,,0.000000,4.000000,4.000000,4.000000,4.000000,4.000000,4.000000,4.000000,4.000000,4.000000,4.000000,4.000000,4.000000,4.000000,4.000000,100.000000,,,,,,,,,,,,,,,,,,,,,,,,,,,,,,,,,,,,,,,,,,,,,,,
1665771848.775908,1665771848.775813,126.000000,0.000000,4315.256348,4295.384766,4310.256348,4284.743652,4295.256348,4297.563965,4305.256348,4303.717773,4294.358887,4292.563965,4486.025879,4506.922852,4367.692383,4405.641113,2570.000000,2.000000,52.000000,,,,0.000000,4.000000,4.000000,4.000000,4.000000,4.000000,4.000000,4.000000,4.000000,4.000000,4.000000,4.000000,4.000000,4.000000,4.000000,100.000000,,,,,,,,,,,,,,,,,,,,,,,,,,,,,,,,,,,,,,,,,,,,,,,
1665771848.783716,1665771848.783622,127.000000,0.000000,4321.410156,4296.666504,4312.436035,4282.820313,4297.563965,4295.128418,4299.615234,4298.589844,4293.717773,4297.307617,4495.256348,4511.153809,4388.461426,4411.282227,52.000000,2.000000,52.000000,,,,0.000000,4.000000,4.000000,4.000000,4.000000,4.000000,4.000000,4.000000,4.000000,4.000000,4.000000,4.000000,4.000000,4.000000,4.000000,100.000000,,,,,,,,,,,,,,,,,,,,,,,,,,,,,,,,,,,,,,,,,,,,,,,
1665771848.791525,1665771848.791530,0.000000,0.000000,4331.153809,4296.410156,4318.461426,4280.000000,4307.563965,4291.153809,4291.282227,4295.256348,4295.641113,4296.922852,4493.974121,4518.846191,4397.179688,4423.461426,1958.000000,2.000000,52.000000,,,,0.000000,4.000000,4.000000,4.000000,4.000000,4.000000,4.000000,4.000000,4.000000,4.000000,4.000000,4.000000,4.000000,4.000000,4.000000,100.000000,,,,,,,,,,,,,,,,,,,,,,,,,,,,,,,,,,,,,,,,,,,,,,,
1665771848.799333,1665771848.799338,1.000000,0.000000,4345.256348,4299.871582,4326.922852,4286.025879,4309.230957,4293.589844,4289.487305,4291.410156,4296.922852,4299.615234,4492.692383,4530.128418,4392.436035,4432.948730,2100.000000,2.000000,52.000000,,,,0.000000,4.000000,4.000000,4.000000,4.000000,4.000000,4.000000,4.000000,4.000000,4.000000,4.000000,4.000000,4.000000,4.000000,4.000000,100.000000,,,,,,,,,,,,,,,,,,,,,,,,,,,,,,,,,,,,,,,,,,,,,,,
1665771848.807141,1665771848.807247,2.000000,0.000000,4351.282227,4301.922852,4326.025879,4291.282227,4301.666504,4295.641113,4287.436035,4289.358887,4298.077148,4308.205078,4491.025879,4532.051270,4391.025879,4432.820313,2282.000000,2.000000,52.000000,,,,0.000000,4.000000,4.000000,4.000000,4.000000,4.000000,4.000000,4.000000,4.000000,4.000000,4.000000,4.000000,4.000000,4.000000,4.000000,100.000000,,,,,,,,,,,,,,,,,,,,,,,,,,,,,,,,,,,,,,,,,,,,,,,
1665771848.814950,1665771848.815055,3.000000,0.000000,4341.153809,4300.128418,4314.102539,4285.641113,4304.871582,4293.461426,4281.410156,4287.820313,4297.692383,4303.589844,4484.487305,4516.410156,4388.974121,4425.128418,2314.000000,2.000000,52.000000,,,,0.000000,4.000000,4.000000,4.000000,4.000000,4.000000,4.000000,4.000000,4.000000,4.000000,4.000000,4.000000,4.000000,4.000000,4.000000,100.000000,,,,,,,,,,,,,,,,,,,,,,,,,,,,,,,,,,,,,,,,,,,,,,,
1665771848.822758,1665771848.822764,4.000000,0.000000,4328.717773,4296.153809,4302.820313,4279.487305,4315.897461,4291.922852,4280.384766,4292.307617,4300.256348,4293.205078,4482.307617,4502.179688,4382.820313,4413.846191,2388.000000,2.000000,52.000000,,,,0.000000,4.000000,4.000000,4.000000,4.000000,4.000000,4.000000,4.000000,4.000000,4.000000,4.000000,4.000000,4.000000,4.000000,4.000000,100.000000,,,,,,,,,,,,,,,,,,,,,,,,,,,,,,,,,,,,,,,,,,,,,,,
1665771848.830567,1665771848.830572,5.000000,0.000000,4310.641113,4286.666504,4291.922852,4271.922852,4313.205078,4297.563965,4285.512695,4302.179688,4305.769043,4298.077148,4479.487305,4494.487305,4376.282227,4400.641113,2316.000000,2.000000,52.000000,,,,0.000000,4.000000,4.000000,4.000000,4.000000,4.000000,4.000000,4.000000,4.000000,4.000000,4.000000,4.000000,4.000000,4.000000,4.000000,100.000000,,,,,,,,,,,,,,,,,,,,,,,,,,,,,,,,,,,,,,,,,,,,,,,
1665771848.838375,1665771848.838281,6.000000,0.000000,4290.128418,4278.077148,4283.717773,4265.384766,4295.641113,4302.307617,4291.153809,4307.051270,4303.077148,4301.794922,4469.743652,4485.128418,4368.205078,4387.051270,2110.000000,2.000000,52.000000,,,,0.000000,4.000000,4.000000,4.000000,4.000000,4.000000,4.000000,4.000000,4.000000,4.000000,4.000000,4.000000,4.000000,4.000000,4.000000,100.000000,,,,,,,,,,,,,,,,,,,,,,,,,,,,,,,,,,,,,,,,,,,,,,,
1665771848.846183,1665771848.846089,7.000000,0.000000,4293.077148,4280.641113,4288.717773,4274.102539,4290.000000,4300.897461,4300.384766,4307.948730,4298.589844,4293.333496,4474.230957,4487.563965,4368.077148,4388.333496,2094.000000,2.000000,52.000000,,,,0.000000,4.000000,4.000000,4.000000,4.000000,4.000000,4.000000,4.000000,4.000000,4.000000,4.000000,4.000000,4.000000,4.000000,4.000000,100.000000,,,,,,,,,,,,,,,,,,,,,,,,,,,,,,,,,,,,,,,,,,,,,,,
1665771848.853992,1665771848.853798,8.000000,0.000000,4308.974121,4282.436035,4298.205078,4280.512695,4298.205078,4299.615234,4308.077148,4309.358887,4296.666504,4291.666504,4483.846191,4500.000000,4376.282227,4402.179688,2256.000000,2.000000,52.000000,,,,0.000000,4.000000,4.000000,4.000000,4.000000,4.000000,4.000000,4.000000,4.000000,4.000000,4.000000,4.000000,4.000000,4.000000,4.000000,100.000000,,,,,,,,,,,,,,,,,,,,,,,,,,,,,,,,,,,,,,,,,,,,,,,
1665771848.861800,1665771848.861706,9.000000,0.000000,4318.077148,4280.256348,4305.000000,4274.871582,4297.307617,4301.666504,4309.358887,4312.051270,4296.922852,4301.410156,4487.563965,4514.230957,4386.282227,4416.025879,2384.000000,2.000000,52.000000,,,,0.000000,4.000000,4.000000,4.000000,4.000000,4.000000,4.000000,4.000000,4.000000,4.000000,4.000000,4.000000,4.000000,4.000000,4.000000,100.000000,,,,,,,,,,,,,,,,,,,,,,,,,,,,,,,,,,,,,,,,,,,,,,,
1665771848.869609,1665771848.869515,10.000000,0.000000,4334.487305,4294.358887,4324.102539,4287.820313,4295.128418,4309.487305,4319.358887,4322.563965,4306.025879,4308.205078,4508.717773,4544.615234,4404.615234,4442.307617,2556.000000,2.000000,52.000000,,,,0.000000,4.000000,4.000000,4.000000,4.000000,4.000000,4.000000,4.000000,4.000000,4.000000,4.000000,4.000000,4.000000,4.000000,4.000000,100.000000,,,,,,,,,,,,,,,,,,,,,,,,,,,,,,,,,,,,,,,,,,,,,,,
1665771848.877417,1665771848.877423,11.000000,0.000000,4357.051270,4314.487305,4343.077148,4305.256348,4310.256348,4312.948730,4327.179688,4325.769043,4310.897461,4310.897461,4528.077148,4570.000000,4419.871582,4464.871582,2469.000000,2.000000,52.000000,,,,0.000000,4.000000,4.000000,4.000000,4.000000,4.000000,4.000000,4.000000,4.000000,4.000000,4.000000,4.000000,4.000000,4.000000,4.000000,100.000000,,,,,,,,,,,,,,,,,,,,,,,,,,,,,,,,,,,,,,,,,,,,,,,
1665771848.885225,1665771848.885231,12.000000,0.000000,4363.717773,4319.615234,4342.307617,4299.102539,4323.077148,4302.563965,4316.153809,4314.230957,4301.410156,4310.897461,4515.769043,4564.615234,4412.179688,4463.717773,2648.000000,2.000000,52.000000,,,,0.000000,4.000000,4.000000,4.000000,4.000000,4.000000,4.000000,4.000000,4.000000,4.000000,4.000000,4.000000,4.000000,4.000000,4.000000,100.000000,,,,,,,,,,,,,,,,,,,,,,,,,,,,,,,,,,,,,,,,,,,,,,,
1665771848.893034,1665771848.893140,13.000000,0.000000,4357.307617,4318.589844,4330.641113,4291.282227,4319.358887,4293.461426,4302.820313,4303.974121,4291.666504,4304.487305,4498.461426,4548.846191,4397.179688,4453.077148,3318.000000,2.000000,52.000000,,,,0.000000,4.000000,4.000000,4.000000,4.000000,4.000000,4.000000,4.000000,4.000000,4.000000,4.000000,4.000000,4.000000,4.000000,4.000000,100.000000,,,,,,,,,,,,,,,,,,,,,,,,,,,,,,,,,,,,,,,,,,,,,,,
1665771848.900842,1665771848.900948,14.000000,0.000000,4353.974121,4324.358887,4331.410156,4297.436035,4323.461426,4297.563965,4305.512695,4305.512695,4294.615234,4294.230957,4501.153809,4546.153809,4395.641113,4448.333496,2556.000000,2.000000,52.000000,,,,0.000000,4.000000,4.000000,4.000000,4.000000,4.000000,4.000000,4.000000,4.000000,4.000000,4.000000,4.000000,4.000000,4.000000,4.000000,100.000000,,,,,,,,,,,,,,,,,,,,,,,,,,,,,,,,,,,,,,,,,,,,,,,
1665771848.908651,1665771848.908856,15.000000,0.000000,4355.641113,4330.897461,4336.153809,4301.410156,4328.717773,4298.589844,4304.871582,4305.000000,4297.436035,4288.077148,4497.436035,4541.282227,4395.384766,4443.205078,2469.000000,2.000000,52.000000,,,,0.000000,4.000000,4.000000,4.000000,4.000000,4.000000,4.000000,4.000000,4.000000,4.000000,4.000000,4.000000,4.000000,4.000000,4.000000,100.000000,,,,,,,,,,,,,,,,,,,,,,,,,,,,,,,,,,,,,,,,,,,,,,,
1665771848.916459,1665771848.916665,16.000000,0.000000,4346.794922,4321.794922,4326.922852,4291.153809,4318.333496,4292.307617,4289.615234,4292.948730,4287.563965,4281.666504,4481.282227,4521.410156,4383.589844,4430.128418,0.000000,2.000000,52.000000,,,,0.000000,4.000000,4.000000,4.000000,4.000000,4.000000,4.000000,4.000000,4.000000,4.000000,4.000000,4.000000,4.000000,4.000000,4.000000,100.000000,,,,,,,,,,,,,,,,,,,,,,,,,,,,,,,,,,,,,,,,,,,,,,,
1665771848.924267,1665771848.924573,17.000000,0.000000,4326.410156,4304.487305,4307.179688,4275.384766,4307.436035,4293.333496,4280.384766,4283.974121,4278.461426,4267.820313,4466.794922,4500.256348,4365.897461,4412.179688,0.000000,2.000000,52.000000,,,,0.000000,4.000000,4.000000,4.000000,4.000000,4.000000,4.000000,4.000000,4.000000,4.000000,4.000000,4.000000,4.000000,4.000000,4.000000,100.000000,,,,,,,,,,,,,,,,,,,,,,,,,,,,,,,,,,,,,,,,,,,,,,,
1665771848.932076,1665771848.932382,18.000000,0.000000,4310.128418,4290.128418,4293.077148,4263.333496,4299.230957,4293.589844,4285.128418,4283.717773,4278.333496,4255.897461,4451.410156,4487.051270,4350.000000,4397.307617,0.000000,2.000000,52.000000,,,,0.000000,4.000000,4.000000,4.000000,4.000000,4.000000,4.000000,4.000000,4.000000,4.000000,4.000000,4.000000,4.000000,4.000000,4.000000,100.000000,,,,,,,,,,,,,,,,,,,,,,,,,,,,,,,,,,,,,,,,,,,,,,,
1665771848.939884,1665771848.940290,19.000000,0.000000,4300.128418,4281.153809,4296.666504,4258.974121,4291.282227,4293.333496,4296.153809,4289.358887,4279.358887,4258.461426,4447.436035,4482.948730,4345.128418,4397.436035,0.000000,2.000000,52.000000,,,,0.000000,4.000000,4.000000,4.000000,4.000000,4.000000,4.000000,4.000000,4.000000,4.000000,4.000000,4.000000,4.000000,4.000000,4.000000,100.000000,,,,,,,,,,,,,,,,,,,,,,,,,,,,,,,,,,,,,,,,,,,,,,,
1665771848.947693,1665771848.948098,20.000000,0.000000,4297.948730,4276.282227,4309.358887,4261.922852,4292.948730,4303.205078,4303.974121,4297.563965,4281.410156,4274.358887,4459.615234,4489.102539,4354.230957,4404.102539,0.000000,2.000000,52.000000,,,,0.000000,4.000000,4.000000,4.000000,4.000000,4.000000,4.000000,4.000000,4.000000,4.000000,4.000000,4.000000,4.000000,4.000000,4.000000,100.000000,,,,,,,,,,,,,,,,,,,,,,,,,,,,,,,,,,,,,,,,,,,,,,,
1665771848.955501,1665771848.956007,21.000000,0.000000,4301.922852,4271.282227,4316.025879,4262.307617,4295.128418,4312.436035,4310.128418,4305.641113,4288.077148,4282.563965,4471.922852,4498.974121,4364.487305,4406.153809,0.000000,2.000000,52.000000,,,,0.000000,4.000000,4.000000,4.000000,4.000000,4.000000,4.000000,4.000000,4.000000,4.000000,4.000000,4.000000,4.000000,4.000000,4.000000,100.000000,,,,,,,,,,,,,,,,,,,,,,,,,,,,,,,,,,,,,,,,,,,,,,,
1665771848.963310,1665771848.963815,22.000000,0.000000,4301.666504,4263.205078,4310.384766,4253.461426,4290.128418,4311.282227,4314.358887,4304.230957,4289.743652,4275.512695,4476.153809,4501.410156,4363.589844,4408.077148,0.000000,2.000000,52.000000,,,,0.000000,4.000000,4.000000,4.000000,4.000000,4.000000,4.000000,4.000000,4.000000,4.000000,4.000000,4.000000,4.000000,4.000000,4.000000,100.000000,,,,,,,,,,,,,,,,,,,,,,,,,,,,,,,,,,,,,,,,,,,,,,,
1665771848.971118,1665771848.971724,23.000000,0.000000,4303.846191,4261.153809,4311.153809,4250.128418,4295.256348,4307.948730,4314.102539,4304.615234,4288.205078,4280.000000,4482.051270,4505.897461,4365.769043,4412.820313,0.000000,2.000000,52.000000,,,,0.000000,4.000000,4.000000,4.000000,4.000000,4.000000,4.000000,4.000000,4.000000,4.000000,4.000000,4.000000,4.000000,4.000000,4.000000,100.000000,,,,,,,,,,,,,,,,,,,,,,,,,,,,,,,,,,,,,,,,,,,,,,,
1665771848.978926,1665771848.979532,24.000000,0.000000,4312.179688,4272.820313,4320.641113,4264.743652,4311.794922,4310.384766,4313.974121,4315.897461,4296.153809,4298.589844,4490.512695,4518.205078,4374.230957,4417.820313,0.000000,2.000000,52.000000,,,,0.000000,4.000000,4.000000,4.000000,4.000000,4.000000,4.000000,4.000000,4.000000,4.000000,4.000000,4.000000,4.000000,4.000000,4.000000,100.000000,,,,,,,,,,,,,,,,,,,,,,,,,,,,,,,,,,,,,,,,,,,,,,,
1665771848.986735,1665771848.987440,25.000000,0.000000,4325.512695,4290.897461,4328.846191,4280.128418,4316.794922,4311.410156,4315.000000,4317.820313,4302.948730,4306.282227,4497.948730,4529.615234,4378.077148,4428.333496,0.000000,2.000000,52.000000,,,,0.000000,4.000000,4.000000,4.000000,4.000000,4.000000,4.000000,4.000000,4.000000,4.000000,4.000000,4.000000,4.000000,4.000000,4.000000,100.000000,,,,,,,,,,,,,,,,,,,,,,,,,,,,,,,,,,,,,,,,,,,,,,,
1665771848.994543,1665771848.995249,26.000000,0.000000,4345.512695,4308.333496,4337.820313,4289.358887,4312.820313,4304.230957,4313.077148,4310.256348,4302.436035,4304.615234,4508.333496,4540.128418,4386.922852,4441.538574,0.000000,2.000000,52.000000,,,,0.000000,4.000000,4.000000,4.000000,4.000000,4.000000,4.000000,4.000000,4.000000,4.000000,4.000000,4.000000,4.000000,4.000000,4.000000,100.000000,,,,,,,,,,,,,,,,,,,,,,,,,,,,,,,,,,,,,,,,,,,,,,,
1665771849.002352,1665771849.002957,27.000000,0.000000,4359.230957,4319.102539,4343.974121,4295.128418,4310.256348,4292.820313,4303.333496,4310.256348,4304.743652,4307.307617,4509.230957,4541.794922,4397.948730,4444.102539,0.000000,2.000000,52.000000,,,,0.000000,4.000000,4.000000,4.000000,4.000000,4.000000,4.000000,4.000000,4.000000,4.000000,4.000000,4.000000,4.000000,4.000000,4.000000,100.000000,,,,,,,,,,,,,,,,,,,,,,,,,,,,,,,,,,,,,,,,,,,,,,,
1665771849.010160,1665771849.010866,28.000000,0.000000,4355.000000,4323.846191,4340.769043,4291.794922,4312.563965,4290.769043,4295.641113,4311.025879,4310.128418,4309.487305,4501.282227,4536.666504,4395.897461,4438.333496,0.000000,2.000000,52.000000,,,,0.000000,4.000000,4.000000,4.000000,4.000000,4.000000,4.000000,4.000000,4.000000,4.000000,4.000000,4.000000,4.000000,4.000000,4.000000,100.000000,,,,,,,,,,,,,,,,,,,,,,,,,,,,,,,,,,,,,,,,,,,,,,,
1665771849.017968,1665771849.018674,29.000000,0.000000,4352.051270,4323.717773,4336.153809,4283.589844,4311.922852,4298.974121,4302.820313,4307.179688,4311.666504,4308.717773,4503.077148,4538.846191,4394.102539,4438.461426,0.000000,2.000000,52.000000,,,,0.000000,4.000000,4.000000,4.000000,4.000000,4.000000,4.000000,4.000000,4.000000,4.000000,4.000000,4.000000,4.000000,4.000000,4.000000,100.000000,1.000000,100.000000,4.000000,4.000000,4.000000,4.000000,4.000000,4.000000,4.000000,4.000000,4.000000,4.000000,4.000000,4.000000,4.000000,4.000000,1.000000,0.328125,-0.580144,-1.477102,0.729705,1.000000,0.000734,2.958355,2.951384,12.448110,0.050156,1.000000,0.414756,86.918945,-84.945641,313.689789,1.000000,0.697059,0.208395,0.088086,0.254016,1.000000,0.483568,6.648705,-4.314898,18.013260,1.000000,0.082645,0.082645,0.000000,1.000000
1665771849.025777,1665771849.026483,30.000000,0.000000,4356.282227,4315.256348,4330.641113,4278.717773,4301.410156,4302.692383,4314.487305,4305.897461,4307.179688,4307.307617,4506.922852,4541.153809,4401.538574,4439.358887,0.000000,2.000000,52.000000,,,,0.000000,4.000000,4.000000,4.000000,4.000000,4.000000,4.000000,4.000000,4.000000,4.000000,4.000000,4.000000,4.000000,4.000000,4.000000,100.000000,,,,,,,,,,,,,,,,,,,,,,,,,,,,,,,,,,,,,,,,,,,,,,,
1665771849.033585,1665771849.034191,31.000000,0.000000,4356.922852,4303.461426,4324.487305,4278.205078,4290.256348,4301.794922,4317.436035,4305.897461,4305.128418,4302.051270,4498.974121,4537.692383,4399.358887,4439.230957,0.000000,2.000000,52.000000,,,,0.000000,4.000000,4.000000,4.000000,4.000000,4.000000,4.000000,4.000000,4.000000,4.000000,4.000000,4.000000,4.000000,4.000000,4.000000,100.000000,,,,,,,,,,,,,,,,,,,,,,,,,,,,,,,,,,,,,,,,,,,,,,,
1665771849.041394,1665771849.042000,32.000000,0.000000,4358.717773,4298.717773,4325.384766,4277.307617,4295.256348,4310.000000,4319.871582,4308.461426,4309.487305,4302.436035,4499.358887,4541.025879,4393.461426,4443.077148,0.000000,2.000000,52.000000,,,,0.000000,4.000000,4.000000,4.000000,4.000000,4.000000,4.000000,4.000000,4.000000,4.000000,4.000000,4.000000,4.000000,4.000000,4.000000,100.000000,,,,,,,,,,,,,,,,,,,,,,,,,,,,,,,,,,,,,,,,,,,,,,,
1665771849.049202,1665771849.049708,33.000000,0.000000,4358.717773,4297.051270,4329.615234,4271.153809,4307.820313,4323.717773,4329.358887,4318.846191,4312.051270,4313.205078,4510.256348,4545.769043,4397.820313,4444.743652,0.000000,2.000000,52.000000,,,,0.000000,4.000000,4.000000,4.000000,4.000000,4.000000,4.000000,4.000000,4.000000,4.000000,4.000000,4.000000,4.000000,4.000000,4.000000,100.000000,,,,,,,,,,,,,,,,,,,,,,,,,,,,,,,,,,,,,,,,,,,,,,,
1665771849.057011,1665771849.057517,34.000000,0.000000,4347.051270,4285.128418,4318.717773,4260.000000,4303.846191,4322.948730,4327.948730,4319.615234,4307.307617,4310.897461,4502.179688,4540.000000,4392.820313,4439.230957,0.000000,2.000000,52.000000,,,,0.000000,4.000000,4.000000,4.000000,4.000000,4.000000,4.000000,4.000000,4.000000,4.000000,4.000000,4.000000,4.000000,4.000000,4.000000,100.000000,,,,,,,,,,,,,,,,,,,,,,,,,,,,,,,,,,,,,,,,,,,,,,,
1665771849.064819,1665771849.065225,35.000000,0.000000,4339.230957,4271.922852,4310.384766,4256.794922,4294.615234,4311.666504,4318.974121,4312.820313,4301.538574,4298.461426,4490.641113,4536.282227,4381.666504,4436.410156,0.000000,2.000000,52.000000,,,,0.000000,4.000000,4.000000,4.000000,4.000000,4.000000,4.000000,4.000000,4.000000,4.000000,4.000000,4.000000,4.000000,4.000000,4.000000,100.000000,,,,,,,,,,,,,,,,,,,,,,,,,,,,,,,,,,,,,,,,,,,,,,,
1665771849.072627,1665771849.073034,36.000000,0.000000,4352.820313,4278.205078,4328.461426,4273.717773,4305.769043,4314.871582,4325.384766,4321.538574,4307.948730,4304.358887,4501.922852,4547.179688,4386.794922,4447.436035,0.000000,2.000000,52.000000,,,,0.000000,4.000000,4.000000,4.000000,4.000000,4.000000,4.000000,4.000000,4.000000,4.000000,4.000000,4.000000,4.000000,4.000000,4.000000,100.000000,,,,,,,,,,,,,,,,,,,,,,,,,,,,,,,,,,,,,,,,,,,,,,,
1665771849.080436,1665771849.080742,37.000000,0.000000,4363.205078,4293.333496,4340.384766,4283.846191,4319.871582,4323.461426,4330.769043,4327.948730,4315.641113,4310.000000,4506.410156,4554.102539,4390.384766,4454.743652,0.000000,2.000000,52.000000,,,,0.000000,4.000000,4.000000,4.000000,4.000000,4.000000,4.000000,4.000000,4.000000,4.000000,4.000000,4.000000,4.000000,4.000000,4.000000,100.000000,,,,,,,,,,,,,,,,,,,,,,,,,,,,,,,,,,,,,,,,,,,,,,,
1665771849.088244,1665771849.088551,38.000000,0.000000,4350.769043,4295.512695,4325.769043,4268.846191,4317.051270,4313.205078,4313.205078,4316.025879,4305.769043,4299.102539,4490.384766,4535.256348,4375.384766,4440.641113,0.000000,2.000000,52.000000,,,,0.000000,4.000000,4.000000,4.000000,4.000000,4.000000,4.000000,4.000000,4.000000,4.000000,4.000000,4.000000,4.000000,4.000000,4.000000,100.000000,,,,,,,,,,,,,,,,,,,,,,,,,,,,,,,,,,,,,,,,,,,,,,,
1665771849.096053,1665771849.096259,39.000000,0.000000,4334.358887,4289.743652,4308.974121,4257.563965,4307.307617,4296.153809,4294.230957,4302.820313,4293.846191,4292.948730,4479.102539,4510.256348,4362.820313,4418.717773,0.000000,2.000000,52.000000,,,,0.000000,4.000000,4.000000,4.000000,4.000000,4.000000,4.000000,4.000000,4.000000,4.000000,4.000000,4.000000,4.000000,4.000000,4.000000,100.000000,,,,,,,,,,,,,,,,,,,,,,,,,,,,,,,,,,,,,,,,,,,,,,,
1665771849.103861,1665771849.104168,40.000000,0.000000,4335.512695,4294.102539,4310.512695,4268.846191,4304.743652,4293.589844,4293.974121,4300.897461,4296.153809,4286.666504,4482.307617,4508.333496,4368.205078,4415.512695,0.000000,2.000000,52.000000,,,,0.000000,4.000000,4.000000,4.000000,4.000000,4.000000,4.000000,4.000000,4.000000,4.000000,4.000000,4.000000,4.000000,4.000000,4.000000,100.000000,,,,,,,,,,,,,,,,,,,,,,,,,,,,,,,,,,,,,,,,,,,,,,,
1665771849.111669,1665771849.111976,41.000000,0.000000,4348.846191,4311.666504,4319.743652,4281.794922,4305.000000,4296.538574,4296.666504,4302.179688,4297.051270,4279.230957,4491.922852,4520.641113,4377.051270,4428.461426,0.000000,2.000000,52.000000,,,,0.000000,4.000000,4.000000,4.000000,4.000000,4.000000,4.000000,4.000000,4.000000,4.000000,4.000000,4.000000,4.000000,4.000000,4.000000,100.000000,,,,,,,,,,,,,,,,,,,,,,,,,,,,,,,,,,,,,,,,,,,,,,,
1665771849.119478,1665771849.119884,42.000000,0.000000,4357.692383,4324.358887,4325.128418,4279.743652,4302.051270,4294.615234,4296.538574,4304.487305,4291.922852,4287.179688,4498.974121,4527.692383,4382.948730,4436.410156,0.000000,2.000000,52.000000,,,,0.000000,4.000000,4.000000,4.000000,4.000000,4.000000,4.000000,4.000000,4.000000,4.000000,4.000000,4.000000,4.000000,4.000000,4.000000,100.000000,,,,,,,,,,,,,,,,,,,,,,,,,,,,,,,,,,,,,,,,,,,,,,,
1665771849.127286,1665771849.127693,43.000000,0.000000,4357.179688,4321.794922,4322.307617,4271.666504,4303.461426,4290.256348,4296.666504,4304.358887,4291.410156,4289.358887,4495.897461,4527.307617,4388.077148,4434.358887,0.000000,2.000000,52.000000,,,,0.000000,4.000000,4.000000,4.000000,4.000000,4.000000,4.000000,4.000000,4.000000,4.000000,4.000000,4.000000,4.000000,4.000000,4.000000,100.000000,,,,,,,,,,,,,,,,,,,,,,,,,,,,,,,,,,,,,,,,,,,,,,,
1665771849.135095,1665771849.135601,44.000000,0.000000,4360.512695,4320.384766,4322.179688,4273.589844,4308.333496,4292.692383,4301.794922,4303.974121,4295.769043,4277.563965,4496.666504,4533.974121,4394.102539,4440.384766,0.000000,2.000000,52.000000,,,,0.000000,4.000000,4.000000,4.000000,4.000000,4.000000,4.000000,4.000000,4.000000,4.000000,4.000000,4.000000,4.000000,4.000000,4.000000,100.000000,,,,,,,,,,,,,,,,,,,,,,,,,,,,,,,,,,,,,,,,,,,,,,,
1665771849.142903,1665771849.143410,45.000000,0.000000,4364.102539,4326.666504,4331.794922,4289.871582,4308.333496,4300.769043,4312.820313,4310.000000,4300.512695,4284.487305,4502.563965,4544.102539,4395.769043,4448.717773,0.000000,2.000000,52.000000,,,,0.000000,4.000000,4.000000,4.000000,4.000000,4.000000,4.000000,4.000000,4.000000,4.000000,4.000000,4.000000,4.000000,4.000000,4.000000,100.000000,,,,,,,,,,,,,,,,,,,,,,,,,,,,,,,,,,,,,,,,,,,,,,,
1665771849.150711,1665771849.151318,46.000000,0.000000,4361.794922,4327.179688,4338.589844,4303.333496,4309.102539,4307.051270,4319.102539,4317.051270,4304.743652,4297.179688,4502.820313,4545.641113,4389.743652,4442.948730,0.000000,2.000000,52.000000,,,,0.000000,4.000000,4.000000,4.000000,4.000000,4.000000,4.000000,4.000000,4.000000,4.000000,4.000000,4.000000,4.000000,4.000000,4.000000,100.000000,,,,,,,,,,,,,,,,,,,,,,,,,,,,,,,,,,,,,,,,,,,,,,,
1665771849.158520,1665771849.159126,47.000000,0.000000,4361.922852,4320.897461,4337.179688,4306.410156,4315.256348,4309.615234,4317.948730,4315.769043,4304.102539,4288.077148,4496.922852,4540.512695,4382.692383,4435.641113,0.000000,2.000000,52.000000,,,,0.000000,4.000000,4.000000,4.000000,4.000000,4.000000,4.000000,4.000000,4.000000,4.000000,4.000000,4.000000,4.000000,4.000000,4.000000,100.000000,,,,,,,,,,,,,,,,,,,,,,,,,,,,,,,,,,,,,,,,,,,,,,,
1665771849.166328,1665771849.167035,48.000000,0.000000,4355.512695,4311.153809,4332.948730,4308.077148,4309.743652,4307.820313,4317.563965,4307.948730,4297.436035,4278.077148,4490.641113,4530.897461,4373.846191,4434.102539,0.000000,2.000000,52.000000,,,,0.000000,4.000000,4.000000,4.000000,4.000000,4.000000,4.000000,4.000000,4.000000,4.000000,4.000000,4.000000,4.000000,4.000000,4.000000,100.000000,,,,,,,,,,,,,,,,,,,,,,,,,,,,,,,,,,,,,,,,,,,,,,,
1665771849.174137,1665771849.174843,49.000000,0.000000,4333.205078,4297.948730,4326.153809,4307.563965,4296.794922,4303.974121,4315.128418,4303.717773,4296.410156,4280.641113,4484.743652,4518.077148,4368.077148,4426.666504,0.000000,2.000000,52.000000,,,,0.000000,4.000000,4.000000,4.000000,4.000000,4.000000,4.000000,4.000000,4.000000,4.000000,4.000000,4.000000,4.000000,4.000000,4.000000,100.000000,,,,,,,,,,,,,,,,,,,,,,,,,,,,,,,,,,,,,,,,,,,,,,,
1665771849.181945,1665771849.182552,50.000000,0.000000,4314.615234,4294.358887,4317.820313,4307.563965,4298.589844,4302.563965,4304.871582,4306.282227,4303.717773,4282.820313,4481.282227,4509.615234,4368.077148,4419.615234,0.000000,2.000000,52.000000,,,,0.000000,4.000000,4.000000,4.000000,4.000000,4.000000,4.000000,4.000000,4.000000,4.000000,4.000000,4.000000,4.000000,4.000000,4.000000,100.000000,,,,,,,,,,,,,,,,,,,,,,,,,,,,,,,,,,,,,,,,,,,,,,,
1665771849.189753,1665771849.190360,51.000000,0.000000,4302.051270,4294.358887,4310.256348,4309.487305,4303.589844,4302.307617,4296.410156,4306.153809,4303.461426,4281.153809,4475.897461,4502.948730,4362.307617,4417.179688,0.000000,2.000000,52.000000,,,,0.000000,4.000000,4.000000,4.000000,4.000000,4.000000,4.000000,4.000000,4.000000,4.000000,4.000000,4.000000,4.000000,4.000000,4.000000,100.000000,,,,,,,,,,,,,,,,,,,,,,,,,,,,,,,,,,,,,,,,,,,,,,,
1665771849.197562,1665771849.198069,52.000000,0.000000,4289.102539,4287.436035,4305.512695,4310.000000,4294.358887,4295.641113,4289.615234,4301.666504,4298.717773,4285.256348,4476.794922,4494.102539,4362.179688,4416.794922,0.000000,2.000000,52.000000,,,,0.000000,4.000000,4.000000,4.000000,4.000000,4.000000,4.000000,4.000000,4.000000,4.000000,4.000000,4.000000,4.000000,4.000000,4.000000,100.000000,,,,,,,,,,,,,,,,,,,,,,,,,,,,,,,,,,,,,,,,,,,,,,,
1665771849.205370,1665771849.205877,53.000000,0.000000,4285.512695,4287.820313,4309.743652,4312.563965,4279.358887,4285.128418,4281.538574,4302.179688,4302.692383,4289.871582,4494.358887,4498.717773,4374.358887,4421.153809,0.000000,2.000000,52.000000,,,,0.000000,4.000000,4.000000,4.000000,4.000000,4.000000,4.000000,4.000000,4.000000,4.000000,4.000000,4.000000,4.000000,4.000000,4.000000,100.000000,,,,,,,,,,,,,,,,,,,,,,,,,,,,,,,,,,,,,,,,,,,,,,,
1665771849.213179,1665771849.213586,54.000000,0.000000,4286.282227,4295.512695,4314.871582,4314.743652,4279.615234,4279.358887,4276.153809,4302.692383,4300.769043,4283.846191,4499.743652,4508.974121,4378.589844,4422.692383,0.000000,2.000000,52.000000,,,,0.000000,4.000000,4.000000,4.000000,4.000000,4.000000,4.000000,4.000000,4.000000,4.000000,4.000000,4.000000,4.000000,4.000000,4.000000,100.000000,,,,,,,,,,,,,,,,,,,,,,,,,,,,,,,,,,,,,,,,,,,,,,,
1665771849.220987,1665771849.221394,55.000000,0.000000,4283.461426,4296.666504,4316.025879,4312.692383,4291.666504,4279.358887,4280.641113,4299.487305,4286.410156,4280.384766,4488.205078,4505.000000,4376.794922,4422.820313,0.000000,2.000000,52.000000,1,1,1,0.000000,4.000000,4.000000,4.000000,4.000000,4.000000,4.000000,4.000000,4.000000,4.000000,4.000000,4.000000,4.000000,4.000000,4.000000,100.000000,,,,,,,,,,,,,,,,,,,,,,,,,,,,,,,,,,,,,,,,,,,,,,,
1665771849.228795,1665771849.229103,56.000000,0.000000,4286.410156,4300.256348,4323.461426,4314.102539,4296.410156,4286.025879,4296.538574,4301.410156,4283.461426,4282.692383,4487.692383,4505.256348,4379.743652,4432.820313,0.000000,2.000000,52.000000,,,,0.000000,4.000000,4.000000,4.000000,4.000000,4.000000,4.000000,4.000000,4.000000,4.000000,4.000000,4.000000,4.000000,4.000000,4.000000,100.000000,,,,,,,,,,,,,,,,,,,,,,,,,,,,,,,,,,,,,,,,,,,,,,,
1665771849.236604,1665771849.236911,57.000000,0.000000,4293.589844,4308.461426,4338.717773,4322.563965,4295.000000,4296.282227,4313.974121,4308.717773,4286.922852,4273.589844,4492.948730,4519.615234,4376.794922,4443.205078,0.000000,2.000000,52.000000,,,,0.000000,4.000000,4.000000,4.000000,4.000000,4.000000,4.000000,4.000000,4.000000,4.000000,4.000000,4.000000,4.000000,4.000000,4.000000,100.000000,,,,,,,,,,,,,,,,,,,,,,,,,,,,,,,,,,,,,,,,,,,,,,,
1665771849.244412,1665771849.244620,58.000000,0.000000,4288.717773,4307.307617,4340.256348,4324.230957,4296.153809,4301.666504,4319.487305,4304.743652,4279.615234,4261.794922,4485.384766,4523.717773,4369.230957,4437.563965,0.000000,2.000000,52.000000,,,,0.000000,4.000000,4.000000,4.000000,4.000000,4.000000,4.000000,4.000000,4.000000,4.000000,4.000000,4.000000,4.000000,4.000000,4.000000,100.000000,,,,,,,,,,,,,,,,,,,,,,,,,,,,,,,,,,,,,,,,,,,,,,,
1665771849.252221,1665771849.252428,59.000000,0.000000,4283.717773,4305.384766,4335.641113,4325.000000,4298.974121,4306.025879,4321.922852,4298.717773,4276.025879,4262.436035,4478.974121,4518.205078,4372.948730,4431.282227,0.000000,2.000000,52.000000,,,,0.000000,4.000000,4.000000,4.000000,4.000000,4.000000,4.000000,4.000000,4.000000,4.000000,4.000000,4.000000,4.000000,4.000000,4.000000,100.000000,,,,,,,,,,,,,,,,,,,,,,,,,,,,,,,,,,,,,,,,,,,,,,,
1665771849.260029,1665771849.260137,60.000000,0.000000,4291.538574,4309.358887,4336.410156,4332.948730,4299.102539,4310.769043,4325.128418,4301.538574,4279.102539,4266.025879,4483.974121,4518.077148,4380.512695,4433.717773,0.000000,2.000000,52.000000,,,,0.000000,4.000000,4.000000,4.000000,4.000000,4.000000,4.000000,4.000000,4.000000,4.000000,4.000000,4.000000,4.000000,4.000000,4.000000,100.000000,,,,,,,,,,,,,,,,,,,,,,,,,,,,,,,,,,,,,,,,,,,,,,,
1665771849.267837,1665771849.267945,61.000000,0.000000,4296.538574,4308.974121,4334.615234,4331.282227,4302.820313,4311.282227,4324.102539,4304.871582,4280.897461,4270.256348,4488.846191,4520.128418,4383.205078,4436.025879,0.000000,2.000000,52.000000,,,,0.000000,4.000000,4.000000,4.000000,4.000000,4.000000,4.000000,4.000000,4.000000,4.000000,4.000000,4.000000,4.000000,4.000000,4.000000,100.000000,,,,,,,,,,,,,,,,,,,,,,,,,,,,,,,,,,,,,,,,,,,,,,,
1665771849.275646,1665771849.275654,62.000000,0.000000,4289.358887,4304.487305,4325.769043,4320.256348,4307.436035,4312.692383,4316.538574,4305.897461,4287.436035,4281.922852,4486.794922,4518.589844,4381.666504,4431.666504,0.000000,2.000000,52.000000,,,,0.000000,4.000000,4.000000,4.000000,4.000000,4.000000,4.000000,4.000000,4.000000,4.000000,4.000000,4.000000,4.000000,4.000000,4.000000,100.000000,,,,,,,,,,,,,,,,,,,,,,,,,,,,,,,,,,,,,,,,,,,,,,,
1665771849.283454,1665771849.283462,63.000000,0.000000,4278.589844,4299.743652,4316.794922,4317.436035,4301.153809,4309.871582,4305.769043,4307.820313,4296.794922,4290.897461,4484.358887,4513.974121,4378.077148,4427.051270,0.000000,2.000000,52.000000,,,,0.000000,4.000000,4.000000,4.000000,4.000000,4.000000,4.000000,4.000000,4.000000,4.000000,4.000000,4.000000,4.000000,4.000000,4.000000,100.000000,,,,,,,,,,,,,,,,,,,,,,,,,,,,,,,,,,,,,,,,,,,,,,,
1665771849.291263,1665771849.291171,64.000000,0.000000,4268.077148,4293.333496,4306.794922,4318.589844,4291.666504,4299.615234,4296.538574,4306.794922,4299.487305,4292.948730,4487.051270,4506.025879,4378.717773,4427.179688,1970.000000,2.000000,52.000000,,,,0.000000,4.000000,4.000000,4.000000,4.000000,4.000000,4.000000,4.000000,4.000000,4.000000,4.000000,4.000000,4.000000,4.000000,4.000000,100.000000,,,,,,,,,,,,,,,,,,,,,,,,,,,,,,,,,,,,,,,,,,,,,,,
1665771849.299071,1665771849.299079,65.000000,0.000000,4263.974121,4291.538574,4301.410156,4315.769043,4291.538574,4294.358887,4285.256348,4305.128418,4298.846191,4296.538574,4485.769043,4495.897461,4379.615234,4425.512695,2087.000000,2.000000,52.000000,,,,0.000000,4.000000,4.000000,4.000000,4.000000,4.000000,4.000000,4.000000,4.000000,4.000000,4.000000,4.000000,4.000000,4.000000,4.000000,100.000000,,,,,,,,,,,,,,,,,,,,,,,,,,,,,,,,,,,,,,,,,,,,,,,
1665771849.306879,1665771849.306887,66.000000,0.000000,4272.051270,4295.384766,4303.461426,4315.256348,4293.974121,4287.820313,4270.384766,4300.641113,4294.487305,4291.153809,4477.563965,4486.666504,4369.871582,4420.000000,2296.000000,2.000000,52.000000,,,,0.000000,4.000000,4.000000,4.000000,4.000000,4.000000,4.000000,4.000000,4.000000,4.000000,4.000000,4.000000,4.000000,4.000000,4.000000,100.000000,,,,,,,,,,,,,,,,,,,,,,,,,,,,,,,,,,,,,,,,,,,,,,,
1665771849.314688,1665771849.314796,67.000000,0.000000,4280.897461,4297.948730,4310.000000,4319.743652,4293.077148,4275.256348,4265.128418,4289.615234,4283.333496,4272.563965,4471.025879,4482.692383,4360.128418,4419.358887,2334.000000,2.000000,52.000000,,,,0.000000,4.000000,4.000000,4.000000,4.000000,4.000000,4.000000,4.000000,4.000000,4.000000,4.000000,4.000000,4.000000,4.000000,4.000000,100.000000,,,,,,,,,,,,,,,,,,,,,,,,,,,,,,,,,,,,,,,,,,,,,,,
1665771849.322496,1665771849.322604,68.000000,0.000000,4287.692383,4304.102539,4323.846191,4326.153809,4293.974121,4277.436035,4279.230957,4286.025879,4270.897461,4262.307617,4473.717773,4490.897461,4360.897461,4431.538574,2379.000000,2.000000,52.000000,,,,0.000000,4.000000,4.000000,4.000000,4.000000,4.000000,4.000000,4.000000,4.000000,4.000000,4.000000,4.000000,4.000000,4.000000,4.000000,100.000000,,,,,,,,,,,,,,,,,,,,,,,,,,,,,,,,,,,,,,,,,,,,,,,
1665771849.330305,1665771849.330513,69.000000,0.000000,4292.820313,4310.512695,4333.589844,4333.205078,4294.230957,4293.205078,4295.769043,4293.205078,4269.487305,4263.846191,4476.794922,4498.333496,4366.025879,4439.871582,2326.000000,2.000000,52.000000,,,,0.000000,4.000000,4.000000,4.000000,4.000000,4.000000,4.000000,4.000000,4.000000,4.000000,4.000000,4.000000,4.000000,4.000000,4.000000,100.000000,,,,,,,,,,,,,,,,,,,,,,,,,,,,,,,,,,,,,,,,,,,,,,,
1665771849.338113,1665771849.338321,70.000000,0.000000,4285.512695,4303.077148,4328.846191,4326.922852,4293.461426,4295.897461,4303.974121,4296.025879,4275.256348,4261.410156,4473.205078,4490.512695,4364.358887,4428.333496,2140.000000,2.000000,52.000000,,,,0.000000,4.000000,4.000000,4.000000,4.000000,4.000000,4.000000,4.000000,4.000000,4.000000,4.000000,4.000000,4.000000,4.000000,4.000000,100.000000,,,,,,,,,,,,,,,,,,,,,,,,,,,,,,,,,,,,,,,,,,,,,,,
1665771849.345921,1665771849.346229,71.000000,0.000000,4279.102539,4293.077148,4323.333496,4314.743652,4296.410156,4294.230957,4312.436035,4297.948730,4280.128418,4260.384766,4470.641113,4488.974121,4362.307617,4417.307617,2109.000000,2.000000,52.000000,,,,0.000000,4.000000,4.000000,4.000000,4.000000,4.000000,4.000000,4.000000,4.000000,4.000000,4.000000,4.000000,4.000000,4.000000,4.000000,100.000000,,,,,,,,,,,,,,,,,,,,,,,,,,,,,,,,,,,,,,,,,,,,,,,
1665771849.353730,1665771849.354038,72.000000,0.000000,4285.256348,4298.717773,4329.230957,4319.358887,4296.922852,4303.333496,4323.717773,4310.384766,4288.333496,4273.333496,4481.282227,4509.487305,4371.666504,4427.307617,2282.000000,2.000000,52.000000,,,,0.000000,4.000000,4.000000,4.000000,4.000000,4.000000,4.000000,4.000000,4.000000,4.000000,4.000000,4.000000,4.000000,4.000000,4.000000,100.000000,,,,,,,,,,,,,,,,,,,,,,,,,,,,,,,,,,,,,,,,,,,,,,,
1665771849.361538,1665771849.361846,73.000000,0.000000,4282.179688,4305.128418,4326.410156,4323.205078,4298.589844,4314.230957,4325.897461,4318.077148,4304.487305,4286.538574,4491.538574,4518.589844,4381.282227,4433.461426,2413.000000,2.000000,52.000000,,,,0.000000,4.000000,4.000000,4.000000,4.000000,4.000000,4.000000,4.000000,4.000000,4.000000,4.000000,4.000000,4.000000,4.000000,4.000000,100.000000,,,,,,,,,,,,,,,,,,,,,,,,,,,,,,,,,,,,,,,,,,,,,,,
1665771849.369347,1665771849.369655,74.000000,0.000000,4268.846191,4294.102539,4307.692383,4313.333496,4295.128418,4312.820313,4317.563965,4311.025879,4310.769043,4286.538574,4482.692383,4499.615234,4377.436035,4419.487305,2575.000000,2.000000,52.000000,,,,0.000000,4.000000,4.000000,4.000000,4.000000,4.000000,4.000000,4.000000,4.000000,4.000000,4.000000,4.000000,4.000000,4.000000,4.000000,100.000000,,,,,,,,,,,,,,,,,,,,,,,,,,,,,,,,,,,,,,,,,,,,,,,
1665771849.377155,1665771849.377363,75.000000,0.000000,4263.846191,4279.615234,4295.512695,4302.436035,4282.179688,4298.717773,4305.000000,4305.128418,4302.051270,4280.512695,4472.179688,4483.205078,4366.538574,4405.769043,2481.000000,2.000000,52.000000,,,,0.000000,4.000000,4.000000,4.000000,4.000000,4.000000,4.000000,4.000000,4.000000,4.000000,4.000000,4.000000,4.000000,4.000000,4.000000,100.000000,,,,,,,,,,,,,,,,,,,,,,,,,,,,,,,,,,,,,,,,,,,,,,,
1665771849.384963,1665771849.385172,76.000000,0.000000,4267.307617,4280.769043,4297.436035,4299.743652,4282.179688,4294.230957,4295.128418,4306.794922,4300.769043,4278.461426,4473.589844,4485.000000,4363.846191,4406.922852,2666.000000,2.000000,52.000000,,,,0.000000,4.000000,4.000000,4.000000,4.000000,4.000000,4.000000,4.000000,4.000000,4.000000,4.000000,4.000000,4.000000,4.000000,4.000000,100.000000,,,,,,,,,,,,,,,,,,,,,,,,,,,,,,,,,,,,,,,,,,,,,,,
1665771849.392772,1665771849.392880,77.000000,0.000000,4274.102539,4291.538574,4297.436035,4296.025879,4294.102539,4297.563965,4287.051270,4300.769043,4301.538574,4282.692383,4472.563965,4486.025879,4366.666504,4411.538574,3343.000000,2.000000,52.000000,,,,0.000000,4.000000,4.000000,4.000000,4.000000,4.000000,4.000000,4.000000,4.000000,4.000000,4.000000,4.000000,4.000000,4.000000,4.000000,100.000000,,,,,,,,,,,,,,,,,,,,,,,,,,,,,,,,,,,,,,,,,,,,,,,
1665771849.400580,1665771849.400689,78.000000,0.000000,4284.487305,4294.358887,4297.051270,4293.461426,4291.538574,4287.179688,4275.769043,4287.692383,4290.000000,4276.410156,4465.641113,4480.256348,4365.384766,4412.692383,2575.000000,2.000000,52.000000,,,,0.000000,4.000000,4.000000,4.000000,4.000000,4.000000,4.000000,4.000000,4.000000,4.000000,4.000000,4.000000,4.000000,4.000000,4.000000,100.000000,,,,,,,,,,,,,,,,,,,,,,,,,,,,,,,,,,,,,,,,,,,,,,,
1665771849.408389,1665771849.408397,79.000000,0.000000,4296.282227,4292.563965,4309.358887,4303.077148,4286.538574,4277.051270,4270.641113,4284.358887,4278.205078,4263.333496,4469.615234,4486.025879,4368.333496,4422.692383,2481.000000,2.000000,52.000000,,,,0.000000,4.000000,4.000000,4.000000,4.000000,4.000000,4.000000,4.000000,4.000000,4.000000,4.000000,4.000000,4.000000,4.000000,4.000000,100.000000,,,,,,,,,,,,,,,,,,,,,,,,,,,,,,,,,,,,,,,,,,,,,,,
1665771849.416197,1665771849.416206,80.000000,0.000000,4305.384766,4301.922852,4326.538574,4315.384766,4294.358887,4287.179688,4279.358887,4289.358887,4282.179688,4265.641113,4484.358887,4507.563965,4377.307617,4442.179688,2666.000000,2.000000,52.000000,,,,0.000000,4.000000,4.000000,4.000000,4.000000,4.000000,4.000000,4.000000,4.000000,4.000000,4.000000,4.000000,4.000000,4.000000,4.000000,100.000000,,,,,,,,,,,,,,,,,,,,,,,,,,,,,,,,,,,,,,,,,,,,,,,
1665771849.424006,1665771849.423914,81.000000,0.000000,4308.974121,4312.179688,4331.153809,4318.461426,4297.051270,4295.769043,4288.461426,4294.230957,4290.512695,4274.358887,4485.897461,4521.025879,4381.025879,4451.410156,3343.000000,2.000000,52.000000,,,,0.000000,4.000000,4.000000,4.000000,4.000000,4.000000,4.000000,4.000000,4.000000,4.000000,4.000000,4.000000,4.000000,4.000000,4.000000,100.000000,,,,,,,,,,,,,,,,,,,,,,,,,,,,,,,,,,,,,,,,,,,,,,,
1665771849.431814,1665771849.431723,82.000000,0.000000,4308.974121,4308.077148,4328.333496,4317.307617,4297.563965,4294.487305,4294.358887,4299.743652,4286.538574,4268.205078,4479.743652,4520.128418,4375.256348,4448.589844,2575.000000,2.000000,52.000000,,,,0.000000,4.000000,4.000000,4.000000,4.000000,4.000000,4.000000,4.000000,4.000000,4.000000,4.000000,4.000000,4.000000,4.000000,4.000000,100.000000,,,,,,,,,,,,,,,,,,,,,,,,,,,,,,,,,,,,,,,,,,,,,,,
1665771849.439622,1665771849.439431,83.000000,0.000000,4305.384766,4301.410156,4327.307617,4318.333496,4306.922852,4300.384766,4306.282227,4307.051270,4281.153809,4261.922852,4482.436035,4520.256348,4372.563965,4443.333496,2481.000000,2.000000,52.000000,,,,0.000000,4.000000,4.000000,4.000000,4.000000,4.000000,4.000000,4.000000,4.000000,4.000000,4.000000,4.000000,4.000000,4.000000,4.000000,100.000000,,,,,,,,,,,,,,,,,,,,,,,,,,,,,,,,,,,,,,,,,,,,,,,
1665771849.447431,1665771849.447340,84.000000,0.000000,4290.000000,4293.717773,4318.846191,4306.153809,4302.948730,4301.922852,4311.794922,4306.410156,4280.769043,4264.871582,4483.589844,4511.025879,4368.077148,4426.794922,2666.000000,2.000000,52.000000,,,,0.000000,4.000000,4.000000,4.000000,4.000000,4.000000,4.000000,4.000000,4.000000,4.000000,4.000000,4.000000,4.000000,4.000000,4.000000,100.000000,,,,,,,,,,,,,,,,,,,,,,,,,,,,,,,,,,,,,,,,,,,,,,,
1665771849.455239,1665771849.455148,85.000000,0.000000,4274.358887,4281.666504,4306.794922,4291.410156,4284.615234,4294.358887,4307.436035,4302.179688,4280.128418,4258.717773,4473.974121,4490.641113,4355.641113,4407.179688,3343.000000,2.000000,52.000000,,,,0.000000,4.000000,4.000000,4.000000,4.000000,4.000000,4.000000,4.000000,4.000000,4.000000,4.000000,4.000000,4.000000,4.000000,4.000000,100.000000,,,,,,,,,,,,,,,,,,,,,,,,,,,,,,,,,,,,,,,,,,,,,,,
1665771849.463048,1665771849.463056,86.000000,0.000000,4270.512695,4276.538574,4300.256348,4293.461426,4280.128418,4293.846191,4305.256348,4302.948730,4280.769043,4248.589844,4465.384766,4479.358887,4346.922852,4403.846191,2575.000000,2.000000,52.000000,,,,0.000000,4.000000,4.000000,4.000000,4.000000,4.000000,4.000000,4.000000,4.000000,4.000000,4.000000,4.000000,4.000000,4.000000,4.000000,100.000000,,,,,,,,,,,,,,,,,,,,,,,,,,,,,,,,,,,,,,,,,,,,,,,
1665771849.470856,1665771849.470865,87.000000,0.000000,4272.179688,4278.846191,4296.922852,4292.563965,4284.102539,4296.282227,4302.436035,4304.102539,4285.641113,4242.307617,4466.153809,4480.641113,4346.282227,4406.153809,2481.000000,2.000000,52.000000,,,,0.000000,4.000000,4.000000,4.000000,4.000000,4.000000,4.000000,4.000000,4.000000,4.000000,4.000000,4.000000,4.000000,4.000000,4.000000,100.000000,,,,,,,,,,,,,,,,,,,,,,,,,,,,,,,,,,,,,,,,,,,,,,,
1665771849.478664,1665771849.478773,88.000000,0.000000,4276.282227,4279.743652,4293.974121,4287.563965,4282.692383,4294.743652,4297.563965,4301.410156,4290.384766,4244.743652,4474.102539,4486.025879,4356.794922,4407.948730,2666.000000,2.000000,52.000000,,,,0.000000,4.000000,4.000000,4.000000,4.000000,4.000000,4.000000,4.000000,4.000000,4.000000,4.000000,4.000000,4.000000,4.000000,4.000000,100.000000,,,,,,,,,,,,,,,,,,,,,,,,,,,,,,,,,,,,,,,,,,,,,,,
1665771849.486473,1665771849.486582,89.000000,0.000000,4286.410156,4284.487305,4300.512695,4291.282227,4287.179688,4294.871582,4297.563965,4299.743652,4293.589844,4260.641113,4482.820313,4495.384766,4374.487305,4419.487305,3343.000000,2.000000,52.000000,,,,0.000000,4.000000,4.000000,4.000000,4.000000,4.000000,4.000000,4.000000,4.000000,4.000000,4.000000,4.000000,4.000000,4.000000,4.000000,100.000000,,,,,,,,,,,,,,,,,,,,,,,,,,,,,,,,,,,,,,,,,,,,,,,
1665771849.494281,1665771849.494490,90.000000,0.000000,4299.871582,4295.641113,4308.333496,4300.384766,4295.000000,4295.641113,4293.846191,4297.307617,4295.000000,4266.025879,4480.384766,4505.512695,4381.538574,4428.589844,2575.000000,2.000000,52.000000,,,,0.000000,4.000000,4.000000,4.000000,4.000000,4.000000,4.000000,4.000000,4.000000,4.000000,4.000000,4.000000,4.000000,4.000000,4.000000,100.000000,,,,,,,,,,,,,,,,,,,,,,,,,,,,,,,,,,,,,,,,,,,,,,,
1665771849.502090,1665771849.502298,91.000000,0.000000,4317.820313,4306.794922,4316.922852,4313.461426,4294.230957,4295.897461,4290.384766,4298.717773,4296.922852,4261.538574,4486.666504,4518.846191,4387.179688,4439.615234,2481.000000,2.000000,52.000000,,,,0.000000,4.000000,4.000000,4.000000,4.000000,4.000000,4.000000,4.000000,4.000000,4.000000,4.000000,4.000000,4.000000,4.000000,4.000000,100.000000,,,,,,,,,,,,,,,,,,,,,,,,,,,,,,,,,,,,,,,,,,,,,,,
1665771849.509898,1665771849.510207,92.000000,0.000000,4327.179688,4313.461426,4327.307617,4321.410156,4291.922852,4295.897461,4292.307617,4299.487305,4297.692383,4272.179688,4501.538574,4528.461426,4400.384766,4453.077148,2666.000000,2.000000,52.000000,,,,0.000000,4.000000,4.000000,4.000000,4.000000,4.000000,4.000000,4.000000,4.000000,4.000000,4.000000,4.000000,4.000000,4.000000,4.000000,100.000000,,,,,,,,,,,,,,,,,,,,,,,,,,,,,,,,,,,,,,,,,,,,,,,
1665771849.517707,1665771849.518015,93.000000,0.000000,4318.205078,4312.179688,4327.051270,4316.666504,4296.282227,4293.717773,4291.025879,4294.871582,4288.846191,4278.589844,4501.794922,4529.230957,4402.948730,4451.794922,3343.000000,2.000000,52.000000,,,,0.000000,4.000000,4.000000,4.000000,4.000000,4.000000,4.000000,4.000000,4.000000,4.000000,4.000000,4.000000,4.000000,4.000000,4.000000,100.000000,1.000000,100.000000,4.000000,4.000000,4.000000,4.000000,4.000000,4.000000,4.000000,4.000000,4.000000,4.000000,4.000000,4.000000,4.000000,4.000000,1.000000,0.330079,-0.636571,-1.477259,0.729689,1.000000,0.005203,3.000796,2.951384,12.448110,0.049160,1.000000,0.414636,86.876495,-84.932159,313.664856,1.000000,0.697059,0.202719,0.088086,0.254016,1.000000,0.468926,5.681112,-4.314161,18.012058,1.000000,0.082116,0.082116,0.000000,1.000000
1665771849.525515,1665771849.525924,94.000000,0.000000,4311.794922,4308.205078,4323.333496,4317.948730,4299.230957,4293.974121,4290.897461,4295.128418,4286.025879,4272.436035,4498.205078,4531.538574,4398.205078,4447.436035,2575.000000,2.000000,52.000000,,,,0.000000,4.000000,4.000000,4.000000,4.000000,4.000000,4.000000,4.000000,4.000000,4.000000,4.000000,4.000000,4.000000,4.000000,4.000000,100.000000,,,,,,,,,,,,,,,,,,,,,,,,,,,,,,,,,,,,,,,,,,,,,,,
1665771849.533323,1665771849.533732,95.000000,0.000000,4320.512695,4313.077148,4328.846191,4328.205078,4297.692383,4295.641113,4298.077148,4303.717773,4294.487305,4275.897461,4502.179688,4533.333496,4399.358887,4455.769043,2481.000000,2.000000,52.000000,,,,0.000000,4.000000,4.000000,4.000000,4.000000,4.000000,4.000000,4.000000,4.000000,4.000000,4.000000,4.000000,4.000000,4.000000,4.000000,100.000000,,,,,,,,,,,,,,,,,,,,,,,,,,,,,,,,,,,,,,,,,,,,,,,
1665771849.541132,1665771849.541640,96.000000,0.000000,4320.000000,4315.769043,4326.666504,4319.615234,4297.436035,4295.000000,4300.128418,4303.333496,4290.897461,4275.512695,4496.282227,4521.922852,4391.282227,4450.000000,2666.000000,2.000000,52.000000,,,,0.000000,4.000000,4.000000,4.000000,4.000000,4.000000,4.000000,4.000000,4.000000,4.000000,4.000000,4.000000,4.000000,4.000000,4.000000,100.000000,,,,,,,,,,,,,,,,,,,,,,,,,,,,,,,,,,,,,,,,,,,,,,,
1665771849.548940,1665771849.549449,97.000000,0.000000,4301.794922,4299.743652,4308.846191,4298.205078,4298.846191,4294.487305,4294.102539,4296.666504,4278.846191,4260.128418,4478.717773,4501.666504,4377.051270,4425.512695,3343.000000,2.000000,52.000000,,,,0.000000,4.000000,4.000000,4.000000,4.000000,4.000000,4.000000,4.000000,4.000000,4.000000,4.000000,4.000000,4.000000,4.000000,4.000000,100.000000,,,,,,,,,,,,,,,,,,,,,,,,,,,,,,,,,,,,,,,,,,,,,,,
1665771849.556749,1665771849.557257,98.000000,0.000000,4287.436035,4278.205078,4295.512695,4285.384766,4289.743652,4291.282227,4291.282227,4293.333496,4276.282227,4248.846191,4472.051270,4487.563965,4368.333496,4413.461426,2575.000000,2.000000,52.000000,,,,0.000000,4.000000,4.000000,4.000000,4.000000,4.000000,4.000000,4.000000,4.000000,4.000000,4.000000,4.000000,4.000000,4.000000,4.000000,100.000000,,,,,,,,,,,,,,,,,,,,,,,,,,,,,,,,,,,,,,,,,,,,,,,
1665771849.564557,1665771849.565066,99.000000,0.000000,4290.000000,4278.717773,4298.205078,4285.641113,4276.282227,4288.717773,4295.384766,4291.794922,4276.538574,4246.282227,4473.717773,4487.179688,4362.051270,4417.563965,2481.000000,2.000000,52.000000,,,,0.000000,4.000000,4.000000,4.000000,4.000000,4.000000,4.000000,4.000000,4.000000,4.000000,4.000000,4.000000,4.000000,4.000000,4.000000,100.000000,,,,,,,,,,,,,,,,,,,,,,,,,,,,,,,,,,,,,,,,,,,,,,,
1665771849.572365,1665771849.572774,100.000000,0.000000,4306.282227,4299.102539,4313.717773,4297.563965,4282.179688,4298.974121,4306.025879,4302.820313,4280.897461,4256.153809,4484.871582,4504.615234,4372.820313,4432.948730,2666.000000,2.000000,52.000000,,,,0.000000,4.000000,4.000000,4.000000,4.000000,4.000000,4.000000,4.000000,4.000000,4.000000,4.000000,4.000000,4.000000,4.000000,4.000000,100.000000,,,,,,,,,,,,,,,,,,,,,,,,,,,,,,,,,,,,,,,,,,,,,,,
1665771849.580174,1665771849.580683,101.000000,0.000000,4316.666504,4306.538574,4324.230957,4303.077148,4296.794922,4307.307617,4312.436035,4314.358887,4292.948730,4271.922852,4497.948730,4517.820313,4387.948730,4443.974121,3343.000000,2.000000,52.000000,,,,0.000000,4.000000,4.000000,4.000000,4.000000,4.000000,4.000000,4.000000,4.000000,4.000000,4.000000,4.000000,4.000000,4.000000,4.000000,100.000000,,,,,,,,,,,,,,,,,,,,,,,,,,,,,,,,,,,,,,,,,,,,,,,
1665771849.587982,1665771849.588491,102.000000,0.000000,4309.487305,4293.205078,4317.436035,4293.589844,4294.487305,4296.922852,4300.641113,4305.641113,4296.025879,4267.307617,4488.717773,4507.307617,4374.102539,4431.025879,2575.000000,2.000000,52.000000,,,,0.000000,4.000000,4.000000,4.000000,4.000000,4.000000,4.000000,4.000000,4.000000,4.000000,4.000000,4.000000,4.000000,4.000000,4.000000,100.000000,,,,,,,,,,,,,,,,,,,,,,,,,,,,,,,,,,,,,,,,,,,,,,,
1665771849.595791,1665771849.596299,103.000000,0.000000,4300.897461,4291.922852,4309.743652,4291.922852,4287.820313,4286.922852,4286.153809,4293.589844,4291.794922,4258.077148,4473.205078,4498.205078,4359.358887,4416.538574,2481.000000,2.000000,52.000000,,,,0.000000,4.000000,4.000000,4.000000,4.000000,4.000000,4.000000,4.000000,4.000000,4.000000,4.000000,4.000000,4.000000,4.000000,4.000000,100.000000,,,,,,,,,,,,,,,,,,,,,,,,,,,,,,,,,,,,,,,,,,,,,,,
1665771849.603599,1665771849.604008,104.000000,0.000000,4309.358887,4308.589844,4316.922852,4305.384766,4293.333496,4295.897461,4291.282227,4298.333496,4294.871582,4265.769043,4478.589844,4511.794922,4373.205078,4426.025879,2666.000000,2.000000,52.000000,,,,0.000000,4.000000,4.000000,4.000000,4.000000,4.000000,4.000000,4.000000,4.000000,4.000000,4.000000,4.000000,4.000000,4.000000,4.000000,100.000000,,,,,,,,,,,,,,,,,,,,,,,,,,,,,,,,,,,,,,,,,,,,,,,
1665771849.611407,1665771849.611916,105.000000,0.000000,4318.589844,4308.846191,4318.461426,4307.051270,4299.358887,4301.282227,4296.794922,4300.256348,4295.897461,4269.102539,4485.384766,4521.153809,4379.615234,4432.436035,3343.000000,2.000000,52.000000,,,,0.000000,4.000000,4.000000,4.000000,4.000000,4.000000,4.000000,4.000000,4.000000,4.000000,4.000000,4.000000,4.000000,4.000000,4.000000,100.000000,,,,,,,,,,,,,,,,,,,,,,,,,,,,,,,,,,,,,,,,,,,,,,,
1665771849.619216,1665771849.619725,106.000000,0.000000,4310.000000,4292.948730,4307.436035,4290.384766,4295.512695,4285.641113,4286.922852,4290.641113,4285.000000,4265.769043,4473.974121,4508.205078,4364.743652,4420.384766,2575.000000,2.000000,52.000000,,,,0.000000,4.000000,4.000000,4.000000,4.000000,4.000000,4.000000,4.000000,4.000000,4.000000,4.000000,4.000000,4.000000,4.000000,4.000000,100.000000,,,,,,,,,,,,,,,,,,,,,,,,,,,,,,,,,,,,,,,,,,,,,,,
1665771849.627024,1665771849.627533,107.000000,0.000000,4302.948730,4289.615234,4301.282227,4279.871582,4292.179688,4281.025879,4283.589844,4287.948730,4277.563965,4265.000000,4469.615234,4498.717773,4361.410156,4415.384766,2481.000000,2.000000,52.000000,,,,0.000000,4.000000,4.000000,4.000000,4.000000,4.000000,4.000000,4.000000,4.000000,4.000000,4.000000,4.000000,4.000000,4.000000,4.000000,100.000000,,,,,,,,,,,,,,,,,,,,,,,,,,,,,,,,,,,,,,,,,,,,,,,
1665771849.634833,1665771849.635242,108.000000,0.000000,4311.794922,4297.179688,4309.102539,4285.512695,4294.615234,4295.641113,4296.794922,4296.538574,4284.743652,4264.871582,4478.846191,4509.358887,4372.179688,4429.871582,2666.000000,2.000000,52.000000,,,,0.000000,4.000000,4.000000,4.000000,4.000000,4.000000,4.000000,4.000000,4.000000,4.000000,4.000000,4.000000,4.000000,4.000000,4.000000,100.000000,,,,,,,,,,,,,,,,,,,,,,,,,,,,,,,,,,,,,,,,,,,,,,,
1665771849.642641,1665771849.643050,109.000000,0.000000,4318.717773,4298.846191,4314.102539,4290.769043,4288.333496,4292.436035,4298.205078,4298.589844,4288.717773,4271.538574,4482.820313,4517.948730,4381.282227,4441.666504,3343.000000,2.000000,52.000000,,,,0.000000,4.000000,4.000000,4.000000,4.000000,4.000000,4.000000,4.000000,4.000000,4.000000,4.000000,4.000000,4.000000,4.000000,4.000000,100.000000,,,,,,,,,,,,,,,,,,,,,,,,,,,,,,,,,,,,,,,,,,,,,,,
1665771849.650449,1665771849.650759,110.000000,0.000000,4317.436035,4294.743652,4313.974121,4290.000000,4278.589844,4276.922852,4287.948730,4291.922852,4280.512695,4279.358887,4482.307617,4511.282227,4385.384766,4442.692383,2575.000000,2.000000,52.000000,,,,0.000000,4.000000,4.000000,4.000000,4.000000,4.000000,4.000000,4.000000,4.000000,4.000000,4.000000,4.000000,4.000000,4.000000,4.000000,100.000000,,,,,,,,,,,,,,,,,,,,,,,,,,,,,,,,,,,,,,,,,,,,,,,
1665771849.658258,1665771849.658567,111.000000,0.000000,4317.692383,4295.769043,4317.820313,4294.358887,4286.922852,4285.641113,4293.717773,4295.256348,4276.666504,4276.410156,4486.153809,4512.051270,4388.077148,4446.282227,2481.000000,2.000000,52.000000,,,,0.000000,4.000000,4.000000,4.000000,4.000000,4.000000,4.000000,4.000000,4.000000,4.000000,4.000000,4.000000,4.000000,4.000000,4.000000,100.000000,,,,,,,,,,,,,,,,,,,,,,,,,,,,,,,,,,,,,,,,,,,,,,,
1665771849.666066,1665771849.666276,112.000000,0.000000,4321.666504,4304.358887,4324.487305,4299.871582,4304.358887,4302.307617,4307.179688,4305.897461,4284.358887,4275.384766,4499.358887,4528.589844,4393.205078,4454.871582,2666.000000,2.000000,52.000000,,,,0.000000,4.000000,4.000000,4.000000,4.000000,4.000000,4.000000,4.000000,4.000000,4.000000,4.000000,4.000000,4.000000,4.000000,4.000000,100.000000,,,,,,,,,,,,,,,,,,,,,,,,,,,,,,,,,,,,,,,,,,,,,,,
1665771849.673875,1665771849.674184,113.000000,0.000000,4327.436035,4312.179688,4330.512695,4300.384766,4307.692383,4299.615234,4306.025879,4306.410156,4290.256348,4281.538574,4506.922852,4533.589844,4398.461426,4458.077148,3343.000000,2.000000,52.000000,,,,0.000000,4.000000,4.000000,4.000000,4.000000,4.000000,4.000000,4.000000,4.000000,4.000000,4.000000,4.000000,4.000000,4.000000,4.000000,100.000000,,,,,,,,,,,,,,,,,,,,,,,,,,,,,,,,,,,,,,,,,,,,,,,
1665771849.681683,1665771849.681993,114.000000,0.000000,4331.922852,4312.563965,4337.948730,4305.256348,4307.051270,4295.256348,4302.820313,4308.077148,4293.205078,4279.102539,4503.974121,4530.769043,4396.025879,4453.333496,2575.000000,2.000000,52.000000,,,,0.000000,4.000000,4.000000,4.000000,4.000000,4.000000,4.000000,4.000000,4.000000,4.000000,4.000000,4.000000,4.000000,4.000000,4.000000,100.000000,,,,,,,,,,,,,,,,,,,,,,,,,,,,,,,,,,,,,,,,,,,,,,,
1665771849.689491,1665771849.689901,115.000000,0.000000,4330.128418,4313.846191,4341.666504,4312.820313,4314.871582,4303.333496,4309.615234,4319.487305,4301.922852,4280.512695,4502.948730,4538.717773,4395.000000,4451.794922,2481.000000,2.000000,52.000000,,,,0.000000,4.000000,4.000000,4.000000,4.000000,4.000000,4.000000,4.000000,4.000000,4.000000,4.000000,4.000000,4.000000,4.000000,4.000000,100.000000,,,,,,,,,,,,,,,,,,,,,,,,,,,,,,,,,,,,,,,,,,,,,,,
1665771849.697300,1665771849.697709,116.000000,0.000000,4328.589844,4315.000000,4335.512695,4306.282227,4312.436035,4304.487305,4308.333496,4318.846191,4309.358887,4290.256348,4504.615234,4541.153809,4401.153809,4455.000000,2666.000000,2.000000,52.000000,,,,0.000000,4.000000,4.000000,4.000000,4.000000,4.000000,4.000000,4.000000,4.000000,4.000000,4.000000,4.000000,4.000000,4.000000,4.000000,100.000000,,,,,,,,,,,,,,,,,,,,,,,,,,,,,,,,,,,,,,,,,,,,,,,
1665771849.705108,1665771849.705618,117.000000,0.000000,4327.692383,4307.436035,4328.333496,4294.358887,4299.358887,4293.717773,4298.205078,4307.820313,4304.871582,4288.717773,4499.102539,4527.436035,4395.641113,4451.410156,3343.000000,2.000000,52.000000,,,,0.000000,4.000000,4.000000,4.000000,4.000000,4.000000,4.000000,4.000000,4.000000,4.000000,4.000000,4.000000,4.000000,4.000000,4.000000,100.000000,,,,,,,,,,,,,,,,,,,,,,,,,,,,,,,,,,,,,,,,,,,,,,,
1665771849.712916,1665771849.713426,118.000000,0.000000,4326.538574,4306.410156,4326.922852,4295.641113,4303.077148,4300.641113,4301.025879,4308.846191,4303.717773,4286.538574,4494.487305,4523.974121,4384.487305,4442.563965,2575.000000,2.000000,52.000000,,,,0.000000,4.000000,4.000000,4.000000,4.000000,4.000000,4.000000,4.000000,4.000000,4.000000,4.000000,4.000000,4.000000,4.000000,4.000000,100.000000,,,,,,,,,,,,,,,,,,,,,,,,,,,,,,,,,,,,,,,,,,,,,,,
1665771849.720725,1665771849.721335,119.000000,0.000000,4329.102539,4312.692383,4325.897461,4298.846191,4313.461426,4320.512695,4313.974121,4316.538574,4310.641113,4289.487305,4491.666504,4526.282227,4384.615234,4438.077148,2481.000000,2.000000,52.000000,,,,0.000000,4.000000,4.000000,4.000000,4.000000,4.000000,4.000000,4.000000,4.000000,4.000000,4.000000,4.000000,4.000000,4.000000,4.000000,100.000000,,,,,,,,,,,,,,,,,,,,,,,,,,,,,,,,,,,,,,,,,,,,,,,
1665771849.728533,1665771849.729143,120.000000,0.000000,4319.871582,4304.871582,4312.820313,4287.307617,4303.077148,4314.487305,4310.897461,4308.333496,4306.410156,4281.025879,4478.333496,4507.820313,4381.025879,4428.077148,2666.000000,2.000000,52.000000,,,,0.000000,4.000000,4.000000,4.000000,4.000000,4.000000,4.000000,4.000000,4.000000,4.000000,4.000000,4.000000,4.000000,4.000000,4.000000,100.000000,,,,,,,,,,,,,,,,,,,,,,,,,,,,,,,,,,,,,,,,,,,,,,,
1665771849.736342,1665771849.737051,121.000000,0.000000,4305.256348,4288.077148,4300.384766,4276.538574,4292.820313,4299.102539,4299.487305,4297.692383,4295.256348,4274.358887,4470.256348,4490.897461,4368.717773,4420.000000,3343.000000,2.000000,52.000000,,,,0.000000,4.000000,4.000000,4.000000,4.000000,4.000000,4.000000,4.000000,4.000000,4.000000,4.000000,4.000000,4.000000,4.000000,4.000000,100.000000,,,,,,,,,,,,,,,,,,,,,,,,,,,,,,,,,,,,,,,,,,,,,,,
1665771849.744150,1665771849.744860,122.000000,0.000000,4303.077148,4281.794922,4298.333496,4276.025879,4295.897461,4299.230957,4293.974121,4296.922852,4287.948730,4277.563965,4471.666504,4492.948730,4364.615234,4419.230957,2575.000000,2.000000,52.000000,,,,0.000000,4.000000,4.000000,4.000000,4.000000,4.000000,4.000000,4.000000,4.000000,4.000000,4.000000,4.000000,4.000000,4.000000,4.000000,100.000000,,,,,,,,,,,,,,,,,,,,,,,,,,,,,,,,,,,,,,,,,,,,,,,
1665771849.751958,1665771849.752568,123.000000,0.000000,4308.589844,4286.794922,4302.820313,4278.974121,4291.025879,4296.410156,4290.512695,4295.512695,4280.000000,4268.205078,4470.384766,4490.256348,4370.641113,4416.538574,2481.000000,2.000000,52.000000,,,,0.000000,4.000000,4.000000,4.000000,4.000000,4.000000,4.000000,4.000000,4.000000,4.000000,4.000000,4.000000,4.000000,4.000000,4.000000,100.000000,,,,,,,,,,,,,,,,,,,,,,,,,,,,,,,,,,,,,,,,,,,,,,,
1665771849.759767,1665771849.760377,124.000000,0.000000,4315.256348,4293.077148,4308.846191,4285.000000,4283.333496,4290.256348,4286.282227,4290.769043,4271.922852,4261.666504,4472.436035,4487.051270,4375.769043,4417.051270,2666.000000,2.000000,52.000000,,,,0.000000,4.000000,4.000000,4.000000,4.000000,4.000000,4.000000,4.000000,4.000000,4.000000,4.000000,4.000000,4.000000,4.000000,4.000000,100.000000,,,,,,,,,,,,,,,,,,,,,,,,,,,,,,,,,,,,,,,,,,,,,,,
1665771849.767575,1665771849.768085,125.000000,0.000000,4324.871582,4297.820313,4316.410156,4294.102539,4292.051270,4293.846191,4285.256348,4287.692383,4268.461426,4272.948730,4482.051270,4499.487305,4380.512695,4430.384766,3343.000000,2.000000,52.000000,,,,0.000000,4.000000,4.000000,4.000000,4.000000,4.000000,4.000000,4.000000,4.000000,4.000000,4.000000,4.000000,4.000000,4.000000,4.000000,100.000000,,,,,,,,,,,,,,,,,,,,,,,,,,,,,,,,,,,,,,,,,,,,,,,
1665771849.775384,1665771849.775894,126.000000,0.000000,4327.179688,4301.282227,4320.384766,4297.179688,4304.615234,4296.282227,4285.384766,4284.871582,4265.256348,4271.153809,4482.563965,4503.717773,4378.717773,4437.051270,2575.000000,2.000000,52.000000,,,,0.000000,4.000000,4.000000,4.000000,4.000000,4.000000,4.000000,4.000000,4.000000,4.000000,4.000000,4.000000,4.000000,4.000000,4.000000,100.000000,,,,,,,,,,,,,,,,,,,,,,,,,,,,,,,,,,,,,,,,,,,,,,,
1665771849.783192,1665771849.783602,127.000000,0.000000,4325.641113,4306.153809,4323.205078,4298.589844,4311.666504,4293.974121,4287.051270,4286.794922,4263.333496,4260.000000,4475.384766,4501.153809,4374.487305,4434.358887,52.000000,2.000000,52.000000,,,,0.000000,4.000000,4.000000,4.000000,4.000000,4.000000,4.000000,4.000000,4.000000,4.000000,4.000000,4.000000,4.000000,4.000000,4.000000,100.000000,,,,,,,,,,,,,,,,,,,,,,,,,,,,,,,,,,,,,,,,,,,,,,,
1665771849.791001,1665771849.791411,0.000000,0.000000,4326.666504,4309.743652,4325.384766,4299.743652,4313.717773,4296.922852,4293.333496,4297.820313,4272.051270,4266.922852,4484.358887,4512.820313,4379.358887,4439.358887,1938.000000,2.000000,52.000000,,,,0.000000,4.000000,4.000000,4.000000,4.000000,4.000000,4.000000,4.000000,4.000000,4.000000,4.000000,4.000000,4.000000,4.000000,4.000000,100.000000,,,,,,,,,,,,,,,,,,,,,,,,,,,,,,,,,,,,,,,,,,,,,,,
1665771849.798809,1665771849.799119,1.000000,0.000000,4321.922852,4309.102539,4321.153809,4289.230957,4305.384766,4301.666504,4299.743652,4309.487305,4287.563965,4281.153809,4498.333496,4522.820313,4385.512695,4441.153809,2080.000000,2.000000,52.000000,,,,0.000000,4.000000,4.000000,4.000000,4.000000,4.000000,4.000000,4.000000,4.000000,4.000000,4.000000,4.000000,4.000000,4.000000,4.000000,100.000000,,,,,,,,,,,,,,,,,,,,,,,,,,,,,,,,,,,,,,,,,,,,,,,
1665771849.806617,1665771849.806928,2.000000,0.000000,4314.487305,4306.282227,4316.538574,4278.717773,4303.846191,4304.230957,4304.871582,4316.410156,4297.307617,4281.282227,4494.358887,4520.256348,4383.461426,4437.948730,2274.000000,2.000000,52.000000,,,,0.000000,4.000000,4.000000,4.000000,4.000000,4.000000,4.000000,4.000000,4.000000,4.000000,4.000000,4.000000,4.000000,4.000000,4.000000,100.000000,,,,,,,,,,,,,,,,,,,,,,,,,,,,,,,,,,,,,,,,,,,,,,,
1665771849.814426,1665771849.814636,3.000000,0.000000,4310.256348,4298.846191,4310.769043,4280.641113,4312.179688,4305.512695,4307.820313,4316.794922,4297.563965,4277.051270,4483.077148,4515.128418,4375.384766,4434.230957,2296.000000,2.000000,52.000000,,,,0.000000,4.000000,4.000000,4.000000,4.000000,4.000000,4.000000,4.000000,4.000000,4.000000,4.000000,4.000000,4.000000,4.000000,4.000000,100.000000,,,,,,,,,,,,,,,,,,,,,,,,,,,,,,,,,,,,,,,,,,,,,,,
1665771849.822234,1665771849.822445,4.000000,0.000000,4303.461426,4293.717773,4304.487305,4280.641113,4307.436035,4303.717773,4308.589844,4312.051270,4296.794922,4278.974121,4481.922852,4506.025879,4371.153809,4423.717773,2381.000000,2.000000,52.000000,,,,0.000000,4.000000,4.000000,4.000000,4.000000,4.000000,4.000000,4.000000,4.000000,4.000000,4.000000,4.000000,4.000000,4.000000,4.000000,100.000000,,,,,,,,,,,,,,,,,,,,,,,,,,,,,,,,,,,,,,,,,,,,,,,
1665771849.830043,1665771849.830153,5.000000,0.000000,4300.512695,4294.358887,4302.051270,4275.897461,4297.948730,4299.615234,4307.820313,4306.282227,4295.641113,4281.666504,4483.205078,4495.769043,4371.794922,4414.743652,2316.000000,2.000000,52.000000,,,,0.000000,4.000000,4.000000,4.000000,4.000000,4.000000,4.000000,4.000000,4.000000,4.000000,4.000000,4.000000,4.000000,4.000000,4.000000,100.000000,,,,,,,,,,,,,,,,,,,,,,,,,,,,,,,,,,,,,,,,,,,,,,,
1665771849.837851,1665771849.837962,6.000000,0.000000,4309.358887,4296.538574,4306.794922,4282.179688,4301.025879,4295.384766,4304.230957,4302.820313,4293.717773,4278.974121,4484.230957,4496.922852,4378.717773,4418.205078,2102.000000,2.000000,52.000000,,,,0.000000,4.000000,4.000000,4.000000,4.000000,4.000000,4.000000,4.000000,4.000000,4.000000,4.000000,4.000000,4.000000,4.000000,4.000000,100.000000,,,,,,,,,,,,,,,,,,,,,,,,,,,,,,,,,,,,,,,,,,,,,,,
1665771849.845659,1665771849.845670,7.000000,0.000000,4313.974121,4298.333496,4309.871582,4288.589844,4306.282227,4298.205078,4299.102539,4299.230957,4296.410156,4280.256348,4485.000000,4500.897461,4382.179688,4425.256348,2097.000000,2.000000,52.000000,,,,0.000000,4.000000,4.000000,4.000000,4.000000,4.000000,4.000000,4.000000,4.000000,4.000000,4.000000,4.000000,4.000000,4.000000,4.000000,100.000000,,,,,,,,,,,,,,,,,,,,,,,,,,,,,,,,,,,,,,,,,,,,,,,
1665771849.853468,1665771849.853579,8.000000,0.000000,4309.358887,4297.051270,4308.333496,4278.846191,4304.487305,4298.589844,4291.794922,4290.512695,4289.102539,4281.922852,4476.538574,4493.589844,4378.717773,4423.974121,2271.000000,2.000000,52.000000,,,,0.000000,4.000000,4.000000,4.000000,4.000000,4.000000,4.000000,4.000000,4.000000,4.000000,4.000000,4.000000,4.000000,4.000000,4.000000,100.000000,,,,,,,,,,,,,,,,,,,,,,,,,,,,,,,,,,,,,,,,,,,,,,,
1665771849.861276,1665771849.861387,9.000000,0.000000,4310.641113,4293.461426,4305.769043,4274.871582,4300.256348,4285.256348,4278.333496,4276.538574,4267.051270,4272.051270,4468.333496,4481.025879,4377.820313,4418.846191,2414.000000,2.000000,52.000000,,,,0.000000,4.000000,4.000000,4.000000,4.000000,4.000000,4.000000,4.000000,4.000000,4.000000,4.000000,4.000000,4.000000,4.000000,4.000000,100.000000,,,,,,,,,,,,,,,,,,,,,,,,,,,,,,,,,,,,,,,,,,,,,,,
1665771849.869085,1665771849.869295,10.000000,0.000000,4316.538574,4295.512695,4310.641113,4286.025879,4295.384766,4278.974121,4273.846191,4273.461426,4259.743652,4261.025879,4470.000000,4481.922852,4379.615234,4418.077148,2565.000000,2.000000,52.000000,,,,0.000000,4.000000,4.000000,4.000000,4.000000,4.000000,4.000000,4.000000,4.000000,4.000000,4.000000,4.000000,4.000000,4.000000,4.000000,100.000000,,,,,,,,,,,,,,,,,,,,,,,,,,,,,,,,,,,,,,,,,,,,,,,
1665771849.876893,1665771849.877104,11.000000,0.000000,4320.641113,4304.615234,4320.897461,4289.871582,4302.307617,4290.641113,4283.846191,4283.205078,4272.436035,4266.025879,4476.410156,4496.282227,4381.025879,4425.000000,2486.000000,2.000000,52.000000,,,,0.000000,4.000000,4.000000,4.000000,4.000000,4.000000,4.000000,4.000000,4.000000,4.000000,4.000000,4.000000,4.000000,4.000000,4.000000,100.000000,,,,,,,,,,,,,,,,,,,,,,,,,,,,,,,,,,,,,,,,,,,,,,,
1665771849.884702,1665771849.885012,12.000000,0.000000,4321.538574,4310.897461,4323.205078,4286.794922,4310.128418,4299.102539,4290.128418,4288.974121,4272.948730,4277.563965,4484.102539,4504.615234,4382.179688,4435.000000,2638.000000,2.000000,52.000000,,,,0.000000,4.000000,4.000000,4.000000,4.000000,4.000000,4.000000,4.000000,4.000000,4.000000,4.000000,4.000000,4.000000,4.000000,4.000000,100.000000,,,,,,,,,,,,,,,,,,,,,,,,,,,,,,,,,,,,,,,,,,,,,,,
1665771849.892510,1665771849.892821,13.000000,0.000000,4311.538574,4304.871582,4310.000000,4285.128418,4302.692383,4292.948730,4283.461426,4287.307617,4262.307617,4273.077148,4483.205078,4492.820313,4376.538574,4429.743652,3321.000000,2.000000,52.000000,,,,0.000000,4.000000,4.000000,4.000000,4.000000,4.000000,4.000000,4.000000,4.000000,4.000000,4.000000,4.000000,4.000000,4.000000,4.000000,100.000000,,,,,,,,,,,,,,,,,,,,,,,,,,,,,,,,,,,,,,,,,,,,,,,
1665771849.900318,1665771849.900729,14.000000,0.000000,4298.974121,4293.717773,4301.025879,4280.641113,4301.794922,4293.589844,4283.589844,4290.512695,4268.589844,4262.563965,4476.794922,4482.179688,4365.641113,4418.205078,2565.000000,2.000000,52.000000,,,,0.000000,4.000000,4.000000,4.000000,4.000000,4.000000,4.000000,4.000000,4.000000,4.000000,4.000000,4.000000,4.000000,4.000000,4.000000,100.000000,,,,,,,,,,,,,,,,,,,,,,,,,,,,,,,,,,,,,,,,,,,,,,,
1665771849.908127,1665771849.908537,15.000000,0.000000,4303.846191,4294.358887,4307.948730,4276.922852,4311.794922,4301.922852,4295.384766,4301.538574,4283.846191,4266.922852,4482.307617,4493.846191,4368.461426,4422.179688,2486.000000,2.000000,52.000000,,,,0.000000,4.000000,4.000000,4.000000,4.000000,4.000000,4.000000,4.000000,4.000000,4.000000,4.000000,4.000000,4.000000,4.000000,4.000000,100.000000,,,,,,,,,,,,,,,,,,,,,,,,,,,,,,,,,,,,,,,,,,,,,,,
1665771849.915935,1665771849.916446,16.000000,0.000000,4309.230957,4297.820313,4308.974121,4272.051270,4311.153809,4302.179688,4299.743652,4306.666504,4283.333496,4272.051270,4485.384766,4499.102539,4377.692383,4428.846191,0.000000,2.000000,52.000000,,,,0.000000,4.000000,4.000000,4.000000,4.000000,4.000000,4.000000,4.000000,4.000000,4.000000,4.000000,4.000000,4.000000,4.000000,4.000000,100.000000,,,,,,,,,,,,,,,,,,,,,,,,,,,,,,,,,,,,,,,,,,,,,,,
1665771849.923744,1665771849.924254,17.000000,0.000000,4300.000000,4295.128418,4298.205078,4266.282227,4306.410156,4299.615234,4300.128418,4304.871582,4277.948730,4264.743652,4477.307617,4489.615234,4372.179688,4422.436035,0.000000,2.000000,52.000000,,,,0.000000,4.000000,4.000000,4.000000,4.000000,4.000000,4.000000,4.000000,4.000000,4.000000,4.000000,4.000000,4.000000,4.000000,4.000000,100.000000,,,,,,,,,,,,,,,,,,,,,,,,,,,,,,,,,,,,,,,,,,,,,,,
1665771849.931552,1665771849.932163,18.000000,0.000000,4297.563965,4296.282227,4295.384766,4267.692383,4307.692383,4299.487305,4301.666504,4305.384766,4283.589844,4261.794922,4476.794922,4489.487305,4365.384766,4417.307617,0.000000,2.000000,52.000000,,,,0.000000,4.000000,4.000000,4.000000,4.000000,4.000000,4.000000,4.000000,4.000000,4.000000,4.000000,4.000000,4.000000,4.000000,4.000000,100.000000,,,,,,,,,,,,,,,,,,,,,,,,,,,,,,,,,,,,,,,,,,,,,,,
1665771849.939360,1665771849.939971,19.000000,0.000000,4300.000000,4290.000000,4296.538574,4267.820313,4302.563965,4297.948730,4297.820313,4301.666504,4286.282227,4266.410156,4475.384766,4494.230957,4365.641113,4415.641113,0.000000,2.000000,52.000000,,,,0.000000,4.000000,4.000000,4.000000,4.000000,4.000000,4.000000,4.000000,4.000000,4.000000,4.000000,4.000000,4.000000,4.000000,4.000000,100.000000,,,,,,,,,,,,,,,,,,,,,,,,,,,,,,,,,,,,,,,,,,,,,,,
1665771849.947169,1665771849.947879,20.000000,0.000000,4297.692383,4277.436035,4293.205078,4258.461426,4294.358887,4295.000000,4289.487305,4289.743652,4281.153809,4265.128418,4465.000000,4487.692383,4365.256348,4411.282227,0.000000,2.000000,52.000000,,,,0.000000,4.000000,4.000000,4.000000,4.000000,4.000000,4.000000,4.000000,4.000000,4.000000,4.000000,4.000000,4.000000,4.000000,4.000000,100.000000,,,,,,,,,,,,,,,,,,,,,,,,,,,,,,,,,,,,,,,,,,,,,,,
1665771849.954977,1665771849.955688,21.000000,0.000000,4302.179688,4279.871582,4297.948730,4258.974121,4293.846191,4293.974121,4286.922852,4286.282227,4278.205078,4263.717773,4465.384766,4487.692383,4361.282227,4413.333496,0.000000,2.000000,52.000000,,,,0.000000,4.000000,4.000000,4.000000,4.000000,4.000000,4.000000,4.000000,4.000000,4.000000,4.000000,4.000000,4.000000,4.000000,4.000000,100.000000,,,,,,,,,,,,,,,,,,,,,,,,,,,,,,,,,,,,,,,,,,,,,,,
1665771849.962786,1665771849.963396,22.000000,0.000000,4307.307617,4286.666504,4305.128418,4266.794922,4296.025879,4295.128418,4286.794922,4291.538574,4281.410156,4265.000000,4471.025879,4494.487305,4359.615234,4412.948730,0.000000,2.000000,52.000000,,,,0.000000,4.000000,4.000000,4.000000,4.000000,4.000000,4.000000,4.000000,4.000000,4.000000,4.000000,4.000000,4.000000,4.000000,4.000000,100.000000,,,,,,,,,,,,,,,,,,,,,,,,,,,,,,,,,,,,,,,,,,,,,,,
1665771849.970594,1665771849.971205,23.000000,0.000000,4308.333496,4284.230957,4305.128418,4263.205078,4296.282227,4295.128418,4283.589844,4293.589844,4288.974121,4271.538574,4470.512695,4498.333496,4363.077148,4411.794922,0.000000,2.000000,52.000000,,,,0.000000,4.000000,4.000000,4.000000,4.000000,4.000000,4.000000,4.000000,4.000000,4.000000,4.000000,4.000000,4.000000,4.000000,4.000000,100.000000,,,,,,,,,,,,,,,,,,,,,,,,,,,,,,,,,,,,,,,,,,,,,,,
1665771849.978403,1665771849.978913,24.000000,0.000000,4309.358887,4285.000000,4303.846191,4261.666504,4300.512695,4293.974121,4284.871582,4298.205078,4297.051270,4286.153809,4475.384766,4505.128418,4367.179688,4418.846191,0.000000,2.000000,52.000000,,,,0.000000,4.000000,4.000000,4.000000,4.000000,4.000000,4.000000,4.000000,4.000000,4.000000,4.000000,4.000000,4.000000,4.000000,4.000000,100.000000,,,,,,,,,,,,,,,,,,,,,,,,,,,,,,,,,,,,,,,,,,,,,,,
1665771849.986211,1665771849.986722,25.000000,0.000000,4312.563965,4293.717773,4309.615234,4273.717773,4311.282227,4298.077148,4292.692383,4309.358887,4302.563965,4296.538574,4486.282227,4510.256348,4373.846191,4424.871582,0.000000,2.000000,52.000000,,,,0.000000,4.000000,4.000000,4.000000,4.000000,4.000000,4.000000,4.000000,4.000000,4.000000,4.000000,4.000000,4.000000,4.000000,4.000000,100.000000,,,,,,,,,,,,,,,,,,,,,,,,,,,,,,,,,,,,,,,,,,,,,,,
1665771849.994019,1665771849.994430,26.000000,0.000000,4310.128418,4295.512695,4309.871582,4279.102539,4314.230957,4302.563965,4295.512695,4311.794922,4303.205078,4291.666504,4486.538574,4505.384766,4375.512695,4416.922852,0.000000,2.000000,52.000000,,,,0.000000,4.000000,4.000000,4.000000,4.000000,4.000000,4.000000,4.000000,4.000000,4.000000,4.000000,4.000000,4.000000,4.000000,4.000000,100.000000,,,,,,,,,,,,,,,,,,,,,,,,,,,,,,,,,,,,,,,,,,,,,,,
1665771850.001828,1665771850.002339,27.000000,0.000000,4297.307617,4285.256348,4298.846191,4266.153809,4305.000000,4297.820313,4292.820313,4306.794922,4296.025879,4280.128418,4475.128418,4491.410156,4364.102539,4405.512695,0.000000,2.000000,52.000000,,,,0.000000,4.000000,4.000000,4.000000,4.000000,4.000000,4.000000,4.000000,4.000000,4.000000,4.000000,4.000000,4.000000,4.000000,4.000000,100.000000,,,,,,,,,,,,,,,,,,,,,,,,,,,,,,,,,,,,,,,,,,,,,,,
1665771850.009636,1665771850.010147,28.000000,0.000000,4286.922852,4276.666504,4291.794922,4256.153809,4304.230957,4298.333496,4297.692383,4307.948730,4289.615234,4276.410156,4470.128418,4480.897461,4353.717773,4402.692383,0.000000,2.000000,52.000000,,,,0.000000,4.000000,4.000000,4.000000,4.000000,4.000000,4.000000,4.000000,4.000000,4.000000,4.000000,4.000000,4.000000,4.000000,4.000000,100.000000,,,,,,,,,,,,,,,,,,,,,,,,,,,,,,,,,,,,,,,,,,,,,,,
1665771850.017444,1665771850.018055,29.000000,0.000000,4290.256348,4284.230957,4298.974121,4262.436035,4313.717773,4305.256348,4306.666504,4309.358887,4290.769043,4272.179688,4469.230957,4481.153809,4350.897461,4402.436035,0.000000,2.000000,52.000000,,,,0.000000,4.000000,4.000000,4.000000,4.000000,4.000000,4.000000,4.000000,4.000000,4.000000,4.000000,4.000000,4.000000,4.000000,4.000000,100.000000,1.000000,100.000000,4.000000,4.000000,4.000000,4.000000,4.000000,4.000000,4.000000,4.000000,4.000000,4.000000,4.000000,4.000000,4.000000,4.000000,1.000000,0.329910,-0.713849,-1.477417,0.729672,1.000000,0.000000,2.951384,2.951384,12.448110,0.048079,1.000000,0.415533,87.167854,-84.918594,313.639923,1.000000,0.697059,0.244848,0.088086,0.254016,1.000000,0.449631,5.135817,-4.313586,18.010860,1.000000,0.081613,0.081613,0.000000,1.000000
1665771850.025253,1665771850.025864,30.000000,0.000000,4291.538574,4292.563965,4302.563965,4265.384766,4311.282227,4299.102539,4302.436035,4300.512695,4284.102539,4260.128418,4460.000000,4475.000000,4342.820313,4398.333496,0.000000,2.000000,52.000000,,,,0.000000,4.000000,4.000000,4.000000,4.000000,4.000000,4.000000,4.000000,4.000000,4.000000,4.000000,4.000000,4.000000,4.000000,4.000000,100.000000,,,,,,,,,,,,,,,,,,,,,,,,,,,,,,,,,,,,,,,,,,,,,,,
1665771850.033061,1665771850.033772,31.000000,0.000000,4286.794922,4292.051270,4297.820313,4261.922852,4300.128418,4291.410156,4296.666504,4295.512695,4274.230957,4255.000000,4455.000000,4467.307617,4336.794922,4396.282227,0.000000,2.000000,52.000000,,,,0.000000,4.000000,4.000000,4.000000,4.000000,4.000000,4.000000,4.000000,4.000000,4.000000,4.000000,4.000000,4.000000,4.000000,4.000000,100.000000,,,,,,,,,,,,,,,,,,,,,,,,,,,,,,,,,,,,,,,,,,,,,,,
1665771850.040870,1665771850.041581,32.000000,0.000000,4295.000000,4297.436035,4298.846191,4258.077148,4297.179688,4293.717773,4298.205078,4297.692383,4277.051270,4262.307617,4462.436035,4474.743652,4350.128418,4403.077148,0.000000,2.000000,52.000000,,,,0.000000,4.000000,4.000000,4.000000,4.000000,4.000000,4.000000,4.000000,4.000000,4.000000,4.000000,4.000000,4.000000,4.000000,4.000000,100.000000,,,,,,,,,,,,,,,,,,,,,,,,,,,,,,,,,,,,,,,,,,,,,,,
1665771850.048678,1665771850.049489,33.000000,0.000000,4307.179688,4300.897461,4301.538574,4253.589844,4298.589844,4288.077148,4293.461426,4293.333496,4280.256348,4264.743652,4470.256348,4489.358887,4361.153809,4410.897461,0.000000,2.000000,52.000000,,,,0.000000,4.000000,4.000000,4.000000,4.000000,4.000000,4.000000,4.000000,4.000000,4.000000,4.000000,4.000000,4.000000,4.000000,4.000000,100.000000,,,,,,,,,,,,,,,,,,,,,,,,,,,,,,,,,,,,,,,,,,,,,,,
1665771850.056486,1665771850.057298,34.000000,0.000000,4306.282227,4296.410156,4299.487305,4252.563965,4295.512695,4280.641113,4284.487305,4286.666504,4278.205078,4261.538574,4475.512695,4494.230957,4365.000000,4416.666504,0.000000,2.000000,52.000000,,,,0.000000,4.000000,4.000000,4.000000,4.000000,4.000000,4.000000,4.000000,4.000000,4.000000,4.000000,4.000000,4.000000,4.000000,4.000000,100.000000,,,,,,,,,,,,,,,,,,,,,,,,,,,,,,,,,,,,,,,,,,,,,,,
1665771850.064295,1665771850.065206,35.000000,0.000000,4312.692383,4300.897461,4304.230957,4261.410156,4296.025879,4285.512695,4287.563965,4288.077148,4280.128418,4270.641113,4480.384766,4501.666504,4377.820313,4425.769043,0.000000,2.000000,52.000000,,,,0.000000,4.000000,4.000000,4.000000,4.000000,4.000000,4.000000,4.000000,4.000000,4.000000,4.000000,4.000000,4.000000,4.000000,4.000000,100.000000,,,,,,,,,,,,,,,,,,,,,,,,,,,,,,,,,,,,,,,,,,,,,,,
1665771850.072103,1665771850.073014,36.000000,0.000000,4332.436035,4313.846191,4316.153809,4272.692383,4307.820313,4293.461426,4295.512695,4295.000000,4282.692383,4283.974121,4486.922852,4514.487305,4387.563965,4432.436035,0.000000,2.000000,52.000000,,,,0.000000,4.000000,4.000000,4.000000,4.000000,4.000000,4.000000,4.000000,4.000000,4.000000,4.000000,4.000000,4.000000,4.000000,4.000000,100.000000,,,,,,,,,,,,,,,,,,,,,,,,,,,,,,,,,,,,,,,,,,,,,,,
1665771850.079912,1665771850.080923,37.000000,0.000000,4340.512695,4319.615234,4317.692383,4274.615234,4316.666504,4294.615234,4291.666504,4295.897461,4280.769043,4286.025879,4492.307617,4517.948730,4384.358887,4434.230957,0.000000,2.000000,52.000000,,,,0.000000,4.000000,4.000000,4.000000,4.000000,4.000000,4.000000,4.000000,4.000000,4.000000,4.000000,4.000000,4.000000,4.000000,4.000000,100.000000,,,,,,,,,,,,,,,,,,,,,,,,,,,,,,,,,,,,,,,,,,,,,,,
1665771850.087720,1665771850.088731,38.000000,0.000000,4332.692383,4320.256348,4313.333496,4270.769043,4317.692383,4295.512695,4290.384766,4297.051270,4283.077148,4286.794922,4492.307617,4517.307617,4381.538574,4435.641113,0.000000,2.000000,52.000000,,,,0.000000,4.000000,4.000000,4.000000,4.000000,4.000000,4.000000,4.000000,4.000000,4.000000,4.000000,4.000000,4.000000,4.000000,4.000000,100.000000,,,,,,,,,,,,,,,,,,,,,,,,,,,,,,,,,,,,,,,,,,,,,,,
1665771850.095528,1665771850.096639,39.000000,0.000000,4321.410156,4314.102539,4313.205078,4270.000000,4316.538574,4298.846191,4293.846191,4301.153809,4289.487305,4293.077148,4488.974121,4517.436035,4385.769043,4432.563965,0.000000,2.000000,52.000000,,,,0.000000,4.000000,4.000000,4.000000,4.000000,4.000000,4.000000,4.000000,4.000000,4.000000,4.000000,4.000000,4.000000,4.000000,4.000000,100.000000,,,,,,,,,,,,,,,,,,,,,,,,,,,,,,,,,,,,,,,,,,,,,,,
1665771850.103337,1665771850.104448,40.000000,0.000000,4312.692383,4298.589844,4309.102539,4266.538574,4315.897461,4296.282227,4290.512695,4304.487305,4289.871582,4291.410156,4483.589844,4508.461426,4381.153809,4424.743652,0.000000,2.000000,52.000000,,,,0.000000,4.000000,4.000000,4.000000,4.000000,4.000000,4.000000,4.000000,4.000000,4.000000,4.000000,4.000000,4.000000,4.000000,4.000000,100.000000,,,,,,,,,,,,,,,,,,,,,,,,,,,,,,,,,,,,,,,,,,,,,,,
1665771850.111145,1665771850.112156,41.000000,0.000000,4304.871582,4291.025879,4296.666504,4255.128418,4314.358887,4294.615234,4287.179688,4306.153809,4285.128418,4277.820313,4471.538574,4493.461426,4363.205078,4414.102539,0.000000,2.000000,52.000000,,,,0.000000,4.000000,4.000000,4.000000,4.000000,4.000000,4.000000,4.000000,4.000000,4.000000,4.000000,4.000000,4.000000,4.000000,4.000000,100.000000,,,,,,,,,,,,,,,,,,,,,,,,,,,,,,,,,,,,,,,,,,,,,,,
1665771850.118954,1665771850.119965,42.000000,0.000000,4299.615234,4291.666504,4291.538574,4250.384766,4305.512695,4298.461426,4292.820313,4309.102539,4287.436035,4266.794922,4467.307617,4487.051270,4350.641113,4404.230957,0.000000,2.000000,52.000000,,,,0.000000,4.000000,4.000000,4.000000,4.000000,4.000000,4.000000,4.000000,4.000000,4.000000,4.000000,4.000000,4.000000,4.000000,4.000000,100.000000,,,,,,,,,,,,,,,,,,,,,,,,,,,,,,,,,,,,,,,,,,,,,,,
1665771850.126762,1665771850.127673,43.000000,0.000000,4294.230957,4284.487305,4291.282227,4252.436035,4298.077148,4299.871582,4294.487305,4308.333496,4289.230957,4265.897461,4470.128418,4483.717773,4353.333496,4395.128418,0.000000,2.000000,52.000000,,,,0.000000,4.000000,4.000000,4.000000,4.000000,4.000000,4.000000,4.000000,4.000000,4.000000,4.000000,4.000000,4.000000,4.000000,4.000000,100.000000,,,,,,,,,,,,,,,,,,,,,,,,,,,,,,,,,,,,,,,,,,,,,,,
1665771850.134570,1665771850.135482,44.000000,0.000000,4291.153809,4275.256348,4289.102539,4247.820313,4302.563965,4293.461426,4290.769043,4302.436035,4283.333496,4268.846191,4467.307617,4478.077148,4355.769043,4393.974121,0.000000,2.000000,52.000000,,,,0.000000,4.000000,4.000000,4.000000,4.000000,4.000000,4.000000,4.000000,4.000000,4.000000,4.000000,4.000000,4.000000,4.000000,4.000000,100.000000,,,,,,,,,,,,,,,,,,,,,,,,,,,,,,,,,,,,,,,,,,,,,,,
1665771850.142379,1665771850.143190,45.000000,0.000000,4296.666504,4279.358887,4291.666504,4250.256348,4312.307617,4292.820313,4293.974121,4302.563965,4282.820313,4268.077148,4472.179688,4481.538574,4353.205078,4400.256348,0.000000,2.000000,52.000000,,,,0.000000,4.000000,4.000000,4.000000,4.000000,4.000000,4.000000,4.000000,4.000000,4.000000,4.000000,4.000000,4.000000,4.000000,4.000000,100.000000,,,,,,,,,,,,,,,,,,,,,,,,,,,,,,,,,,,,,,,,,,,,,,,
1665771850.150187,1665771850.150999,46.000000,0.000000,4298.205078,4287.051270,4298.205078,4264.743652,4310.128418,4296.153809,4295.256348,4302.563965,4284.230957,4263.077148,4479.230957,4485.897461,4358.077148,4400.128418,0.000000,2.000000,52.000000,,,,0.000000,4.000000,4.000000,4.000000,4.000000,4.000000,4.000000,4.000000,4.000000,4.000000,4.000000,4.000000,4.000000,4.000000,4.000000,100.000000,,,,,,,,,,,,,,,,,,,,,,,,,,,,,,,,,,,,,,,,,,,,,,,
1665771850.157996,1665771850.158707,47.000000,0.000000,4295.897461,4289.230957,4301.538574,4273.333496,4297.436035,4289.230957,4289.230957,4296.025879,4279.871582,4262.948730,4472.820313,4483.846191,4360.000000,4397.563965,0.000000,2.000000,52.000000,,,,0.000000,4.000000,4.000000,4.000000,4.000000,4.000000,4.000000,4.000000,4.000000,4.000000,4.000000,4.000000,4.000000,4.000000,4.000000,100.000000,,,,,,,,,,,,,,,,,,,,,,,,,,,,,,,,,,,,,,,,,,,,,,,
1665771850.165804,1665771850.166516,48.000000,0.000000,4304.487305,4294.615234,4308.846191,4278.077148,4293.077148,4287.563965,4288.077148,4291.153809,4279.487305,4275.512695,4472.179688,4495.769043,4362.436035,4410.128418,0.000000,2.000000,52.000000,,,,0.000000,4.000000,4.000000,4.000000,4.000000,4.000000,4.000000,4.000000,4.000000,4.000000,4.000000,4.000000,4.000000,4.000000,4.000000,100.000000,,,,,,,,,,,,,,,,,,,,,,,,,,,,,,,,,,,,,,,,,,,,,,,
1665771850.173612,1665771850.174224,49.000000,0.000000,4317.051270,4301.922852,4320.000000,4290.512695,4297.051270,4293.974121,4292.307617,4290.384766,4282.179688,4279.615234,4484.102539,4518.077148,4377.179688,4430.256348,0.000000,2.000000,52.000000,,,,0.000000,4.000000,4.000000,4.000000,4.000000,4.000000,4.000000,4.000000,4.000000,4.000000,4.000000,4.000000,4.000000,4.000000,4.000000,100.000000,,,,,,,,,,,,,,,,,,,,,,,,,,,,,,,,,,,,,,,,,,,,,,,
1665771850.181421,1665771850.182033,50.000000,0.000000,4314.743652,4304.358887,4323.846191,4298.717773,4290.384766,4289.615234,4288.846191,4290.897461,4280.256348,4266.153809,4487.563965,4524.102539,4387.307617,4437.436035,0.000000,2.000000,52.000000,,,,0.000000,4.000000,4.000000,4.000000,4.000000,4.000000,4.000000,4.000000,4.000000,4.000000,4.000000,4.000000,4.000000,4.000000,4.000000,100.000000,,,,,,,,,,,,,,,,,,,,,,,,,,,,,,,,,,,,,,,,,,,,,,,
1665771850.189229,1665771850.189741,51.000000,0.000000,4303.589844,4302.692383,4325.384766,4299.871582,4276.538574,4279.487305,4281.666504,4293.846191,4280.000000,4266.282227,4486.025879,4520.128418,4383.205078,4437.179688,0.000000,2.000000,52.000000,,,,0.000000,4.000000,4.000000,4.000000,4.000000,4.000000,4.000000,4.000000,4.000000,4.000000,4.000000,4.000000,4.000000,4.000000,4.000000,100.000000,,,,,,,,,,,,,,,,,,,,,,,,,,,,,,,,,,,,,,,,,,,,,,,
1665771850.197038,1665771850.197550,52.000000,0.000000,4300.000000,4304.358887,4327.051270,4299.358887,4282.307617,4279.358887,4282.948730,4298.589844,4282.179688,4282.820313,4488.205078,4518.846191,4381.025879,4438.974121,0.000000,2.000000,52.000000,,,,0.000000,4.000000,4.000000,4.000000,4.000000,4.000000,4.000000,4.000000,4.000000,4.000000,4.000000,4.000000,4.000000,4.000000,4.000000,100.000000,,,,,,,,,,,,,,,,,,,,,,,,,,,,,,,,,,,,,,,,,,,,,,,
1665771850.204846,1665771850.205258,53.000000,0.000000,4295.128418,4304.230957,4323.717773,4297.563965,4291.282227,4285.128418,4285.769043,4301.666504,4282.563965,4278.205078,4483.333496,4512.563965,4374.743652,4435.000000,0.000000,2.000000,52.000000,,,,0.000000,4.000000,4.000000,4.000000,4.000000,4.000000,4.000000,4.000000,4.000000,4.000000,4.000000,4.000000,4.000000,4.000000,4.000000,100.000000,,,,,,,,,,,,,,,,,,,,,,,,,,,,,,,,,,,,,,,,,,,,,,,
1665771850.212655,1665771850.213067,54.000000,0.000000,4277.563965,4292.692383,4314.487305,4297.563965,4281.025879,4289.871582,4287.051270,4302.563965,4281.794922,4264.615234,4470.000000,4498.974121,4353.205078,4419.102539,0.000000,2.000000,52.000000,,,,0.000000,4.000000,4.000000,4.000000,4.000000,4.000000,4.000000,4.000000,4.000000,4.000000,4.000000,4.000000,4.000000,4.000000,4.000000,100.000000,,,,,,,,,,,,,,,,,,,,,,,,,,,,,,,,,,,,,,,,,,,,,,,
1665771850.220463,1665771850.220775,55.000000,0.000000,4258.974121,4281.538574,4310.769043,4298.077148,4278.846191,4296.410156,4296.410156,4302.692383,4279.871582,4263.333496,4460.769043,4488.333496,4336.538574,4406.025879,0.000000,2.000000,52.000000,,,,0.000000,4.000000,4.000000,4.000000,4.000000,4.000000,4.000000,4.000000,4.000000,4.000000,4.000000,4.000000,4.000000,4.000000,4.000000,100.000000,,,,,,,,,,,,,,,,,,,,,,,,,,,,,,,,,,,,,,,,,,,,,,,
1665771850.228271,1665771850.228584,56.000000,0.000000,4245.128418,4277.051270,4305.000000,4288.589844,4288.461426,4296.922852,4299.102539,4297.692383,4276.666504,4254.102539,4456.922852,4476.794922,4330.897461,4395.384766,0.000000,2.000000,52.000000,,,,0.000000,4.000000,4.000000,4.000000,4.000000,4.000000,4.000000,4.000000,4.000000,4.000000,4.000000,4.000000,4.000000,4.000000,4.000000,100.000000,,,,,,,,,,,,,,,,,,,,,,,,,,,,,,,,,,,,,,,,,,,,,,,
1665771850.236080,1665771850.236292,57.000000,0.000000,4232.948730,4273.077148,4294.230957,4275.769043,4285.256348,4291.794922,4291.153809,4294.102539,4276.538574,4242.820313,4454.743652,4466.794922,4328.333496,4387.051270,0.000000,2.000000,52.000000,,,,0.000000,4.000000,4.000000,4.000000,4.000000,4.000000,4.000000,4.000000,4.000000,4.000000,4.000000,4.000000,4.000000,4.000000,4.000000,100.000000,,,,,,,,,,,,,,,,,,,,,,,,,,,,,,,,,,,,,,,,,,,,,,,
1665771850.243888,1665771850.244201,58.000000,0.000000,4233.333496,4274.102539,4295.000000,4279.871582,4280.256348,4293.205078,4292.307617,4295.897461,4277.179688,4253.589844,4458.974121,4472.179688,4334.743652,4392.948730,0.000000,2.000000,52.000000,,,,0.000000,4.000000,4.000000,4.000000,4.000000,4.000000,4.000000,4.000000,4.000000,4.000000,4.000000,4.000000,4.000000,4.000000,4.000000,100.000000,,,,,,,,,,,,,,,,,,,,,,,,,,,,,,,,,,,,,,,,,,,,,,,
1665771850.251697,1665771850.252009,59.000000,0.000000,4244.615234,4280.897461,4306.025879,4287.692383,4285.256348,4298.461426,4298.205078,4295.512695,4270.128418,4268.717773,4468.589844,4483.974121,4346.282227,4406.153809,0.000000,2.000000,52.000000,,,,0.000000,4.000000,4.000000,4.000000,4.000000,4.000000,4.000000,4.000000,4.000000,4.000000,4.000000,4.000000,4.000000,4.000000,4.000000,100.000000,,,,,,,,,,,,,,,,,,,,,,,,,,,,,,,,,,,,,,,,,,,,,,,
1665771850.259505,1665771850.259918,60.000000,0.000000,4243.846191,4282.436035,4303.846191,4286.153809,4283.974121,4294.102539,4287.436035,4287.692383,4263.077148,4265.384766,4470.512695,4484.487305,4351.282227,4408.205078,0.000000,2.000000,52.000000,,,,0.000000,4.000000,4.000000,4.000000,4.000000,4.000000,4.000000,4.000000,4.000000,4.000000,4.000000,4.000000,4.000000,4.000000,4.000000,100.000000,,,,,,,,,,,,,,,,,,,,,,,,,,,,,,,,,,,,,,,,,,,,,,,
1665771850.267313,1665771850.267726,61.000000,0.000000,4238.974121,4278.461426,4298.717773,4286.666504,4275.897461,4281.538574,4274.487305,4285.384766,4269.230957,4261.410156,4469.102539,4486.025879,4354.230957,4407.948730,0.000000,2.000000,52.000000,,,,0.000000,4.000000,4.000000,4.000000,4.000000,4.000000,4.000000,4.000000,4.000000,4.000000,4.000000,4.000000,4.000000,4.000000,4.000000,100.000000,,,,,,,,,,,,,,,,,,,,,,,,,,,,,,,,,,,,,,,,,,,,,,,
1665771850.275122,1665771850.275634,62.000000,0.000000,4247.179688,4278.205078,4305.256348,4286.410156,4277.051270,4280.769043,4273.974121,4289.615234,4279.871582,4270.641113,4473.717773,4496.025879,4362.436035,4414.615234,0.000000,2.000000,52.000000,,,,0.000000,4.000000,4.000000,4.000000,4.000000,4.000000,4.000000,4.000000,4.000000,4.000000,4.000000,4.000000,4.000000,4.000000,4.000000,100.000000,,,,,,,,,,,,,,,,,,,,,,,,,,,,,,,,,,,,,,,,,,,,,,,
1665771850.282930,1665771850.283443,63.000000,0.000000,4259.358887,4288.846191,4310.769043,4284.358887,4285.897461,4290.641113,4274.102539,4295.384766,4287.307617,4282.820313,4480.000000,4501.538574,4373.333496,4420.000000,0.000000,2.000000,52.000000,,,,0.000000,4.000000,4.000000,4.000000,4.000000,4.000000,4.000000,4.000000,4.000000,4.000000,4.000000,4.000000,4.000000,4.000000,4.000000,100.000000,,,,,,,,,,,,,,,,,,,,,,,,,,,,,,,,,,,,,,,,,,,,,,,
1665771850.290739,1665771850.291351,64.000000,0.000000,4263.205078,4296.282227,4306.666504,4286.025879,4279.358887,4287.692383,4270.897461,4299.487305,4292.563965,4284.487305,4480.641113,4500.000000,4376.538574,4423.077148,1952.000000,2.000000,52.000000,,,,0.000000,4.000000,4.000000,4.000000,4.000000,4.000000,4.000000,4.000000,4.000000,4.000000,4.000000,4.000000,4.000000,4.000000,4.000000,100.000000,,,,,,,,,,,,,,,,,,,,,,,,,,,,,,,,,,,,,,,,,,,,,,,
1665771850.298547,1665771850.299160,65.000000,0.000000,4261.666504,4289.615234,4305.897461,4291.282227,4264.358887,4277.820313,4271.922852,4297.307617,4289.102539,4273.077148,4476.153809,4494.871582,4364.615234,4422.179688,2092.000000,2.000000,52.000000,,,,0.000000,4.000000,4.000000,4.000000,4.000000,4.000000,4.000000,4.000000,4.000000,4.000000,4.000000,4.000000,4.000000,4.000000,4.000000,100.000000,,,,,,,,,,,,,,,,,,,,,,,,,,,,,,,,,,,,,,,,,,,,,,,
1665771850.306355,1665771850.307068,66.000000,0.000000,4256.666504,4284.487305,4310.128418,4292.179688,4270.384766,4282.948730,4280.641113,4295.641113,4280.000000,4266.282227,4470.641113,4492.307617,4354.743652,4412.692383,2282.000000,2.000000,52.000000,,,,0.000000,4.000000,4.000000,4.000000,4.000000,4.000000,4.000000,4.000000,4.000000,4.000000,4.000000,4.000000,4.000000,4.000000,4.000000,100.000000,,,,,,,,,,,,,,,,,,,,,,,,,,,,,,,,,,,,,,,,,,,,,,,
1665771850.314164,1665771850.314876,67.000000,0.000000,4251.794922,4284.102539,4307.820313,4288.589844,4286.410156,4295.897461,4290.256348,4296.410156,4277.948730,4267.179688,4466.153809,4490.384766,4358.333496,4407.051270,2307.000000,2.000000,52.000000,,,,0.000000,4.000000,4.000000,4.000000,4.000000,4.000000,4.000000,4.000000,4.000000,4.000000,4.000000,4.000000,4.000000,4.000000,4.000000,100.000000,,,,,,,,,,,,,,,,,,,,,,,,,,,,,,,,,,,,,,,,,,,,,,,
1665771850.321972,1665771850.322785,68.000000,0.000000,4252.051270,4279.487305,4304.487305,4288.077148,4283.846191,4298.974121,4298.846191,4296.666504,4279.871582,4267.948730,4468.717773,4490.384766,4359.487305,4412.436035,2386.000000,2.000000,52.000000,,,,0.000000,4.000000,4.000000,4.000000,4.000000,4.000000,4.000000,4.000000,4.000000,4.000000,4.000000,4.000000,4.000000,4.000000,4.000000,100.000000,,,,,,,,,,,,,,,,,,,,,,,,,,,,,,,,,,,,,,,,,,,,,,,
1665771850.329781,1665771850.330593,69.000000,0.000000,4250.897461,4283.333496,4306.794922,4293.846191,4276.538574,4297.307617,4303.846191,4296.794922,4278.846191,4266.410156,4474.230957,4490.641113,4353.589844,4415.256348,2316.000000,2.000000,52.000000,,,,0.000000,4.000000,4.000000,4.000000,4.000000,4.000000,4.000000,4.000000,4.000000,4.000000,4.000000,4.000000,4.000000,4.000000,4.000000,100.000000,,,,,,,,,,,,,,,,,,,,,,,,,,,,,,,,,,,,,,,,,,,,,,,
1665771850.337589,1665771850.338302,70.000000,0.000000,4253.717773,4295.512695,4313.333496,4303.333496,4284.871582,4299.102539,4301.410156,4300.769043,4280.128418,4266.922852,4478.974121,4493.333496,4357.820313,4415.512695,2122.000000,2.000000,52.000000,,,,0.000000,4.000000,4.000000,4.000000,4.000000,4.000000,4.000000,4.000000,4.000000,4.000000,4.000000,4.000000,4.000000,4.000000,4.000000,100.000000,,,,,,,,,,,,,,,,,,,,,,,,,,,,,,,,,,,,,,,,,,,,,,,
1665771850.345398,1665771850.346110,71.000000,0.000000,4263.717773,4297.051270,4312.692383,4305.641113,4296.794922,4300.128418,4295.512695,4298.974121,4282.436035,4267.436035,4480.000000,4494.358887,4365.512695,4417.948730,2110.000000,2.000000,52.000000,,,,0.000000,4.000000,4.000000,4.000000,4.000000,4.000000,4.000000,4.000000,4.000000,4.000000,4.000000,4.000000,4.000000,4.000000,4.000000,100.000000,,,,,,,,,,,,,,,,,,,,,,,,,,,,,,,,,,,,,,,,,,,,,,,
1665771850.353206,1665771850.353819,72.000000,0.000000,4272.179688,4297.563965,4313.846191,4305.897461,4301.282227,4297.948730,4294.871582,4295.769043,4280.641113,4268.974121,4478.717773,4493.205078,4365.128418,4421.153809,2276.000000,2.000000,52.000000,,,,0.000000,4.000000,4.000000,4.000000,4.000000,4.000000,4.000000,4.000000,4.000000,4.000000,4.000000,4.000000,4.000000,4.000000,4.000000,100.000000,,,,,,,,,,,,,,,,,,,,,,,,,,,,,,,,,,,,,,,,,,,,,,,
1665771850.361014,1665771850.361627,73.000000,0.000000,4273.846191,4306.794922,4318.077148,4309.615234,4302.051270,4298.846191,4293.589844,4298.846191,4281.410156,4271.922852,4477.436035,4495.128418,4366.666504,4422.179688,2411.000000,2.000000,52.000000,,,,0.000000,4.000000,4.000000,4.000000,4.000000,4.000000,4.000000,4.000000,4.000000,4.000000,4.000000,4.000000,4.000000,4.000000,4.000000,100.000000,,,,,,,,,,,,,,,,,,,,,,,,,,,,,,,,,,,,,,,,,,,,,,,
1665771850.368823,1665771850.369336,74.000000,0.000000,4273.205078,4308.846191,4316.538574,4308.846191,4294.487305,4297.307617,4285.641113,4295.384766,4287.820313,4270.384766,4473.077148,4492.563965,4367.436035,4421.025879,2563.000000,2.000000,52.000000,,,,0.000000,4.000000,4.000000,4.000000,4.000000,4.000000,4.000000,4.000000,4.000000,4.000000,4.000000,4.000000,4.000000,4.000000,4.000000,100.000000,,,,,,,,,,,,,,,,,,,,,,,,,,,,,,,,,,,,,,,,,,,,,,,
1665771850.376631,1665771850.377144,75.000000,0.000000,4273.717773,4306.282227,4312.051270,4300.769043,4285.641113,4289.743652,4278.461426,4290.897461,4295.000000,4275.641113,4475.641113,4488.589844,4368.077148,4418.333496,2478.000000,2.000000,52.000000,,,,0.000000,4.000000,4.000000,4.000000,4.000000,4.000000,4.000000,4.000000,4.000000,4.000000,4.000000,4.000000,4.000000,4.000000,4.000000,100.000000,,,,,,,,,,,,,,,,,,,,,,,,,,,,,,,,,,,,,,,,,,,,,,,
1665771850.384440,1665771850.384853,76.000000,0.000000,4272.820313,4303.589844,4309.615234,4292.307617,4280.641113,4280.256348,4271.538574,4292.948730,4295.000000,4274.615234,4476.922852,4490.897461,4371.794922,4416.282227,2650.000000,2.000000,52.000000,,,,0.000000,4.000000,4.000000,4.000000,4.000000,4.000000,4.000000,4.000000,4.000000,4.000000,4.000000,4.000000,4.000000,4.000000,4.000000,100.000000,,,,,,,,,,,,,,,,,,,,,,,,,,,,,,,,,,,,,,,,,,,,,,,
