title:Psychopy_cris_classical_ec_h_2022-10-12T140643.114157, start timestamp:1665608803.039285, stop timestamp:1665608864.069921, headset type:EPOCX, headset serial:E2020A42, headset firmware:720, channels:86, sampling rate:eeg_128;pm_2, samples:7817      , version:2.1, 
Timestamp,OriginalTimestamp,EEG.Counter,EEG.Interpolated,EEG.AF3,EEG.F7,EEG.F3,EEG.FC5,EEG.T7,EEG.P7,EEG.O1,EEG.O2,EEG.P8,EEG.T8,EEG.FC6,EEG.F4,EEG.F8,EEG.AF4,EEG.RawCq,EEG.Battery,EEG.BatteryPercent,MarkerIndex,MarkerType,MarkerValueInt,EEG.MarkerHardware,CQ.AF3,CQ.F7,CQ.F3,CQ.FC5,CQ.T7,CQ.P7,CQ.O1,CQ.O2,CQ.P8,CQ.T8,CQ.FC6,CQ.F4,CQ.F8,CQ.AF4,CQ.Overall,EQ.SampleRateQuality,EQ.OVERALL,EQ.AF3,EQ.F7,EQ.F3,EQ.FC5,EQ.T7,EQ.P7,EQ.O1,EQ.O2,EQ.P8,EQ.T8,EQ.FC6,EQ.F4,EQ.F8,EQ.AF4,PM.Engagement.IsActive,PM.Engagement.Scaled,PM.Engagement.Raw,PM.Engagement.Min,PM.Engagement.Max,PM.Excitement.IsActive,PM.Excitement.Scaled,PM.Excitement.Raw,PM.Excitement.Min,PM.Excitement.Max,PM.LongTermExcitement,PM.Stress.IsActive,PM.Stress.Scaled,PM.Stress.Raw,PM.Stress.Min,PM.Stress.Max,PM.Relaxation.IsActive,PM.Relaxation.Scaled,PM.Relaxation.Raw,PM.Relaxation.Min,PM.Relaxation.Max,PM.Interest.IsActive,PM.Interest.Scaled,PM.Interest.Raw,PM.Interest.Min,PM.Interest.Max,PM.Focus.IsActive,PM.Focus.Scaled,PM.Focus.Raw,PM.Focus.Min,PM.Focus.Max
1665608803.039285,1665608803.039031,72.000000,0.000000,4311.282227,4313.846191,4305.769043,4306.025879,4281.282227,4282.307617,4292.692383,4315.897461,4301.025879,4285.384766,4467.307617,4390.512695,4399.871582,4441.794922,2413.000000,4.000000,90.000000,,,,0.000000,4.000000,4.000000,4.000000,4.000000,4.000000,4.000000,4.000000,4.000000,4.000000,4.000000,4.000000,4.000000,4.000000,4.000000,100.000000,,,,,,,,,,,,,,,,,,,,,,,,,,,,,,,,,,,,,,,,,,,,,,,
1665608803.047093,1665608803.046740,73.000000,0.000000,4317.051270,4319.743652,4319.487305,4312.179688,4290.128418,4287.948730,4305.769043,4327.948730,4306.922852,4293.846191,4479.102539,4392.563965,4420.897461,4450.897461,2389.000000,4.000000,90.000000,,,,0.000000,4.000000,4.000000,4.000000,4.000000,4.000000,4.000000,4.000000,4.000000,4.000000,4.000000,4.000000,4.000000,4.000000,4.000000,100.000000,,,,,,,,,,,,,,,,,,,,,,,,,,,,,,,,,,,,,,,,,,,,,,,
1665608803.054901,1665608803.054648,74.000000,0.000000,4302.563965,4310.769043,4307.436035,4305.641113,4290.384766,4290.769043,4302.307617,4317.436035,4293.077148,4280.384766,4464.871582,4380.769043,4408.333496,4435.000000,2692.000000,4.000000,90.000000,,,,0.000000,4.000000,4.000000,4.000000,4.000000,4.000000,4.000000,4.000000,4.000000,4.000000,4.000000,4.000000,4.000000,4.000000,4.000000,100.000000,,,,,,,,,,,,,,,,,,,,,,,,,,,,,,,,,,,,,,,,,,,,,,,
1665608803.062710,1665608803.062457,75.000000,0.000000,4291.153809,4294.230957,4287.436035,4295.128418,4280.769043,4290.769043,4295.641113,4307.563965,4288.077148,4268.717773,4454.615234,4371.153809,4390.512695,4421.666504,2748.000000,4.000000,90.000000,,,,0.000000,4.000000,4.000000,4.000000,4.000000,4.000000,4.000000,4.000000,4.000000,4.000000,4.000000,4.000000,4.000000,4.000000,4.000000,100.000000,,,,,,,,,,,,,,,,,,,,,,,,,,,,,,,,,,,,,,,,,,,,,,,
1665608803.070518,1665608803.070365,76.000000,0.000000,4296.922852,4293.589844,4290.256348,4292.436035,4278.205078,4286.153809,4299.615234,4313.205078,4297.948730,4273.461426,4463.974121,4373.717773,4394.102539,4428.205078,2553.000000,4.000000,90.000000,,,,0.000000,4.000000,4.000000,4.000000,4.000000,4.000000,4.000000,4.000000,4.000000,4.000000,4.000000,4.000000,4.000000,4.000000,4.000000,100.000000,,,,,,,,,,,,,,,,,,,,,,,,,,,,,,,,,,,,,,,,,,,,,,,
1665608803.078327,1665608803.078173,77.000000,0.000000,4292.307617,4298.333496,4285.384766,4289.615234,4277.436035,4277.948730,4285.384766,4296.666504,4283.846191,4262.820313,4450.769043,4363.333496,4387.948730,4420.000000,2102.000000,4.000000,90.000000,,,,0.000000,4.000000,4.000000,4.000000,4.000000,4.000000,4.000000,4.000000,4.000000,4.000000,4.000000,4.000000,4.000000,4.000000,4.000000,100.000000,,,,,,,,,,,,,,,,,,,,,,,,,,,,,,,,,,,,,,,,,,,,,,,
1665608803.086135,1665608803.086082,78.000000,0.000000,4278.974121,4301.794922,4269.487305,4288.589844,4273.333496,4276.282227,4266.922852,4275.512695,4259.102539,4246.794922,4429.230957,4348.333496,4366.538574,4401.153809,2692.000000,4.000000,90.000000,,,,0.000000,4.000000,4.000000,4.000000,4.000000,4.000000,4.000000,4.000000,4.000000,4.000000,4.000000,4.000000,4.000000,4.000000,4.000000,100.000000,,,,,,,,,,,,,,,,,,,,,,,,,,,,,,,,,,,,,,,,,,,,,,,
1665608803.093944,1665608803.093890,79.000000,0.000000,4288.846191,4309.743652,4280.897461,4297.179688,4282.179688,4284.871582,4281.794922,4287.820313,4270.769043,4263.077148,4446.282227,4360.769043,4374.102539,4412.692383,2748.000000,4.000000,90.000000,,,,0.000000,4.000000,4.000000,4.000000,4.000000,4.000000,4.000000,4.000000,4.000000,4.000000,4.000000,4.000000,4.000000,4.000000,4.000000,100.000000,,,,,,,,,,,,,,,,,,,,,,,,,,,,,,,,,,,,,,,,,,,,,,,
1665608803.101752,1665608803.101799,80.000000,0.000000,4308.461426,4318.589844,4303.846191,4308.846191,4292.307617,4286.282227,4293.589844,4294.230957,4288.589844,4279.871582,4466.538574,4376.410156,4401.538574,4437.179688,2553.000000,4.000000,90.000000,,,,0.000000,4.000000,4.000000,4.000000,4.000000,4.000000,4.000000,4.000000,4.000000,4.000000,4.000000,4.000000,4.000000,4.000000,4.000000,100.000000,,,,,,,,,,,,,,,,,,,,,,,,,,,,,,,,,,,,,,,,,,,,,,,
1665608803.109561,1665608803.109607,81.000000,0.000000,4304.487305,4322.307617,4304.358887,4311.282227,4282.692383,4278.589844,4278.717773,4285.000000,4279.871582,4267.948730,4457.436035,4373.974121,4395.641113,4437.051270,2102.000000,4.000000,90.000000,,,,0.000000,4.000000,4.000000,4.000000,4.000000,4.000000,4.000000,4.000000,4.000000,4.000000,4.000000,4.000000,4.000000,4.000000,4.000000,100.000000,,,,,,,,,,,,,,,,,,,,,,,,,,,,,,,,,,,,,,,,,,,,,,,
1665608803.117369,1665608803.117515,82.000000,0.000000,4294.230957,4317.179688,4297.563965,4305.641113,4275.512695,4272.563965,4266.922852,4289.102539,4271.282227,4256.410156,4450.256348,4370.769043,4373.205078,4426.666504,2692.000000,4.000000,90.000000,,,,0.000000,4.000000,4.000000,4.000000,4.000000,4.000000,4.000000,4.000000,4.000000,4.000000,4.000000,4.000000,4.000000,4.000000,4.000000,100.000000,,,,,,,,,,,,,,,,,,,,,,,,,,,,,,,,,,,,,,,,,,,,,,,
1665608803.125178,1665608803.125324,83.000000,0.000000,4301.153809,4315.769043,4304.102539,4305.256348,4287.820313,4271.666504,4273.333496,4297.179688,4280.897461,4265.641113,4457.692383,4376.025879,4373.846191,4435.512695,2748.000000,4.000000,90.000000,,,,0.000000,4.000000,4.000000,4.000000,4.000000,4.000000,4.000000,4.000000,4.000000,4.000000,4.000000,4.000000,4.000000,4.000000,4.000000,100.000000,,,,,,,,,,,,,,,,,,,,,,,,,,,,,,,,,,,,,,,,,,,,,,,
1665608803.132986,1665608803.133032,84.000000,0.000000,4307.820313,4320.769043,4308.205078,4310.128418,4296.025879,4277.051270,4285.641113,4305.512695,4291.410156,4276.538574,4459.615234,4380.769043,4377.948730,4445.897461,2553.000000,4.000000,90.000000,,,,0.000000,4.000000,4.000000,4.000000,4.000000,4.000000,4.000000,4.000000,4.000000,4.000000,4.000000,4.000000,4.000000,4.000000,4.000000,100.000000,,,,,,,,,,,,,,,,,,,,,,,,,,,,,,,,,,,,,,,,,,,,,,,
1665608803.140794,1665608803.140841,85.000000,0.000000,4309.358887,4325.128418,4312.179688,4316.282227,4295.384766,4289.358887,4299.487305,4321.538574,4298.205078,4282.051270,4462.179688,4389.615234,4378.077148,4445.384766,2102.000000,4.000000,90.000000,,,,0.000000,4.000000,4.000000,4.000000,4.000000,4.000000,4.000000,4.000000,4.000000,4.000000,4.000000,4.000000,4.000000,4.000000,4.000000,100.000000,,,,,,,,,,,,,,,,,,,,,,,,,,,,,,,,,,,,,,,,,,,,,,,
1665608803.148603,1665608803.148549,86.000000,0.000000,4315.769043,4324.102539,4318.589844,4319.743652,4301.666504,4293.846191,4307.307617,4324.358887,4301.282227,4284.743652,4473.333496,4395.641113,4391.538574,4450.897461,2692.000000,4.000000,90.000000,,,,0.000000,4.000000,4.000000,4.000000,4.000000,4.000000,4.000000,4.000000,4.000000,4.000000,4.000000,4.000000,4.000000,4.000000,4.000000,100.000000,,,,,,,,,,,,,,,,,,,,,,,,,,,,,,,,,,,,,,,,,,,,,,,
1665608803.156411,1665608803.156358,87.000000,0.000000,4317.179688,4319.615234,4315.641113,4318.077148,4304.102539,4288.846191,4307.563965,4316.666504,4298.333496,4283.205078,4477.436035,4396.025879,4399.487305,4459.230957,2748.000000,4.000000,90.000000,,,,0.000000,4.000000,4.000000,4.000000,4.000000,4.000000,4.000000,4.000000,4.000000,4.000000,4.000000,4.000000,4.000000,4.000000,4.000000,100.000000,,,,,,,,,,,,,,,,,,,,,,,,,,,,,,,,,,,,,,,,,,,,,,,
1665608803.164220,1665608803.164066,88.000000,0.000000,4308.205078,4314.230957,4308.461426,4315.512695,4300.000000,4294.743652,4310.769043,4324.102539,4299.358887,4280.384766,4468.974121,4394.230957,4384.230957,4452.692383,2553.000000,4.000000,90.000000,,,,0.000000,4.000000,4.000000,4.000000,4.000000,4.000000,4.000000,4.000000,4.000000,4.000000,4.000000,4.000000,4.000000,4.000000,4.000000,100.000000,,,,,,,,,,,,,,,,,,,,,,,,,,,,,,,,,,,,,,,,,,,,,,,
1665608803.172028,1665608803.171875,89.000000,0.000000,4293.974121,4302.436035,4298.846191,4310.128418,4297.051270,4301.025879,4307.820313,4322.179688,4297.563965,4276.922852,4459.615234,4384.487305,4369.615234,4434.615234,2102.000000,4.000000,90.000000,,,,0.000000,4.000000,4.000000,4.000000,4.000000,4.000000,4.000000,4.000000,4.000000,4.000000,4.000000,4.000000,4.000000,4.000000,4.000000,100.000000,,,,,,,,,,,,,,,,,,,,,,,,,,,,,,,,,,,,,,,,,,,,,,,
1665608803.179836,1665608803.179583,90.000000,0.000000,4282.307617,4288.717773,4286.538574,4298.205078,4287.179688,4289.615234,4289.230957,4301.025879,4285.128418,4272.051270,4454.358887,4370.000000,4366.666504,4422.051270,2692.000000,4.000000,90.000000,,,,0.000000,4.000000,4.000000,4.000000,4.000000,4.000000,4.000000,4.000000,4.000000,4.000000,4.000000,4.000000,4.000000,4.000000,4.000000,100.000000,,,,,,,,,,,,,,,,,,,,,,,,,,,,,,,,,,,,,,,,,,,,,,,
1665608803.187645,1665608803.187392,91.000000,0.000000,4277.436035,4279.230957,4281.666504,4288.205078,4273.589844,4278.205078,4275.000000,4290.256348,4275.641113,4262.948730,4446.282227,4364.358887,4355.256348,4416.538574,2748.000000,4.000000,90.000000,,,,0.000000,4.000000,4.000000,4.000000,4.000000,4.000000,4.000000,4.000000,4.000000,4.000000,4.000000,4.000000,4.000000,4.000000,4.000000,100.000000,,,,,,,,,,,,,,,,,,,,,,,,,,,,,,,,,,,,,,,,,,,,,,,
1665608803.195453,1665608803.195100,92.000000,0.000000,4278.717773,4276.025879,4285.512695,4288.205078,4274.487305,4279.743652,4279.743652,4295.128418,4277.436035,4258.333496,4442.820313,4367.820313,4347.563965,4415.000000,2553.000000,4.000000,90.000000,,,,0.000000,4.000000,4.000000,4.000000,4.000000,4.000000,4.000000,4.000000,4.000000,4.000000,4.000000,4.000000,4.000000,4.000000,4.000000,100.000000,,,,,,,,,,,,,,,,,,,,,,,,,,,,,,,,,,,,,,,,,,,,,,,
1665608803.203262,1665608803.202909,93.000000,0.000000,4280.512695,4275.256348,4288.077148,4291.153809,4279.102539,4282.179688,4283.205078,4297.179688,4279.871582,4261.538574,4446.794922,4370.512695,4354.487305,4415.512695,2102.000000,4.000000,90.000000,,,,0.000000,4.000000,4.000000,4.000000,4.000000,4.000000,4.000000,4.000000,4.000000,4.000000,4.000000,4.000000,4.000000,4.000000,4.000000,100.000000,,,,,,,,,,,,,,,,,,,,,,,,,,,,,,,,,,,,,,,,,,,,,,,
1665608803.211070,1665608803.210617,94.000000,0.000000,4291.666504,4283.077148,4297.563965,4301.282227,4286.025879,4288.333496,4287.948730,4304.615234,4287.179688,4272.179688,4454.743652,4381.153809,4364.743652,4423.461426,2692.000000,4.000000,90.000000,,,,0.000000,4.000000,4.000000,4.000000,4.000000,4.000000,4.000000,4.000000,4.000000,4.000000,4.000000,4.000000,4.000000,4.000000,4.000000,100.000000,,,,,,,,,,,,,,,,,,,,,,,,,,,,,,,,,,,,,,,,,,,,,,,
1665608803.218878,1665608803.218426,95.000000,0.000000,4302.307617,4295.641113,4310.000000,4313.846191,4300.769043,4295.128418,4299.743652,4317.563965,4299.230957,4284.743652,4459.743652,4391.794922,4369.615234,4435.641113,2748.000000,4.000000,90.000000,,,,0.000000,4.000000,4.000000,4.000000,4.000000,4.000000,4.000000,4.000000,4.000000,4.000000,4.000000,4.000000,4.000000,4.000000,4.000000,100.000000,,,,,,,,,,,,,,,,,,,,,,,,,,,,,,,,,,,,,,,,,,,,,,,
1665608803.226687,1665608803.226134,96.000000,0.000000,4298.717773,4295.384766,4308.077148,4312.307617,4308.077148,4292.948730,4301.025879,4314.358887,4297.948730,4283.846191,4459.230957,4389.102539,4368.077148,4436.153809,2553.000000,4.000000,90.000000,,,,0.000000,4.000000,4.000000,4.000000,4.000000,4.000000,4.000000,4.000000,4.000000,4.000000,4.000000,4.000000,4.000000,4.000000,4.000000,100.000000,,,,,,,,,,,,,,,,,,,,,,,,,,,,,,,,,,,,,,,,,,,,,,,
1665608803.234495,1665608803.234043,97.000000,0.000000,4296.794922,4292.307617,4304.102539,4309.615234,4307.307617,4294.871582,4299.230957,4307.436035,4292.307617,4278.077148,4460.384766,4386.410156,4370.256348,4432.692383,2102.000000,4.000000,90.000000,,,,0.000000,4.000000,4.000000,4.000000,4.000000,4.000000,4.000000,4.000000,4.000000,4.000000,4.000000,4.000000,4.000000,4.000000,4.000000,100.000000,,,,,,,,,,,,,,,,,,,,,,,,,,,,,,,,,,,,,,,,,,,,,,,
1665608803.242304,1665608803.241851,98.000000,0.000000,4295.128418,4289.102539,4302.563965,4309.102539,4305.897461,4298.205078,4302.179688,4314.230957,4295.897461,4281.153809,4456.282227,4389.743652,4368.846191,4429.615234,2692.000000,4.000000,90.000000,,,,0.000000,4.000000,4.000000,4.000000,4.000000,4.000000,4.000000,4.000000,4.000000,4.000000,4.000000,4.000000,4.000000,4.000000,4.000000,100.000000,,,,,,,,,,,,,,,,,,,,,,,,,,,,,,,,,,,,,,,,,,,,,,,
1665608803.250112,1665608803.249759,99.000000,0.000000,4285.897461,4279.743652,4290.384766,4300.384766,4297.563965,4291.666504,4297.692383,4314.230957,4294.743652,4282.820313,4440.128418,4381.794922,4351.794922,4416.538574,2748.000000,4.000000,90.000000,,,,0.000000,4.000000,4.000000,4.000000,4.000000,4.000000,4.000000,4.000000,4.000000,4.000000,4.000000,4.000000,4.000000,4.000000,4.000000,100.000000,,,,,,,,,,,,,,,,,,,,,,,,,,,,,,,,,,,,,,,,,,,,,,,
1665608803.257921,1665608803.257568,100.000000,0.000000,4272.179688,4265.128418,4275.384766,4284.871582,4283.461426,4285.641113,4287.179688,4299.102539,4283.589844,4269.615234,4428.717773,4368.461426,4334.487305,4401.025879,2553.000000,4.000000,90.000000,,,,0.000000,4.000000,4.000000,4.000000,4.000000,4.000000,4.000000,4.000000,4.000000,4.000000,4.000000,4.000000,4.000000,4.000000,4.000000,100.000000,,,,,,,,,,,,,,,,,,,,,,,,,,,,,,,,,,,,,,,,,,,,,,,
1665608803.265729,1665608803.265476,101.000000,0.000000,4254.615234,4246.538574,4266.282227,4267.820313,4274.743652,4286.153809,4282.820313,4294.615234,4277.051270,4252.179688,4427.307617,4362.563965,4331.025879,4390.641113,2102.000000,4.000000,90.000000,,,,0.000000,4.000000,4.000000,4.000000,4.000000,4.000000,4.000000,4.000000,4.000000,4.000000,4.000000,4.000000,4.000000,4.000000,4.000000,100.000000,,,,,,,,,,,,,,,,,,,,,,,,,,,,,,,,,,,,,,,,,,,,,,,
1665608803.273538,1665608803.273285,102.000000,0.000000,4251.282227,4247.179688,4266.025879,4269.743652,4274.230957,4286.282227,4281.153809,4300.641113,4278.333496,4251.153809,4426.922852,4364.743652,4333.461426,4388.077148,2692.000000,4.000000,90.000000,,,,0.000000,4.000000,4.000000,4.000000,4.000000,4.000000,4.000000,4.000000,4.000000,4.000000,4.000000,4.000000,4.000000,4.000000,4.000000,100.000000,,,,,,,,,,,,,,,,,,,,,,,,,,,,,,,,,,,,,,,,,,,,,,,
1665608803.281346,1665608803.281193,103.000000,0.000000,4270.128418,4277.436035,4278.589844,4292.948730,4279.743652,4285.897461,4280.000000,4295.897461,4278.461426,4263.333496,4428.461426,4370.769043,4336.922852,4397.436035,2748.000000,4.000000,90.000000,,,,0.000000,4.000000,4.000000,4.000000,4.000000,4.000000,4.000000,4.000000,4.000000,4.000000,4.000000,4.000000,4.000000,4.000000,4.000000,100.000000,,,,,,,,,,,,,,,,,,,,,,,,,,,,,,,,,,,,,,,,,,,,,,,
1665608803.289154,1665608803.289002,104.000000,0.000000,4277.307617,4293.846191,4285.000000,4299.487305,4280.000000,4282.948730,4274.102539,4285.897461,4274.102539,4262.563965,4426.666504,4372.948730,4329.871582,4403.077148,2553.000000,4.000000,90.000000,,,,0.000000,4.000000,4.000000,4.000000,4.000000,4.000000,4.000000,4.000000,4.000000,4.000000,4.000000,4.000000,4.000000,4.000000,4.000000,100.000000,,,,,,,,,,,,,,,,,,,,,,,,,,,,,,,,,,,,,,,,,,,,,,,
1665608803.296963,1665608803.296910,105.000000,0.000000,4272.948730,4298.846191,4285.897461,4300.384766,4286.538574,4281.538574,4276.794922,4289.743652,4276.282227,4256.794922,4425.897461,4373.717773,4319.102539,4403.589844,2102.000000,4.000000,90.000000,,,,0.000000,4.000000,4.000000,4.000000,4.000000,4.000000,4.000000,4.000000,4.000000,4.000000,4.000000,4.000000,4.000000,4.000000,4.000000,100.000000,,,,,,,,,,,,,,,,,,,,,,,,,,,,,,,,,,,,,,,,,,,,,,,
1665608803.304771,1665608803.304718,106.000000,0.000000,4284.871582,4322.820313,4297.179688,4323.717773,4306.666504,4290.641113,4294.102539,4299.743652,4285.512695,4265.897461,4433.589844,4380.897461,4322.179688,4413.077148,2692.000000,4.000000,90.000000,,,,0.000000,4.000000,4.000000,4.000000,4.000000,4.000000,4.000000,4.000000,4.000000,4.000000,4.000000,4.000000,4.000000,4.000000,4.000000,100.000000,,,,,,,,,,,,,,,,,,,,,,,,,,,,,,,,,,,,,,,,,,,,,,,
1665608803.312580,1665608803.312627,107.000000,0.000000,4287.436035,4330.384766,4296.025879,4327.179688,4306.025879,4290.384766,4290.897461,4290.512695,4277.436035,4257.563965,4425.384766,4376.410156,4308.974121,4410.256348,2748.000000,4.000000,90.000000,,,,0.000000,4.000000,4.000000,4.000000,4.000000,4.000000,4.000000,4.000000,4.000000,4.000000,4.000000,4.000000,4.000000,4.000000,4.000000,100.000000,,,,,,,,,,,,,,,,,,,,,,,,,,,,,,,,,,,,,,,,,,,,,,,
1665608803.320388,1665608803.320435,108.000000,0.000000,4280.641113,4321.282227,4286.922852,4314.743652,4293.333496,4284.358887,4279.358887,4287.563965,4269.102539,4239.743652,4417.692383,4373.333496,4288.717773,4402.692383,2553.000000,4.000000,90.000000,,,,0.000000,4.000000,4.000000,4.000000,4.000000,4.000000,4.000000,4.000000,4.000000,4.000000,4.000000,4.000000,4.000000,4.000000,4.000000,100.000000,,,,,,,,,,,,,,,,,,,,,,,,,,,,,,,,,,,,,,,,,,,,,,,
1665608803.328196,1665608803.328144,109.000000,0.000000,4291.153809,4332.436035,4298.846191,4327.563965,4301.282227,4291.153809,4291.153809,4309.230957,4287.436035,4256.410156,4436.410156,4388.974121,4305.641113,4417.820313,2102.000000,4.000000,90.000000,,,,0.000000,4.000000,4.000000,4.000000,4.000000,4.000000,4.000000,4.000000,4.000000,4.000000,4.000000,4.000000,4.000000,4.000000,4.000000,100.000000,,,,,,,,,,,,,,,,,,,,,,,,,,,,,,,,,,,,,,,,,,,,,,,
1665608803.336005,1665608803.335952,110.000000,0.000000,4294.487305,4340.769043,4307.307617,4338.461426,4318.589844,4302.307617,4310.769043,4318.846191,4299.102539,4274.871582,4444.102539,4395.641113,4324.358887,4426.410156,2692.000000,4.000000,90.000000,,,,0.000000,4.000000,4.000000,4.000000,4.000000,4.000000,4.000000,4.000000,4.000000,4.000000,4.000000,4.000000,4.000000,4.000000,4.000000,100.000000,,,,,,,,,,,,,,,,,,,,,,,,,,,,,,,,,,,,,,,,,,,,,,,
1665608803.343813,1665608803.343661,111.000000,0.000000,4278.589844,4324.358887,4292.436035,4324.102539,4314.743652,4307.307617,4317.307617,4318.717773,4291.538574,4262.692383,4432.948730,4389.615234,4311.922852,4411.538574,2748.000000,4.000000,90.000000,,,,0.000000,4.000000,4.000000,4.000000,4.000000,4.000000,4.000000,4.000000,4.000000,4.000000,4.000000,4.000000,4.000000,4.000000,4.000000,100.000000,,,,,,,,,,,,,,,,,,,,,,,,,,,,,,,,,,,,,,,,,,,,,,,
1665608803.351622,1665608803.351469,112.000000,0.000000,4278.205078,4322.051270,4289.102539,4317.051270,4300.512695,4303.589844,4310.000000,4331.282227,4297.307617,4259.102539,4437.820313,4390.384766,4313.717773,4409.358887,2553.000000,4.000000,90.000000,,,,0.000000,4.000000,4.000000,4.000000,4.000000,4.000000,4.000000,4.000000,4.000000,4.000000,4.000000,4.000000,4.000000,4.000000,4.000000,100.000000,,,,,,,,,,,,,,,,,,,,,,,,,,,,,,,,,,,,,,,,,,,,,,,
1665608803.359430,1665608803.359178,113.000000,0.000000,4291.025879,4342.692383,4298.589844,4324.615234,4304.487305,4297.307617,4297.563965,4322.179688,4300.384766,4269.358887,4442.179688,4390.769043,4325.641113,4419.358887,2102.000000,4.000000,90.000000,,,,0.000000,4.000000,4.000000,4.000000,4.000000,4.000000,4.000000,4.000000,4.000000,4.000000,4.000000,4.000000,4.000000,4.000000,4.000000,100.000000,,,,,,,,,,,,,,,,,,,,,,,,,,,,,,,,,,,,,,,,,,,,,,,
1665608803.367239,1665608803.367086,114.000000,0.000000,4279.743652,4339.743652,4285.897461,4320.641113,4309.487305,4291.410156,4291.025879,4291.922852,4278.717773,4254.743652,4423.461426,4378.589844,4299.615234,4404.615234,2692.000000,4.000000,90.000000,,,,0.000000,4.000000,4.000000,4.000000,4.000000,4.000000,4.000000,4.000000,4.000000,4.000000,4.000000,4.000000,4.000000,4.000000,4.000000,100.000000,,,,,,,,,,,,,,,,,,,,,,,,,,,,,,,,,,,,,,,,,,,,,,,
1665608803.375047,1665608803.374894,115.000000,0.000000,4261.410156,4315.512695,4267.948730,4307.436035,4296.794922,4286.666504,4287.179688,4286.666504,4265.641113,4238.333496,4414.230957,4369.743652,4279.871582,4384.230957,2748.000000,4.000000,90.000000,,,,0.000000,4.000000,4.000000,4.000000,4.000000,4.000000,4.000000,4.000000,4.000000,4.000000,4.000000,4.000000,4.000000,4.000000,4.000000,100.000000,,,,,,,,,,,,,,,,,,,,,,,,,,,,,,,,,,,,,,,,,,,,,,,
1665608803.382855,1665608803.382803,116.000000,0.000000,4262.051270,4307.436035,4263.205078,4299.871582,4286.666504,4282.436035,4273.589844,4287.692383,4264.615234,4245.000000,4415.897461,4363.974121,4293.589844,4380.512695,2553.000000,4.000000,90.000000,,,,0.000000,4.000000,4.000000,4.000000,4.000000,4.000000,4.000000,4.000000,4.000000,4.000000,4.000000,4.000000,4.000000,4.000000,4.000000,100.000000,,,,,,,,,,,,,,,,,,,,,,,,,,,,,,,,,,,,,,,,,,,,,,,
1665608803.390664,1665608803.390611,117.000000,0.000000,4268.333496,4312.307617,4265.641113,4303.461426,4293.589844,4286.282227,4277.051270,4281.025879,4263.077148,4245.128418,4407.948730,4366.538574,4288.205078,4383.717773,2102.000000,4.000000,90.000000,,,,0.000000,4.000000,4.000000,4.000000,4.000000,4.000000,4.000000,4.000000,4.000000,4.000000,4.000000,4.000000,4.000000,4.000000,4.000000,100.000000,,,,,,,,,,,,,,,,,,,,,,,,,,,,,,,,,,,,,,,,,,,,,,,
1665608803.398472,1665608803.398420,118.000000,0.000000,4272.563965,4314.615234,4277.948730,4313.846191,4298.205078,4293.077148,4299.358887,4298.205078,4277.307617,4243.589844,4414.743652,4381.025879,4275.256348,4394.871582,2692.000000,4.000000,90.000000,,,,0.000000,4.000000,4.000000,4.000000,4.000000,4.000000,4.000000,4.000000,4.000000,4.000000,4.000000,4.000000,4.000000,4.000000,4.000000,100.000000,,,,,,,,,,,,,,,,,,,,,,,,,,,,,,,,,,,,,,,,,,,,,,,
1665608803.406281,1665608803.406128,119.000000,0.000000,4274.871582,4310.897461,4288.333496,4314.358887,4289.743652,4288.461426,4295.641113,4310.512695,4285.000000,4255.256348,4428.077148,4385.641113,4290.897461,4405.641113,2748.000000,4.000000,90.000000,,,,0.000000,4.000000,4.000000,4.000000,4.000000,4.000000,4.000000,4.000000,4.000000,4.000000,4.000000,4.000000,4.000000,4.000000,4.000000,100.000000,,,,,,,,,,,,,,,,,,,,,,,,,,,,,,,,,,,,,,,,,,,,,,,
1665608803.414089,1665608803.413937,120.000000,0.000000,4272.563965,4300.000000,4284.358887,4304.230957,4283.077148,4282.307617,4284.358887,4302.563965,4276.282227,4262.179688,4424.615234,4381.410156,4304.487305,4402.692383,2553.000000,4.000000,90.000000,,,,0.000000,4.000000,4.000000,4.000000,4.000000,4.000000,4.000000,4.000000,4.000000,4.000000,4.000000,4.000000,4.000000,4.000000,4.000000,100.000000,,,,,,,,,,,,,,,,,,,,,,,,,,,,,,,,,,,,,,,,,,,,,,,
1665608803.421898,1665608803.421645,121.000000,0.000000,4278.333496,4298.846191,4287.307617,4308.461426,4291.538574,4286.666504,4301.666504,4318.461426,4293.333496,4263.717773,4433.077148,4394.358887,4310.256348,4407.051270,2102.000000,4.000000,90.000000,,,,0.000000,4.000000,4.000000,4.000000,4.000000,4.000000,4.000000,4.000000,4.000000,4.000000,4.000000,4.000000,4.000000,4.000000,4.000000,100.000000,,,,,,,,,,,,,,,,,,,,,,,,,,,,,,,,,,,,,,,,,,,,,,,
1665608803.429706,1665608803.429554,122.000000,0.000000,4286.794922,4307.307617,4300.641113,4319.230957,4300.897461,4290.897461,4310.769043,4337.948730,4313.717773,4272.436035,4449.358887,4405.128418,4322.436035,4418.205078,2692.000000,4.000000,90.000000,,,,0.000000,4.000000,4.000000,4.000000,4.000000,4.000000,4.000000,4.000000,4.000000,4.000000,4.000000,4.000000,4.000000,4.000000,4.000000,100.000000,,,,,,,,,,,,,,,,,,,,,,,,,,,,,,,,,,,,,,,,,,,,,,,
1665608803.437514,1665608803.437362,123.000000,0.000000,4268.205078,4287.563965,4284.358887,4302.563965,4286.025879,4285.000000,4287.436035,4314.871582,4291.666504,4267.436035,4431.666504,4387.051270,4312.563965,4400.128418,2748.000000,4.000000,90.000000,,,,0.000000,4.000000,4.000000,4.000000,4.000000,4.000000,4.000000,4.000000,4.000000,4.000000,4.000000,4.000000,4.000000,4.000000,4.000000,100.000000,,,,,,,,,,,,,,,,,,,,,,,,,,,,,,,,,,,,,,,,,,,,,,,
1665608803.445323,1665608803.445270,124.000000,0.000000,4248.333496,4257.692383,4258.077148,4281.666504,4271.666504,4282.051270,4275.000000,4293.077148,4271.410156,4251.282227,4409.358887,4370.897461,4290.769043,4375.000000,2553.000000,4.000000,90.000000,,,,0.000000,4.000000,4.000000,4.000000,4.000000,4.000000,4.000000,4.000000,4.000000,4.000000,4.000000,4.000000,4.000000,4.000000,4.000000,100.000000,,,,,,,,,,,,,,,,,,,,,,,,,,,,,,,,,,,,,,,,,,,,,,,
1665608803.453131,1665608803.453079,125.000000,0.000000,4260.128418,4265.897461,4266.410156,4292.307617,4283.589844,4286.922852,4283.974121,4305.128418,4285.000000,4253.461426,4424.487305,4381.153809,4297.179688,4383.589844,2102.000000,4.000000,90.000000,,,,0.000000,4.000000,4.000000,4.000000,4.000000,4.000000,4.000000,4.000000,4.000000,4.000000,4.000000,4.000000,4.000000,4.000000,4.000000,100.000000,,,,,,,,,,,,,,,,,,,,,,,,,,,,,,,,,,,,,,,,,,,,,,,
1665608803.460940,1665608803.460987,126.000000,0.000000,4257.051270,4272.563965,4264.615234,4292.051270,4281.922852,4283.333496,4278.077148,4296.538574,4273.333496,4248.461426,4424.102539,4376.153809,4296.666504,4382.179688,2692.000000,4.000000,90.000000,,,,0.000000,4.000000,4.000000,4.000000,4.000000,4.000000,4.000000,4.000000,4.000000,4.000000,4.000000,4.000000,4.000000,4.000000,4.000000,100.000000,,,,,,,,,,,,,,,,,,,,,,,,,,,,,,,,,,,,,,,,,,,,,,,
1665608803.468748,1665608803.468796,127.000000,0.000000,4231.153809,4248.205078,4237.051270,4265.256348,4264.102539,4280.256348,4271.153809,4271.922852,4243.077148,4222.563965,4396.153809,4354.230957,4272.307617,4355.897461,90.000000,4.000000,90.000000,,,,0.000000,4.000000,4.000000,4.000000,4.000000,4.000000,4.000000,4.000000,4.000000,4.000000,4.000000,4.000000,4.000000,4.000000,4.000000,100.000000,,,,,,,,,,,,,,,,,,,,,,,,,,,,,,,,,,,,,,,,,,,,,,,
1665608803.476556,1665608803.476704,0.000000,0.000000,4240.128418,4245.256348,4242.436035,4266.538574,4270.384766,4285.641113,4279.358887,4282.563965,4254.102539,4227.948730,4402.948730,4364.230957,4285.384766,4361.794922,2359.000000,4.000000,90.000000,,,,0.000000,4.000000,4.000000,4.000000,4.000000,4.000000,4.000000,4.000000,4.000000,4.000000,4.000000,4.000000,4.000000,4.000000,4.000000,100.000000,,,,,,,,,,,,,,,,,,,,,,,,,,,,,,,,,,,,,,,,,,,,,,,
1665608803.484365,1665608803.484512,1.000000,0.000000,4272.307617,4272.692383,4272.307617,4294.871582,4287.692383,4286.538574,4281.538574,4299.358887,4280.384766,4264.487305,4438.974121,4387.563965,4331.666504,4392.179688,2311.000000,4.000000,90.000000,,,,0.000000,4.000000,4.000000,4.000000,4.000000,4.000000,4.000000,4.000000,4.000000,4.000000,4.000000,4.000000,4.000000,4.000000,4.000000,100.000000,,,,,,,,,,,,,,,,,,,,,,,,,,,,,,,,,,,,,,,,,,,,,,,
1665608803.492173,1665608803.492421,2.000000,0.000000,4279.358887,4284.615234,4282.820313,4304.615234,4290.512695,4286.922852,4284.615234,4301.153809,4286.922852,4279.743652,4455.128418,4393.974121,4346.666504,4407.051270,2291.000000,4.000000,90.000000,,,,0.000000,4.000000,4.000000,4.000000,4.000000,4.000000,4.000000,4.000000,4.000000,4.000000,4.000000,4.000000,4.000000,4.000000,4.000000,100.000000,,,,,,,,,,,,,,,,,,,,,,,,,,,,,,,,,,,,,,,,,,,,,,,
1665608803.499982,1665608803.500329,3.000000,0.000000,4271.666504,4272.307617,4283.589844,4296.922852,4286.153809,4290.512695,4298.717773,4314.871582,4294.487305,4276.282227,4451.025879,4397.820313,4334.615234,4411.025879,2421.000000,4.000000,90.000000,,,,0.000000,4.000000,4.000000,4.000000,4.000000,4.000000,4.000000,4.000000,4.000000,4.000000,4.000000,4.000000,4.000000,4.000000,4.000000,100.000000,,,,,,,,,,,,,,,,,,,,,,,,,,,,,,,,,,,,,,,,,,,,,,,
1665608803.507790,1665608803.508138,4.000000,0.000000,4271.794922,4263.589844,4285.641113,4293.974121,4280.641113,4288.589844,4297.179688,4320.256348,4300.256348,4276.794922,4445.512695,4402.692383,4332.820313,4410.512695,2438.000000,4.000000,90.000000,,,,0.000000,4.000000,4.000000,4.000000,4.000000,4.000000,4.000000,4.000000,4.000000,4.000000,4.000000,4.000000,4.000000,4.000000,4.000000,100.000000,,,,,,,,,,,,,,,,,,,,,,,,,,,,,,,,,,,,,,,,,,,,,,,
1665608803.515599,1665608803.515946,5.000000,0.000000,4271.282227,4266.153809,4277.820313,4292.051270,4277.307617,4286.410156,4282.179688,4306.410156,4289.102539,4271.922852,4438.717773,4395.384766,4334.743652,4403.333496,1639.000000,4.000000,90.000000,,,,0.000000,4.000000,4.000000,4.000000,4.000000,4.000000,4.000000,4.000000,4.000000,4.000000,4.000000,4.000000,4.000000,4.000000,4.000000,100.000000,1.000000,75.000000,4.000000,4.000000,3.000000,4.000000,4.000000,4.000000,4.000000,3.000000,4.000000,4.000000,4.000000,4.000000,3.000000,4.000000,1.000000,0.563889,-0.316313,-1.040592,0.333460,1.000000,0.181263,4.611466,2.645665,13.490657,0.128327,1.000000,0.435275,85.146049,-369.052277,644.946289,1.000000,0.193625,0.141196,0.116688,0.317944,1.000000,0.477936,4.422875,-5.989874,16.988722,1.000000,0.379072,0.379072,0.000000,1.000000
1665608803.523407,1665608803.523655,6.000000,0.000000,4267.563965,4269.743652,4270.256348,4287.307617,4280.256348,4290.000000,4281.025879,4307.436035,4282.563965,4263.974121,4435.641113,4391.410156,4325.897461,4397.051270,2286.000000,4.000000,90.000000,,,,0.000000,4.000000,4.000000,4.000000,4.000000,4.000000,4.000000,4.000000,4.000000,4.000000,4.000000,4.000000,4.000000,4.000000,4.000000,100.000000,,,,,,,,,,,,,,,,,,,,,,,,,,,,,,,,,,,,,,,,,,,,,,,
1665608803.531215,1665608803.531463,7.000000,0.000000,4263.077148,4259.487305,4266.025879,4280.000000,4274.743652,4287.948730,4277.692383,4302.692383,4280.000000,4262.563965,4433.077148,4389.871582,4318.333496,4391.025879,2336.000000,4.000000,90.000000,,,,0.000000,4.000000,4.000000,4.000000,4.000000,4.000000,4.000000,4.000000,4.000000,4.000000,4.000000,4.000000,4.000000,4.000000,4.000000,100.000000,,,,,,,,,,,,,,,,,,,,,,,,,,,,,,,,,,,,,,,,,,,,,,,
1665608803.539024,1665608803.539172,8.000000,0.000000,4266.282227,4250.769043,4267.948730,4278.846191,4268.205078,4288.846191,4275.897461,4293.589844,4279.871582,4266.794922,4436.922852,4391.922852,4332.436035,4395.512695,2413.000000,4.000000,90.000000,,,,0.000000,4.000000,4.000000,4.000000,4.000000,4.000000,4.000000,4.000000,4.000000,4.000000,4.000000,4.000000,4.000000,4.000000,4.000000,100.000000,,,,,,,,,,,,,,,,,,,,,,,,,,,,,,,,,,,,,,,,,,,,,,,
1665608803.546832,1665608803.546980,9.000000,0.000000,4271.025879,4253.461426,4273.974121,4285.769043,4276.794922,4296.025879,4288.717773,4306.153809,4285.128418,4266.538574,4447.307617,4397.179688,4350.641113,4407.436035,2388.000000,4.000000,90.000000,,,,0.000000,4.000000,4.000000,4.000000,4.000000,4.000000,4.000000,4.000000,4.000000,4.000000,4.000000,4.000000,4.000000,4.000000,4.000000,100.000000,,,,,,,,,,,,,,,,,,,,,,,,,,,,,,,,,,,,,,,,,,,,,,,
1665608803.554641,1665608803.554689,10.000000,0.000000,4261.538574,4242.436035,4270.256348,4282.179688,4278.717773,4293.205078,4290.512695,4305.641113,4280.769043,4261.666504,4442.692383,4390.256348,4343.077148,4398.205078,2702.000000,4.000000,90.000000,,,,0.000000,4.000000,4.000000,4.000000,4.000000,4.000000,4.000000,4.000000,4.000000,4.000000,4.000000,4.000000,4.000000,4.000000,4.000000,100.000000,,,,,,,,,,,,,,,,,,,,,,,,,,,,,,,,,,,,,,,,,,,,,,,
1665608803.562449,1665608803.562497,11.000000,0.000000,4258.589844,4236.666504,4270.000000,4277.436035,4275.000000,4290.000000,4286.153809,4296.666504,4284.615234,4269.487305,4437.307617,4387.436035,4345.512695,4394.102539,2757.000000,4.000000,90.000000,,,,0.000000,4.000000,4.000000,4.000000,4.000000,4.000000,4.000000,4.000000,4.000000,4.000000,4.000000,4.000000,4.000000,4.000000,4.000000,100.000000,,,,,,,,,,,,,,,,,,,,,,,,,,,,,,,,,,,,,,,,,,,,,,,
1665608803.570258,1665608803.570205,12.000000,0.000000,4268.846191,4246.922852,4279.358887,4280.256348,4277.563965,4294.102539,4294.615234,4310.256348,4300.769043,4280.256348,4449.487305,4400.128418,4371.410156,4413.205078,2556.000000,4.000000,90.000000,,,,0.000000,4.000000,4.000000,4.000000,4.000000,4.000000,4.000000,4.000000,4.000000,4.000000,4.000000,4.000000,4.000000,4.000000,4.000000,100.000000,,,,,,,,,,,,,,,,,,,,,,,,,,,,,,,,,,,,,,,,,,,,,,,
1665608803.578066,1665608803.578014,13.000000,0.000000,4271.538574,4240.128418,4277.820313,4278.974121,4279.871582,4296.282227,4301.538574,4320.512695,4301.794922,4277.179688,4456.410156,4403.846191,4374.102539,4415.000000,2095.000000,4.000000,90.000000,,,,0.000000,4.000000,4.000000,4.000000,4.000000,4.000000,4.000000,4.000000,4.000000,4.000000,4.000000,4.000000,4.000000,4.000000,4.000000,100.000000,,,,,,,,,,,,,,,,,,,,,,,,,,,,,,,,,,,,,,,,,,,,,,,
1665608803.585874,1665608803.585722,14.000000,0.000000,4264.871582,4226.410156,4266.666504,4277.948730,4278.717773,4293.974121,4293.205078,4308.461426,4289.871582,4274.615234,4448.205078,4394.871582,4363.974121,4399.102539,2702.000000,4.000000,90.000000,,,,0.000000,4.000000,4.000000,4.000000,4.000000,4.000000,4.000000,4.000000,4.000000,4.000000,4.000000,4.000000,4.000000,4.000000,4.000000,100.000000,,,,,,,,,,,,,,,,,,,,,,,,,,,,,,,,,,,,,,,,,,,,,,,
1665608803.593683,1665608803.593531,15.000000,0.000000,4267.307617,4234.615234,4269.102539,4282.563965,4278.717773,4295.000000,4288.974121,4302.692383,4287.692383,4276.410156,4446.153809,4396.410156,4371.282227,4401.666504,2757.000000,4.000000,90.000000,,,,0.000000,4.000000,4.000000,4.000000,4.000000,4.000000,4.000000,4.000000,4.000000,4.000000,4.000000,4.000000,4.000000,4.000000,4.000000,100.000000,,,,,,,,,,,,,,,,,,,,,,,,,,,,,,,,,,,,,,,,,,,,,,,
1665608803.601491,1665608803.601239,16.000000,0.000000,4265.384766,4234.487305,4268.717773,4273.589844,4267.948730,4286.410156,4281.153809,4296.153809,4274.102539,4255.000000,4434.487305,4392.051270,4350.769043,4399.358887,0.000000,4.000000,90.000000,,,,0.000000,4.000000,4.000000,4.000000,4.000000,4.000000,4.000000,4.000000,4.000000,4.000000,4.000000,4.000000,4.000000,4.000000,4.000000,100.000000,,,,,,,,,,,,,,,,,,,,,,,,,,,,,,,,,,,,,,,,,,,,,,,
1665608803.609300,1665608803.609048,17.000000,0.000000,4263.974121,4229.615234,4266.153809,4267.948730,4255.000000,4272.820313,4260.769043,4281.538574,4256.025879,4241.282227,4428.077148,4384.230957,4334.615234,4389.358887,0.000000,4.000000,90.000000,,,,0.000000,4.000000,4.000000,4.000000,4.000000,4.000000,4.000000,4.000000,4.000000,4.000000,4.000000,4.000000,4.000000,4.000000,4.000000,100.000000,,,,,,,,,,,,,,,,,,,,,,,,,,,,,,,,,,,,,,,,,,,,,,,
1665608803.617108,1665608803.616756,18.000000,0.000000,4289.230957,4258.589844,4291.410156,4292.179688,4270.897461,4283.846191,4272.307617,4302.948730,4286.410156,4283.333496,4466.922852,4407.436035,4386.922852,4417.948730,0.000000,4.000000,90.000000,,,,0.000000,4.000000,4.000000,4.000000,4.000000,4.000000,4.000000,4.000000,4.000000,4.000000,4.000000,4.000000,4.000000,4.000000,4.000000,100.000000,,,,,,,,,,,,,,,,,,,,,,,,,,,,,,,,,,,,,,,,,,,,,,,
1665608803.624916,1665608803.624665,19.000000,0.000000,4302.563965,4272.436035,4306.794922,4305.128418,4285.641113,4300.897461,4302.179688,4328.846191,4317.563965,4310.000000,4486.025879,4426.922852,4413.333496,4442.436035,0.000000,4.000000,90.000000,,,,0.000000,4.000000,4.000000,4.000000,4.000000,4.000000,4.000000,4.000000,4.000000,4.000000,4.000000,4.000000,4.000000,4.000000,4.000000,100.000000,,,,,,,,,,,,,,,,,,,,,,,,,,,,,,,,,,,,,,,,,,,,,,,
1665608803.632725,1665608803.632473,20.000000,0.000000,4277.051270,4250.512695,4279.871582,4285.897461,4271.794922,4293.461426,4293.461426,4305.769043,4293.589844,4277.051270,4451.666504,4402.307617,4372.820313,4417.051270,0.000000,4.000000,90.000000,,,,0.000000,4.000000,4.000000,4.000000,4.000000,4.000000,4.000000,4.000000,4.000000,4.000000,4.000000,4.000000,4.000000,4.000000,4.000000,100.000000,,,,,,,,,,,,,,,,,,,,,,,,,,,,,,,,,,,,,,,,,,,,,,,
1665608803.640533,1665608803.640382,21.000000,0.000000,4264.230957,4246.922852,4265.512695,4276.282227,4264.487305,4286.410156,4270.000000,4285.897461,4274.230957,4259.871582,4439.358887,4384.871582,4362.692383,4399.358887,0.000000,4.000000,90.000000,,,,0.000000,4.000000,4.000000,4.000000,4.000000,4.000000,4.000000,4.000000,4.000000,4.000000,4.000000,4.000000,4.000000,4.000000,4.000000,100.000000,,,,,,,,,,,,,,,,,,,,,,,,,,,,,,,,,,,,,,,,,,,,,,,
1665608803.648342,1665608803.648190,22.000000,0.000000,4280.897461,4265.512695,4283.077148,4286.410156,4280.769043,4295.769043,4283.205078,4304.487305,4293.077148,4279.871582,4457.820313,4400.128418,4388.974121,4417.179688,0.000000,4.000000,90.000000,,,,0.000000,4.000000,4.000000,4.000000,4.000000,4.000000,4.000000,4.000000,4.000000,4.000000,4.000000,4.000000,4.000000,4.000000,4.000000,100.000000,,,,,,,,,,,,,,,,,,,,,,,,,,,,,,,,,,,,,,,,,,,,,,,
1665608803.656150,1665608803.656098,23.000000,0.000000,4280.384766,4268.589844,4283.846191,4289.230957,4285.512695,4296.410156,4294.102539,4307.692383,4293.077148,4273.205078,4450.769043,4403.974121,4374.487305,4416.538574,0.000000,4.000000,90.000000,,,,0.000000,4.000000,4.000000,4.000000,4.000000,4.000000,4.000000,4.000000,4.000000,4.000000,4.000000,4.000000,4.000000,4.000000,4.000000,100.000000,,,,,,,,,,,,,,,,,,,,,,,,,,,,,,,,,,,,,,,,,,,,,,,
1665608803.663959,1665608803.663907,24.000000,0.000000,4263.205078,4262.051270,4267.948730,4282.820313,4268.589844,4290.128418,4281.794922,4295.128418,4274.230957,4249.358887,4433.461426,4392.820313,4341.025879,4397.051270,0.000000,4.000000,90.000000,,,,0.000000,4.000000,4.000000,4.000000,4.000000,4.000000,4.000000,4.000000,4.000000,4.000000,4.000000,4.000000,4.000000,4.000000,4.000000,100.000000,,,,,,,,,,,,,,,,,,,,,,,,,,,,,,,,,,,,,,,,,,,,,,,
1665608803.671767,1665608803.671815,25.000000,0.000000,4264.615234,4264.743652,4266.410156,4280.256348,4262.820313,4291.922852,4283.205078,4302.436035,4274.615234,4252.820313,4438.589844,4392.820313,4345.769043,4399.102539,0.000000,4.000000,90.000000,,,,0.000000,4.000000,4.000000,4.000000,4.000000,4.000000,4.000000,4.000000,4.000000,4.000000,4.000000,4.000000,4.000000,4.000000,4.000000,100.000000,,,,,,,,,,,,,,,,,,,,,,,,,,,,,,,,,,,,,,,,,,,,,,,
1665608803.679576,1665608803.679624,26.000000,0.000000,4276.922852,4263.717773,4273.333496,4285.384766,4271.153809,4292.179688,4285.641113,4297.820313,4273.846191,4261.282227,4448.461426,4394.871582,4368.717773,4408.077148,0.000000,4.000000,90.000000,,,,0.000000,4.000000,4.000000,4.000000,4.000000,4.000000,4.000000,4.000000,4.000000,4.000000,4.000000,4.000000,4.000000,4.000000,4.000000,100.000000,,,,,,,,,,,,,,,,,,,,,,,,,,,,,,,,,,,,,,,,,,,,,,,
1665608803.687384,1665608803.687532,27.000000,0.000000,4292.692383,4272.436035,4286.794922,4300.384766,4282.948730,4299.615234,4289.230957,4290.384766,4275.256348,4267.179688,4460.512695,4406.538574,4383.589844,4420.384766,0.000000,4.000000,90.000000,,,,0.000000,4.000000,4.000000,4.000000,4.000000,4.000000,4.000000,4.000000,4.000000,4.000000,4.000000,4.000000,4.000000,4.000000,4.000000,100.000000,,,,,,,,,,,,,,,,,,,,,,,,,,,,,,,,,,,,,,,,,,,,,,,
1665608803.695192,1665608803.695340,28.000000,0.000000,4305.128418,4288.846191,4299.871582,4311.538574,4293.461426,4309.358887,4298.589844,4301.410156,4284.102539,4277.692383,4472.820313,4419.615234,4389.743652,4440.000000,0.000000,4.000000,90.000000,,,,0.000000,4.000000,4.000000,4.000000,4.000000,4.000000,4.000000,4.000000,4.000000,4.000000,4.000000,4.000000,4.000000,4.000000,4.000000,100.000000,,,,,,,,,,,,,,,,,,,,,,,,,,,,,,,,,,,,,,,,,,,,,,,
1665608803.703001,1665608803.703049,29.000000,0.000000,4305.641113,4287.692383,4300.769043,4308.974121,4294.615234,4303.333496,4297.692383,4303.077148,4280.641113,4280.641113,4475.769043,4419.615234,4397.563965,4447.179688,0.000000,4.000000,90.000000,,,,0.000000,4.000000,4.000000,4.000000,4.000000,4.000000,4.000000,4.000000,4.000000,4.000000,4.000000,4.000000,4.000000,4.000000,4.000000,100.000000,,,,,,,,,,,,,,,,,,,,,,,,,,,,,,,,,,,,,,,,,,,,,,,
1665608803.710809,1665608803.710857,30.000000,0.000000,4306.410156,4286.666504,4302.307617,4309.102539,4295.128418,4299.230957,4296.410156,4304.102539,4286.922852,4284.871582,4477.820313,4422.436035,4403.974121,4445.897461,0.000000,4.000000,90.000000,,,,0.000000,4.000000,4.000000,4.000000,4.000000,4.000000,4.000000,4.000000,4.000000,4.000000,4.000000,4.000000,4.000000,4.000000,4.000000,100.000000,,,,,,,,,,,,,,,,,,,,,,,,,,,,,,,,,,,,,,,,,,,,,,,
1665608803.718618,1665608803.718566,31.000000,0.000000,4306.025879,4294.615234,4303.333496,4310.128418,4291.922852,4301.153809,4301.025879,4316.025879,4302.948730,4292.436035,4475.256348,4423.846191,4394.358887,4441.794922,0.000000,4.000000,90.000000,,,,0.000000,4.000000,4.000000,4.000000,4.000000,4.000000,4.000000,4.000000,4.000000,4.000000,4.000000,4.000000,4.000000,4.000000,4.000000,100.000000,,,,,,,,,,,,,,,,,,,,,,,,,,,,,,,,,,,,,,,,,,,,,,,
1665608803.726426,1665608803.726374,32.000000,0.000000,4295.256348,4286.538574,4294.615234,4300.256348,4284.102539,4298.077148,4299.102539,4316.538574,4301.794922,4291.922852,4470.512695,4415.641113,4385.897461,4428.717773,0.000000,4.000000,90.000000,1,1,1,0.000000,4.000000,4.000000,4.000000,4.000000,4.000000,4.000000,4.000000,4.000000,4.000000,4.000000,4.000000,4.000000,4.000000,4.000000,100.000000,,,,,,,,,,,,,,,,,,,,,,,,,,,,,,,,,,,,,,,,,,,,,,,
1665608803.734234,1665608803.734083,33.000000,0.000000,4284.487305,4266.666504,4284.230957,4287.307617,4277.051270,4295.641113,4292.948730,4309.358887,4292.948730,4282.563965,4468.589844,4411.666504,4383.077148,4414.230957,0.000000,4.000000,90.000000,,,,0.000000,4.000000,4.000000,4.000000,4.000000,4.000000,4.000000,4.000000,4.000000,4.000000,4.000000,4.000000,4.000000,4.000000,4.000000,100.000000,,,,,,,,,,,,,,,,,,,,,,,,,,,,,,,,,,,,,,,,,,,,,,,
1665608803.742043,1665608803.741891,34.000000,0.000000,4273.205078,4260.256348,4270.641113,4277.948730,4265.897461,4294.230957,4287.436035,4305.897461,4286.538574,4268.974121,4454.230957,4407.948730,4370.512695,4403.205078,0.000000,4.000000,90.000000,,,,0.000000,4.000000,4.000000,4.000000,4.000000,4.000000,4.000000,4.000000,4.000000,4.000000,4.000000,4.000000,4.000000,4.000000,4.000000,100.000000,,,,,,,,,,,,,,,,,,,,,,,,,,,,,,,,,,,,,,,,,,,,,,,
1665608803.749851,1665608803.749600,35.000000,0.000000,4267.948730,4265.384766,4263.846191,4277.563965,4262.563965,4294.487305,4288.974121,4310.384766,4287.436035,4261.666504,4442.051270,4400.384766,4363.589844,4397.563965,0.000000,4.000000,90.000000,,,,0.000000,4.000000,4.000000,4.000000,4.000000,4.000000,4.000000,4.000000,4.000000,4.000000,4.000000,4.000000,4.000000,4.000000,4.000000,100.000000,,,,,,,,,,,,,,,,,,,,,,,,,,,,,,,,,,,,,,,,,,,,,,,
1665608803.757660,1665608803.757408,36.000000,0.000000,4281.922852,4275.000000,4276.922852,4289.615234,4279.615234,4299.743652,4302.307617,4316.538574,4297.948730,4267.820313,4452.563965,4407.563965,4376.666504,4407.820313,0.000000,4.000000,90.000000,,,,0.000000,4.000000,4.000000,4.000000,4.000000,4.000000,4.000000,4.000000,4.000000,4.000000,4.000000,4.000000,4.000000,4.000000,4.000000,100.000000,,,,,,,,,,,,,,,,,,,,,,,,,,,,,,,,,,,,,,,,,,,,,,,
1665608803.765468,1665608803.765117,37.000000,0.000000,4290.769043,4281.666504,4281.922852,4292.436035,4287.820313,4295.128418,4294.102539,4297.948730,4288.333496,4267.948730,4455.000000,4406.666504,4378.589844,4414.615234,0.000000,4.000000,90.000000,,,,0.000000,4.000000,4.000000,4.000000,4.000000,4.000000,4.000000,4.000000,4.000000,4.000000,4.000000,4.000000,4.000000,4.000000,4.000000,100.000000,,,,,,,,,,,,,,,,,,,,,,,,,,,,,,,,,,,,,,,,,,,,,,,
1665608803.773276,1665608803.773025,38.000000,0.000000,4283.205078,4279.743652,4270.512695,4284.615234,4274.487305,4284.230957,4273.717773,4279.102539,4266.922852,4263.077148,4441.666504,4396.282227,4366.153809,4406.410156,0.000000,4.000000,90.000000,,,,0.000000,4.000000,4.000000,4.000000,4.000000,4.000000,4.000000,4.000000,4.000000,4.000000,4.000000,4.000000,4.000000,4.000000,4.000000,100.000000,,,,,,,,,,,,,,,,,,,,,,,,,,,,,,,,,,,,,,,,,,,,,,,
1665608803.781085,1665608803.780834,39.000000,0.000000,4289.358887,4286.282227,4278.974121,4292.948730,4278.846191,4288.589844,4285.128418,4300.641113,4284.358887,4277.051270,4448.077148,4406.025879,4372.948730,4413.974121,0.000000,4.000000,90.000000,,,,0.000000,4.000000,4.000000,4.000000,4.000000,4.000000,4.000000,4.000000,4.000000,4.000000,4.000000,4.000000,4.000000,4.000000,4.000000,100.000000,,,,,,,,,,,,,,,,,,,,,,,,,,,,,,,,,,,,,,,,,,,,,,,
1665608803.788893,1665608803.788742,40.000000,0.000000,4308.461426,4303.077148,4304.230957,4312.307617,4303.077148,4299.487305,4302.563965,4326.410156,4312.563965,4295.897461,4469.615234,4425.897461,4387.820313,4438.589844,0.000000,4.000000,90.000000,,,,0.000000,4.000000,4.000000,4.000000,4.000000,4.000000,4.000000,4.000000,4.000000,4.000000,4.000000,4.000000,4.000000,4.000000,4.000000,100.000000,,,,,,,,,,,,,,,,,,,,,,,,,,,,,,,,,,,,,,,,,,,,,,,
1665608803.796702,1665608803.796551,41.000000,0.000000,4312.179688,4307.948730,4307.692383,4314.743652,4309.230957,4301.025879,4297.563965,4317.820313,4304.871582,4293.077148,4473.846191,4426.666504,4385.384766,4443.974121,0.000000,4.000000,90.000000,,,,0.000000,4.000000,4.000000,4.000000,4.000000,4.000000,4.000000,4.000000,4.000000,4.000000,4.000000,4.000000,4.000000,4.000000,4.000000,100.000000,,,,,,,,,,,,,,,,,,,,,,,,,,,,,,,,,,,,,,,,,,,,,,,
1665608803.804510,1665608803.804459,42.000000,0.000000,4300.897461,4293.077148,4293.589844,4300.384766,4292.051270,4294.871582,4292.051270,4300.897461,4283.205078,4273.974121,4457.179688,4413.461426,4369.358887,4427.692383,0.000000,4.000000,90.000000,,,,0.000000,4.000000,4.000000,4.000000,4.000000,4.000000,4.000000,4.000000,4.000000,4.000000,4.000000,4.000000,4.000000,4.000000,4.000000,100.000000,,,,,,,,,,,,,,,,,,,,,,,,,,,,,,,,,,,,,,,,,,,,,,,
1665608803.812319,1665608803.812267,43.000000,0.000000,4288.205078,4277.307617,4281.666504,4288.333496,4275.897461,4290.769043,4291.025879,4298.717773,4274.358887,4258.461426,4439.230957,4405.512695,4351.922852,4410.000000,0.000000,4.000000,90.000000,,,,0.000000,4.000000,4.000000,4.000000,4.000000,4.000000,4.000000,4.000000,4.000000,4.000000,4.000000,4.000000,4.000000,4.000000,4.000000,100.000000,,,,,,,,,,,,,,,,,,,,,,,,,,,,,,,,,,,,,,,,,,,,,,,
1665608803.820127,1665608803.820176,44.000000,0.000000,4290.000000,4282.307617,4288.077148,4294.358887,4287.436035,4300.641113,4297.563965,4312.307617,4288.846191,4269.230957,4448.589844,4415.769043,4355.769043,4416.922852,0.000000,4.000000,90.000000,,,,0.000000,4.000000,4.000000,4.000000,4.000000,4.000000,4.000000,4.000000,4.000000,4.000000,4.000000,4.000000,4.000000,4.000000,4.000000,100.000000,,,,,,,,,,,,,,,,,,,,,,,,,,,,,,,,,,,,,,,,,,,,,,,
1665608803.827936,1665608803.827984,45.000000,0.000000,4297.948730,4285.256348,4297.307617,4300.897461,4303.717773,4310.384766,4311.153809,4322.436035,4298.717773,4282.692383,4463.589844,4426.153809,4363.205078,4427.179688,0.000000,4.000000,90.000000,,,,0.000000,4.000000,4.000000,4.000000,4.000000,4.000000,4.000000,4.000000,4.000000,4.000000,4.000000,4.000000,4.000000,4.000000,4.000000,100.000000,,,,,,,,,,,,,,,,,,,,,,,,,,,,,,,,,,,,,,,,,,,,,,,
1665608803.835744,1665608803.835892,46.000000,0.000000,4282.692383,4263.846191,4278.589844,4282.051270,4285.512695,4301.282227,4305.769043,4313.846191,4280.897461,4264.871582,4446.666504,4411.794922,4342.948730,4404.102539,0.000000,4.000000,90.000000,,,,0.000000,4.000000,4.000000,4.000000,4.000000,4.000000,4.000000,4.000000,4.000000,4.000000,4.000000,4.000000,4.000000,4.000000,4.000000,100.000000,,,,,,,,,,,,,,,,,,,,,,,,,,,,,,,,,,,,,,,,,,,,,,,
1665608803.843552,1665608803.843701,47.000000,0.000000,4271.538574,4260.128418,4271.153809,4273.205078,4268.974121,4294.358887,4291.922852,4311.666504,4280.000000,4258.717773,4441.153809,4407.948730,4337.436035,4394.615234,0.000000,4.000000,90.000000,,,,0.000000,4.000000,4.000000,4.000000,4.000000,4.000000,4.000000,4.000000,4.000000,4.000000,4.000000,4.000000,4.000000,4.000000,4.000000,100.000000,,,,,,,,,,,,,,,,,,,,,,,,,,,,,,,,,,,,,,,,,,,,,,,
1665608803.851361,1665608803.851609,48.000000,0.000000,4286.282227,4281.025879,4293.205078,4292.436035,4287.051270,4300.000000,4293.461426,4319.102539,4300.641113,4281.538574,4461.922852,4422.179688,4360.769043,4419.615234,0.000000,4.000000,90.000000,,,,0.000000,4.000000,4.000000,4.000000,4.000000,4.000000,4.000000,4.000000,4.000000,4.000000,4.000000,4.000000,4.000000,4.000000,4.000000,100.000000,,,,,,,,,,,,,,,,,,,,,,,,,,,,,,,,,,,,,,,,,,,,,,,
1665608803.859169,1665608803.859418,49.000000,0.000000,4291.153809,4281.922852,4297.179688,4298.205078,4299.871582,4300.128418,4295.641113,4312.436035,4293.974121,4281.153809,4463.461426,4419.358887,4363.205078,4423.205078,0.000000,4.000000,90.000000,,,,0.000000,4.000000,4.000000,4.000000,4.000000,4.000000,4.000000,4.000000,4.000000,4.000000,4.000000,4.000000,4.000000,4.000000,4.000000,100.000000,,,,,,,,,,,,,,,,,,,,,,,,,,,,,,,,,,,,,,,,,,,,,,,
1665608803.866978,1665608803.867326,50.000000,0.000000,4281.025879,4276.666504,4287.436035,4289.487305,4292.820313,4300.512695,4293.974121,4303.846191,4280.641113,4270.512695,4453.717773,4410.384766,4352.948730,4409.102539,0.000000,4.000000,90.000000,,,,0.000000,4.000000,4.000000,4.000000,4.000000,4.000000,4.000000,4.000000,4.000000,4.000000,4.000000,4.000000,4.000000,4.000000,4.000000,100.000000,,,,,,,,,,,,,,,,,,,,,,,,,,,,,,,,,,,,,,,,,,,,,,,
1665608803.874786,1665608803.875135,51.000000,0.000000,4287.948730,4292.307617,4299.743652,4297.307617,4293.846191,4306.922852,4301.410156,4312.948730,4293.077148,4281.153809,4459.358887,4422.307617,4362.948730,4420.641113,0.000000,4.000000,90.000000,,,,0.000000,4.000000,4.000000,4.000000,4.000000,4.000000,4.000000,4.000000,4.000000,4.000000,4.000000,4.000000,4.000000,4.000000,4.000000,100.000000,,,,,,,,,,,,,,,,,,,,,,,,,,,,,,,,,,,,,,,,,,,,,,,
1665608803.882594,1665608803.882843,52.000000,0.000000,4303.461426,4302.436035,4309.230957,4311.666504,4299.615234,4306.410156,4306.538574,4322.051270,4300.897461,4289.871582,4468.461426,4433.077148,4378.974121,4437.692383,0.000000,4.000000,90.000000,,,,0.000000,4.000000,4.000000,4.000000,4.000000,4.000000,4.000000,4.000000,4.000000,4.000000,4.000000,4.000000,4.000000,4.000000,4.000000,100.000000,,,,,,,,,,,,,,,,,,,,,,,,,,,,,,,,,,,,,,,,,,,,,,,
1665608803.890403,1665608803.890652,53.000000,0.000000,4306.153809,4296.282227,4303.205078,4312.051270,4298.974121,4301.922852,4304.615234,4320.769043,4296.282227,4289.230957,4474.743652,4433.589844,4383.333496,4441.282227,0.000000,4.000000,90.000000,,,,0.000000,4.000000,4.000000,4.000000,4.000000,4.000000,4.000000,4.000000,4.000000,4.000000,4.000000,4.000000,4.000000,4.000000,4.000000,100.000000,,,,,,,,,,,,,,,,,,,,,,,,,,,,,,,,,,,,,,,,,,,,,,,
1665608803.898211,1665608803.898360,54.000000,0.000000,4303.846191,4297.307617,4307.948730,4311.410156,4299.102539,4303.077148,4306.025879,4320.384766,4297.436035,4289.358887,4475.641113,4434.102539,4379.743652,4443.846191,0.000000,4.000000,90.000000,,,,0.000000,4.000000,4.000000,4.000000,4.000000,4.000000,4.000000,4.000000,4.000000,4.000000,4.000000,4.000000,4.000000,4.000000,4.000000,100.000000,,,,,,,,,,,,,,,,,,,,,,,,,,,,,,,,,,,,,,,,,,,,,,,
1665608803.906020,1665608803.906268,55.000000,0.000000,4298.717773,4298.461426,4309.487305,4308.717773,4296.666504,4303.461426,4304.743652,4314.871582,4294.102539,4278.589844,4461.794922,4428.846191,4364.487305,4433.974121,0.000000,4.000000,90.000000,,,,0.000000,4.000000,4.000000,4.000000,4.000000,4.000000,4.000000,4.000000,4.000000,4.000000,4.000000,4.000000,4.000000,4.000000,4.000000,100.000000,,,,,,,,,,,,,,,,,,,,,,,,,,,,,,,,,,,,,,,,,,,,,,,
1665608803.913828,1665608803.914077,56.000000,0.000000,4287.948730,4290.769043,4295.256348,4301.538574,4293.589844,4301.922852,4304.358887,4309.743652,4291.538574,4271.922852,4454.743652,4420.512695,4354.615234,4419.102539,0.000000,4.000000,90.000000,,,,0.000000,4.000000,4.000000,4.000000,4.000000,4.000000,4.000000,4.000000,4.000000,4.000000,4.000000,4.000000,4.000000,4.000000,4.000000,100.000000,,,,,,,,,,,,,,,,,,,,,,,,,,,,,,,,,,,,,,,,,,,,,,,
1665608803.921636,1665608803.921985,57.000000,0.000000,4278.205078,4282.563965,4282.179688,4295.000000,4294.487305,4301.282227,4303.333496,4310.256348,4292.692383,4278.461426,4459.230957,4418.461426,4361.794922,4417.948730,0.000000,4.000000,90.000000,,,,0.000000,4.000000,4.000000,4.000000,4.000000,4.000000,4.000000,4.000000,4.000000,4.000000,4.000000,4.000000,4.000000,4.000000,4.000000,100.000000,,,,,,,,,,,,,,,,,,,,,,,,,,,,,,,,,,,,,,,,,,,,,,,
1665608803.929445,1665608803.929794,58.000000,0.000000,4272.563965,4275.512695,4275.256348,4287.179688,4290.897461,4295.000000,4296.282227,4312.179688,4293.461426,4277.051270,4455.641113,4414.743652,4361.153809,4418.589844,0.000000,4.000000,90.000000,,,,0.000000,4.000000,4.000000,4.000000,4.000000,4.000000,4.000000,4.000000,4.000000,4.000000,4.000000,4.000000,4.000000,4.000000,4.000000,100.000000,,,,,,,,,,,,,,,,,,,,,,,,,,,,,,,,,,,,,,,,,,,,,,,
1665608803.937253,1665608803.937702,59.000000,0.000000,4282.563965,4278.974121,4284.102539,4294.102539,4293.974121,4298.974121,4304.615234,4322.563965,4307.692383,4284.487305,4463.077148,4423.205078,4369.871582,4427.436035,0.000000,4.000000,90.000000,,,,0.000000,4.000000,4.000000,4.000000,4.000000,4.000000,4.000000,4.000000,4.000000,4.000000,4.000000,4.000000,4.000000,4.000000,4.000000,100.000000,,,,,,,,,,,,,,,,,,,,,,,,,,,,,,,,,,,,,,,,,,,,,,,
1665608803.945062,1665608803.945510,60.000000,0.000000,4297.948730,4285.641113,4302.051270,4308.589844,4305.897461,4315.384766,4323.333496,4340.256348,4322.820313,4304.743652,4484.743652,4443.846191,4393.717773,4444.358887,0.000000,4.000000,90.000000,,,,0.000000,4.000000,4.000000,4.000000,4.000000,4.000000,4.000000,4.000000,4.000000,4.000000,4.000000,4.000000,4.000000,4.000000,4.000000,100.000000,,,,,,,,,,,,,,,,,,,,,,,,,,,,,,,,,,,,,,,,,,,,,,,
1665608803.952870,1665608803.953419,61.000000,0.000000,4299.743652,4283.461426,4304.487305,4306.410156,4306.025879,4316.666504,4316.153809,4341.794922,4318.717773,4303.077148,4488.077148,4456.025879,4396.410156,4447.948730,0.000000,4.000000,90.000000,,,,0.000000,4.000000,4.000000,4.000000,4.000000,4.000000,4.000000,4.000000,4.000000,4.000000,4.000000,4.000000,4.000000,4.000000,4.000000,100.000000,,,,,,,,,,,,,,,,,,,,,,,,,,,,,,,,,,,,,,,,,,,,,,,
1665608803.960679,1665608803.961227,62.000000,0.000000,4288.717773,4273.717773,4289.743652,4292.051270,4292.948730,4301.922852,4292.179688,4316.282227,4300.769043,4280.897461,4465.897461,4455.897461,4369.230957,4431.922852,0.000000,4.000000,90.000000,,,,0.000000,4.000000,4.000000,4.000000,4.000000,4.000000,4.000000,4.000000,4.000000,4.000000,4.000000,4.000000,4.000000,4.000000,4.000000,100.000000,,,,,,,,,,,,,,,,,,,,,,,,,,,,,,,,,,,,,,,,,,,,,,,
1665608803.968487,1665608803.969036,63.000000,0.000000,4279.615234,4273.205078,4282.051270,4290.512695,4291.794922,4298.205078,4288.205078,4300.384766,4292.051270,4273.077148,4455.641113,4459.230957,4356.666504,4423.461426,0.000000,4.000000,90.000000,,,,0.000000,4.000000,4.000000,4.000000,4.000000,4.000000,4.000000,4.000000,4.000000,4.000000,4.000000,4.000000,4.000000,4.000000,4.000000,100.000000,,,,,,,,,,,,,,,,,,,,,,,,,,,,,,,,,,,,,,,,,,,,,,,
1665608803.976296,1665608803.976744,64.000000,0.000000,4290.897461,4290.256348,4298.077148,4306.538574,4308.333496,4310.256348,4305.897461,4318.461426,4302.307617,4292.436035,4471.025879,4480.000000,4381.410156,4443.333496,2316.000000,4.000000,90.000000,,,,0.000000,4.000000,4.000000,4.000000,4.000000,4.000000,4.000000,4.000000,4.000000,4.000000,4.000000,4.000000,4.000000,4.000000,4.000000,100.000000,,,,,,,,,,,,,,,,,,,,,,,,,,,,,,,,,,,,,,,,,,,,,,,
1665608803.984104,1665608803.984553,65.000000,0.000000,4304.487305,4292.948730,4310.897461,4313.333496,4313.589844,4315.641113,4321.282227,4333.589844,4313.333496,4306.794922,4484.230957,4500.000000,4399.743652,4459.615234,2276.000000,4.000000,90.000000,,,,0.000000,4.000000,4.000000,4.000000,4.000000,4.000000,4.000000,4.000000,4.000000,4.000000,4.000000,4.000000,4.000000,4.000000,4.000000,100.000000,,,,,,,,,,,,,,,,,,,,,,,,,,,,,,,,,,,,,,,,,,,,,,,
1665608803.991912,1665608803.992261,66.000000,0.000000,4303.333496,4283.077148,4308.205078,4310.000000,4304.871582,4311.794922,4322.436035,4327.051270,4310.769043,4297.563965,4482.179688,4502.948730,4391.282227,4456.025879,2247.000000,4.000000,90.000000,,,,0.000000,4.000000,4.000000,4.000000,4.000000,4.000000,4.000000,4.000000,4.000000,4.000000,4.000000,4.000000,4.000000,4.000000,4.000000,100.000000,,,,,,,,,,,,,,,,,,,,,,,,,,,,,,,,,,,,,,,,,,,,,,,
1665608803.999721,1665608804.000170,67.000000,0.000000,4301.410156,4291.666504,4309.487305,4317.436035,4306.282227,4310.256348,4320.000000,4329.102539,4307.820313,4291.666504,4480.512695,4495.897461,4380.512695,4454.743652,2376.000000,4.000000,90.000000,,,,0.000000,4.000000,4.000000,4.000000,4.000000,4.000000,4.000000,4.000000,4.000000,4.000000,4.000000,4.000000,4.000000,4.000000,4.000000,100.000000,,,,,,,,,,,,,,,,,,,,,,,,,,,,,,,,,,,,,,,,,,,,,,,
1665608804.007529,1665608804.007978,68.000000,0.000000,4300.256348,4305.000000,4311.153809,4324.743652,4313.077148,4313.974121,4319.743652,4341.538574,4312.692383,4299.871582,4481.153809,4489.102539,4379.358887,4455.384766,2391.000000,4.000000,90.000000,,,,0.000000,4.000000,4.000000,4.000000,4.000000,4.000000,4.000000,4.000000,4.000000,4.000000,4.000000,4.000000,4.000000,4.000000,4.000000,100.000000,,,,,,,,,,,,,,,,,,,,,,,,,,,,,,,,,,,,,,,,,,,,,,,
1665608804.015338,1665608804.015886,69.000000,0.000000,4286.922852,4294.102539,4293.974121,4308.589844,4309.230957,4312.820313,4313.846191,4331.922852,4307.563965,4287.563965,4468.333496,4471.538574,4371.666504,4438.974121,1616.000000,4.000000,90.000000,,,,0.000000,4.000000,4.000000,4.000000,4.000000,4.000000,2.000000,4.000000,4.000000,4.000000,4.000000,4.000000,4.000000,4.000000,4.000000,83.333336,1.000000,66.666664,4.000000,4.000000,3.000000,4.000000,4.000000,2.000000,4.000000,3.000000,4.000000,4.000000,4.000000,4.000000,3.000000,3.000000,1.000000,0.558061,-0.379684,-1.040500,0.333382,1.000000,0.158532,4.364941,2.645665,13.490657,0.129463,1.000000,0.435127,85.015991,-368.999603,644.864197,1.000000,0.186226,0.139781,0.116689,0.317918,1.000000,0.468059,4.485734,-5.988929,16.987165,1.000000,0.382710,0.382710,0.000000,1.000000
1665608804.023146,1665608804.023695,70.000000,0.000000,4281.025879,4284.615234,4280.769043,4297.692383,4301.538574,4308.077148,4306.794922,4322.307617,4303.717773,4273.077148,4464.358887,4457.179688,4368.077148,4425.897461,2262.000000,4.000000,90.000000,,,,0.000000,4.000000,4.000000,4.000000,4.000000,4.000000,2.000000,4.000000,4.000000,4.000000,4.000000,4.000000,4.000000,4.000000,4.000000,83.333336,,,,,,,,,,,,,,,,,,,,,,,,,,,,,,,,,,,,,,,,,,,,,,,
1665608804.030954,1665608804.031603,71.000000,0.000000,4287.692383,4293.077148,4285.641113,4308.205078,4296.922852,4305.641113,4305.641113,4333.717773,4311.410156,4286.794922,4471.922852,4457.948730,4376.153809,4432.436035,2316.000000,4.000000,90.000000,,,,0.000000,4.000000,4.000000,4.000000,4.000000,4.000000,2.000000,4.000000,4.000000,4.000000,4.000000,4.000000,4.000000,4.000000,4.000000,83.333336,,,,,,,,,,,,,,,,,,,,,,,,,,,,,,,,,,,,,,,,,,,,,,,
1665608804.038763,1665608804.039412,72.000000,0.000000,4287.948730,4297.307617,4289.358887,4311.153809,4297.179688,4307.563965,4306.794922,4333.077148,4312.436035,4295.769043,4467.179688,4457.179688,4371.538574,4435.769043,2384.000000,4.000000,90.000000,,,,0.000000,4.000000,4.000000,4.000000,4.000000,4.000000,2.000000,4.000000,4.000000,4.000000,4.000000,4.000000,4.000000,4.000000,4.000000,83.333336,,,,,,,,,,,,,,,,,,,,,,,,,,,,,,,,,,,,,,,,,,,,,,,
1665608804.046571,1665608804.047320,73.000000,0.000000,4292.563965,4302.948730,4293.461426,4311.410156,4305.769043,4313.717773,4310.897461,4322.436035,4310.256348,4287.179688,4463.461426,4455.512695,4366.153809,4437.179688,2336.000000,4.000000,90.000000,,,,0.000000,4.000000,4.000000,4.000000,4.000000,4.000000,2.000000,4.000000,4.000000,4.000000,4.000000,4.000000,4.000000,4.000000,4.000000,83.333336,,,,,,,,,,,,,,,,,,,,,,,,,,,,,,,,,,,,,,,,,,,,,,,
1665608804.054380,1665608804.055128,74.000000,0.000000,4311.282227,4315.512695,4307.948730,4325.897461,4312.692383,4323.846191,4329.487305,4335.000000,4321.410156,4293.589844,4481.025879,4466.922852,4379.615234,4450.897461,2653.000000,4.000000,90.000000,,,,0.000000,4.000000,4.000000,4.000000,4.000000,4.000000,2.000000,4.000000,4.000000,4.000000,4.000000,4.000000,4.000000,4.000000,4.000000,83.333336,,,,,,,,,,,,,,,,,,,,,,,,,,,,,,,,,,,,,,,,,,,,,,,
1665608804.062188,1665608804.062837,75.000000,0.000000,4317.563965,4316.538574,4314.615234,4330.256348,4313.077148,4325.897461,4336.538574,4344.230957,4323.846191,4306.410156,4496.153809,4475.256348,4396.153809,4463.205078,2697.000000,4.000000,90.000000,,,,0.000000,4.000000,4.000000,4.000000,4.000000,4.000000,2.000000,4.000000,4.000000,4.000000,4.000000,4.000000,4.000000,4.000000,4.000000,83.333336,,,,,,,,,,,,,,,,,,,,,,,,,,,,,,,,,,,,,,,,,,,,,,,
1665608804.069997,1665608804.070745,76.000000,0.000000,4300.897461,4302.692383,4305.512695,4316.282227,4309.102539,4316.025879,4313.589844,4319.230957,4299.615234,4290.769043,4481.794922,4462.179688,4387.307617,4452.436035,2505.000000,4.000000,90.000000,,,,0.000000,4.000000,4.000000,4.000000,4.000000,4.000000,2.000000,4.000000,4.000000,4.000000,4.000000,4.000000,4.000000,4.000000,4.000000,83.333336,,,,,,,,,,,,,,,,,,,,,,,,,,,,,,,,,,,,,,,,,,,,,,,
1665608804.077805,1665608804.078554,77.000000,0.000000,4290.384766,4299.102539,4301.922852,4313.077148,4307.563965,4314.743652,4308.333496,4309.615234,4290.384766,4278.846191,4469.743652,4452.436035,4370.000000,4436.922852,2049.000000,4.000000,90.000000,,,,0.000000,4.000000,4.000000,4.000000,4.000000,4.000000,2.000000,4.000000,4.000000,4.000000,4.000000,4.000000,4.000000,4.000000,4.000000,83.333336,,,,,,,,,,,,,,,,,,,,,,,,,,,,,,,,,,,,,,,,,,,,,,,
1665608804.085613,1665608804.086362,78.000000,0.000000,4304.358887,4313.974121,4311.410156,4328.077148,4322.179688,4328.589844,4335.512695,4342.692383,4316.794922,4299.487305,4485.512695,4465.384766,4377.436035,4448.205078,2653.000000,4.000000,90.000000,,,,0.000000,4.000000,4.000000,4.000000,4.000000,4.000000,2.000000,4.000000,4.000000,4.000000,4.000000,4.000000,4.000000,4.000000,4.000000,83.333336,,,,,,,,,,,,,,,,,,,,,,,,,,,,,,,,,,,,,,,,,,,,,,,
1665608804.093422,1665608804.094071,79.000000,0.000000,4309.487305,4313.974121,4312.948730,4327.692383,4328.077148,4332.563965,4341.666504,4360.897461,4328.589844,4306.666504,4494.743652,4472.820313,4383.846191,4459.615234,2697.000000,4.000000,90.000000,,,,0.000000,4.000000,4.000000,4.000000,4.000000,4.000000,2.000000,4.000000,4.000000,4.000000,4.000000,4.000000,4.000000,4.000000,4.000000,83.333336,,,,,,,,,,,,,,,,,,,,,,,,,,,,,,,,,,,,,,,,,,,,,,,
1665608804.101230,1665608804.101879,80.000000,0.000000,4288.205078,4292.563965,4297.563965,4304.743652,4302.436035,4316.153809,4315.256348,4340.000000,4306.538574,4279.615234,4472.436035,4453.846191,4362.051270,4442.051270,2505.000000,4.000000,90.000000,,,,0.000000,4.000000,4.000000,4.000000,4.000000,4.000000,2.000000,4.000000,4.000000,4.000000,4.000000,4.000000,4.000000,4.000000,4.000000,83.333336,,,,,,,,,,,,,,,,,,,,,,,,,,,,,,,,,,,,,,,,,,,,,,,
1665608804.109039,1665608804.109588,81.000000,0.000000,4284.358887,4287.692383,4295.000000,4301.794922,4288.205078,4307.820313,4306.025879,4331.794922,4301.410156,4274.743652,4465.384766,4445.000000,4352.051270,4431.922852,2049.000000,4.000000,90.000000,,,,0.000000,4.000000,4.000000,4.000000,4.000000,4.000000,2.000000,4.000000,4.000000,4.000000,4.000000,4.000000,4.000000,4.000000,4.000000,83.333336,,,,,,,,,,,,,,,,,,,,,,,,,,,,,,,,,,,,,,,,,,,,,,,
1665608804.116847,1665608804.117396,82.000000,0.000000,4306.922852,4306.153809,4313.461426,4322.820313,4309.230957,4319.358887,4319.358887,4349.487305,4325.128418,4302.179688,4490.128418,4462.563965,4376.153809,4449.871582,2653.000000,4.000000,90.000000,,,,0.000000,4.000000,4.000000,4.000000,4.000000,4.000000,2.000000,4.000000,4.000000,4.000000,4.000000,4.000000,4.000000,4.000000,4.000000,83.333336,,,,,,,,,,,,,,,,,,,,,,,,,,,,,,,,,,,,,,,,,,,,,,,
1665608804.124656,1665608804.125105,83.000000,0.000000,4313.846191,4315.897461,4321.025879,4330.769043,4323.461426,4329.871582,4329.743652,4355.128418,4334.743652,4306.410156,4497.948730,4473.589844,4390.256348,4463.846191,2697.000000,4.000000,90.000000,,,,0.000000,4.000000,4.000000,4.000000,4.000000,4.000000,2.000000,4.000000,4.000000,4.000000,4.000000,4.000000,4.000000,4.000000,4.000000,83.333336,,,,,,,,,,,,,,,,,,,,,,,,,,,,,,,,,,,,,,,,,,,,,,,
1665608804.132464,1665608804.132913,84.000000,0.000000,4301.153809,4306.794922,4306.410156,4322.820313,4312.436035,4328.205078,4325.769043,4338.974121,4318.974121,4292.563965,4480.769043,4459.743652,4380.128418,4453.589844,2505.000000,4.000000,90.000000,,,,0.000000,4.000000,4.000000,4.000000,4.000000,4.000000,2.000000,4.000000,4.000000,4.000000,4.000000,4.000000,4.000000,4.000000,4.000000,83.333336,,,,,,,,,,,,,,,,,,,,,,,,,,,,,,,,,,,,,,,,,,,,,,,
1665608804.140273,1665608804.140622,85.000000,0.000000,4293.589844,4299.871582,4298.333496,4318.974121,4307.436035,4322.692383,4316.666504,4326.410156,4308.077148,4288.589844,4471.794922,4446.794922,4370.769043,4442.436035,2049.000000,4.000000,90.000000,,,,0.000000,4.000000,4.000000,4.000000,4.000000,4.000000,2.000000,4.000000,4.000000,4.000000,4.000000,4.000000,4.000000,4.000000,4.000000,83.333336,,,,,,,,,,,,,,,,,,,,,,,,,,,,,,,,,,,,,,,,,,,,,,,
1665608804.148081,1665608804.148430,86.000000,0.000000,4289.743652,4301.794922,4299.615234,4314.743652,4310.769043,4321.025879,4313.846191,4324.358887,4309.230957,4286.282227,4475.769043,4445.256348,4368.461426,4443.205078,2653.000000,4.000000,90.000000,,,,0.000000,4.000000,4.000000,4.000000,4.000000,4.000000,2.000000,4.000000,4.000000,4.000000,4.000000,4.000000,4.000000,4.000000,4.000000,83.333336,,,,,,,,,,,,,,,,,,,,,,,,,,,,,,,,,,,,,,,,,,,,,,,
1665608804.155889,1665608804.156139,87.000000,0.000000,4290.256348,4303.589844,4294.358887,4311.410156,4305.641113,4319.358887,4303.846191,4317.179688,4303.077148,4278.333496,4474.615234,4442.179688,4367.563965,4443.589844,2697.000000,4.000000,90.000000,,,,0.000000,4.000000,4.000000,4.000000,4.000000,4.000000,2.000000,4.000000,4.000000,4.000000,4.000000,4.000000,4.000000,4.000000,4.000000,83.333336,,,,,,,,,,,,,,,,,,,,,,,,,,,,,,,,,,,,,,,,,,,,,,,
1665608804.163698,1665608804.163947,88.000000,0.000000,4298.717773,4305.897461,4297.436035,4320.384766,4306.153809,4320.897461,4302.563965,4316.794922,4298.333496,4278.461426,4472.692383,4443.717773,4367.307617,4445.641113,2505.000000,4.000000,90.000000,,,,0.000000,4.000000,4.000000,4.000000,4.000000,4.000000,2.000000,4.000000,4.000000,4.000000,4.000000,4.000000,4.000000,4.000000,4.000000,83.333336,,,,,,,,,,,,,,,,,,,,,,,,,,,,,,,,,,,,,,,,,,,,,,,
1665608804.171506,1665608804.171656,89.000000,0.000000,4306.794922,4308.589844,4314.871582,4328.077148,4313.846191,4324.102539,4320.000000,4331.282227,4305.897461,4289.358887,4483.077148,4458.205078,4370.128418,4457.179688,2049.000000,4.000000,90.000000,,,,0.000000,4.000000,4.000000,4.000000,4.000000,4.000000,2.000000,4.000000,4.000000,4.000000,4.000000,4.000000,4.000000,4.000000,4.000000,83.333336,,,,,,,,,,,,,,,,,,,,,,,,,,,,,,,,,,,,,,,,,,,,,,,
1665608804.179314,1665608804.179564,90.000000,0.000000,4322.692383,4321.538574,4334.743652,4339.743652,4319.743652,4325.256348,4333.077148,4350.000000,4326.666504,4309.487305,4503.846191,4475.384766,4387.692383,4479.230957,2653.000000,4.000000,90.000000,,,,0.000000,4.000000,4.000000,4.000000,4.000000,4.000000,2.000000,4.000000,4.000000,4.000000,4.000000,4.000000,4.000000,4.000000,4.000000,83.333336,,,,,,,,,,,,,,,,,,,,,,,,,,,,,,,,,,,,,,,,,,,,,,,
1665608804.187123,1665608804.187372,91.000000,0.000000,4330.641113,4332.307617,4338.717773,4347.820313,4318.589844,4325.000000,4329.615234,4354.230957,4336.666504,4315.897461,4507.436035,4475.128418,4400.128418,4485.128418,2697.000000,4.000000,90.000000,,,,0.000000,4.000000,4.000000,4.000000,4.000000,4.000000,2.000000,4.000000,4.000000,4.000000,4.000000,4.000000,4.000000,4.000000,4.000000,83.333336,,,,,,,,,,,,,,,,,,,,,,,,,,,,,,,,,,,,,,,,,,,,,,,
1665608804.194931,1665608804.195281,92.000000,0.000000,4306.282227,4313.205078,4316.922852,4327.948730,4306.025879,4321.282227,4320.128418,4336.410156,4313.589844,4289.743652,4479.102539,4455.384766,4371.922852,4457.179688,2505.000000,4.000000,90.000000,,,,0.000000,4.000000,4.000000,4.000000,4.000000,4.000000,2.000000,4.000000,4.000000,4.000000,4.000000,4.000000,4.000000,4.000000,4.000000,83.333336,,,,,,,,,,,,,,,,,,,,,,,,,,,,,,,,,,,,,,,,,,,,,,,
1665608804.202740,1665608804.203089,93.000000,0.000000,4279.358887,4288.461426,4293.205078,4305.384766,4293.717773,4313.461426,4313.846191,4321.538574,4290.897461,4269.358887,4457.692383,4439.487305,4337.179688,4430.384766,2049.000000,4.000000,90.000000,,,,0.000000,4.000000,4.000000,4.000000,4.000000,4.000000,2.000000,4.000000,4.000000,4.000000,4.000000,4.000000,4.000000,4.000000,4.000000,83.333336,,,,,,,,,,,,,,,,,,,,,,,,,,,,,,,,,,,,,,,,,,,,,,,
1665608804.210548,1665608804.210998,94.000000,0.000000,4281.538574,4290.256348,4291.025879,4309.102539,4295.769043,4308.589844,4311.153809,4329.871582,4304.743652,4278.205078,4469.230957,4442.692383,4343.077148,4433.333496,2653.000000,4.000000,90.000000,,,,0.000000,4.000000,4.000000,4.000000,4.000000,4.000000,2.000000,4.000000,4.000000,4.000000,4.000000,4.000000,4.000000,4.000000,4.000000,83.333336,,,,,,,,,,,,,,,,,,,,,,,,,,,,,,,,,,,,,,,,,,,,,,,
1665608804.218357,1665608804.218806,95.000000,0.000000,4284.230957,4288.974121,4289.102539,4307.179688,4296.153809,4308.974121,4309.102539,4334.230957,4314.871582,4282.051270,4472.563965,4442.307617,4351.410156,4434.615234,2697.000000,4.000000,90.000000,,,,0.000000,4.000000,4.000000,4.000000,4.000000,4.000000,2.000000,4.000000,4.000000,4.000000,4.000000,4.000000,4.000000,4.000000,4.000000,83.333336,,,,,,,,,,,,,,,,,,,,,,,,,,,,,,,,,,,,,,,,,,,,,,,
1665608804.226165,1665608804.226714,96.000000,0.000000,4275.000000,4275.641113,4279.615234,4293.461426,4289.102539,4309.230957,4305.128418,4325.641113,4300.000000,4269.743652,4456.282227,4435.641113,4338.974121,4420.512695,2505.000000,4.000000,90.000000,,,,0.000000,4.000000,4.000000,4.000000,4.000000,4.000000,2.000000,4.000000,4.000000,4.000000,4.000000,4.000000,4.000000,4.000000,4.000000,83.333336,,,,,,,,,,,,,,,,,,,,,,,,,,,,,,,,,,,,,,,,,,,,,,,
1665608804.233974,1665608804.234523,97.000000,0.000000,4277.948730,4284.358887,4286.025879,4303.333496,4291.666504,4310.384766,4306.666504,4331.153809,4303.077148,4273.333496,4462.436035,4444.230957,4346.153809,4426.666504,2049.000000,4.000000,90.000000,,,,0.000000,4.000000,4.000000,4.000000,4.000000,4.000000,2.000000,4.000000,4.000000,4.000000,4.000000,4.000000,4.000000,4.000000,4.000000,83.333336,,,,,,,,,,,,,,,,,,,,,,,,,,,,,,,,,,,,,,,,,,,,,,,
1665608804.241782,1665608804.242431,98.000000,0.000000,4290.641113,4300.128418,4301.666504,4320.000000,4300.384766,4316.922852,4313.333496,4332.307617,4314.230957,4290.000000,4483.077148,4455.128418,4367.307617,4442.820313,2653.000000,4.000000,90.000000,,,,0.000000,4.000000,4.000000,4.000000,4.000000,4.000000,2.000000,4.000000,4.000000,4.000000,4.000000,4.000000,4.000000,4.000000,4.000000,83.333336,,,,,,,,,,,,,,,,,,,,,,,,,,,,,,,,,,,,,,,,,,,,,,,
1665608804.249590,1665608804.250240,99.000000,0.000000,4303.333496,4306.153809,4312.051270,4327.051270,4309.102539,4323.077148,4321.666504,4323.077148,4311.794922,4296.794922,4490.128418,4456.666504,4378.333496,4451.538574,2697.000000,4.000000,90.000000,,,,0.000000,4.000000,4.000000,4.000000,4.000000,4.000000,2.000000,4.000000,4.000000,4.000000,4.000000,4.000000,4.000000,4.000000,4.000000,83.333336,,,,,,,,,,,,,,,,,,,,,,,,,,,,,,,,,,,,,,,,,,,,,,,
1665608804.257399,1665608804.257948,100.000000,0.000000,4310.000000,4311.153809,4316.025879,4331.153809,4306.666504,4319.102539,4318.846191,4321.410156,4309.615234,4296.282227,4489.358887,4460.000000,4379.358887,4455.384766,2505.000000,4.000000,90.000000,,,,0.000000,4.000000,4.000000,4.000000,4.000000,4.000000,2.000000,4.000000,4.000000,4.000000,4.000000,4.000000,4.000000,4.000000,4.000000,83.333336,,,,,,,,,,,,,,,,,,,,,,,,,,,,,,,,,,,,,,,,,,,,,,,
1665608804.265207,1665608804.265757,101.000000,0.000000,4309.102539,4313.461426,4314.743652,4328.846191,4296.410156,4311.410156,4310.256348,4328.333496,4313.333496,4295.128418,4488.205078,4462.948730,4376.794922,4455.769043,2049.000000,4.000000,90.000000,,,,0.000000,4.000000,4.000000,4.000000,4.000000,4.000000,2.000000,4.000000,4.000000,4.000000,4.000000,4.000000,4.000000,4.000000,4.000000,83.333336,,,,,,,,,,,,,,,,,,,,,,,,,,,,,,,,,,,,,,,,,,,,,,,
1665608804.273016,1665608804.273465,102.000000,0.000000,4302.820313,4307.179688,4310.000000,4319.615234,4300.384766,4311.538574,4315.000000,4331.794922,4312.307617,4288.974121,4482.051270,4459.871582,4370.000000,4451.794922,2653.000000,4.000000,90.000000,,,,0.000000,4.000000,4.000000,4.000000,4.000000,4.000000,2.000000,4.000000,4.000000,4.000000,4.000000,4.000000,4.000000,4.000000,4.000000,83.333336,,,,,,,,,,,,,,,,,,,,,,,,,,,,,,,,,,,,,,,,,,,,,,,
1665608804.280824,1665608804.281274,103.000000,0.000000,4284.487305,4286.025879,4290.769043,4301.282227,4293.077148,4303.589844,4302.820313,4312.436035,4290.769043,4266.282227,4462.820313,4440.641113,4345.384766,4426.025879,2697.000000,4.000000,90.000000,,,,0.000000,4.000000,4.000000,4.000000,4.000000,4.000000,2.000000,4.000000,4.000000,4.000000,4.000000,4.000000,4.000000,4.000000,4.000000,83.333336,,,,,,,,,,,,,,,,,,,,,,,,,,,,,,,,,,,,,,,,,,,,,,,
1665608804.288633,1665608804.288982,104.000000,0.000000,4280.384766,4279.615234,4282.436035,4298.717773,4276.922852,4297.692383,4283.461426,4298.205078,4276.666504,4256.025879,4458.589844,4433.077148,4332.051270,4412.051270,2505.000000,4.000000,90.000000,,,,0.000000,4.000000,4.000000,4.000000,4.000000,4.000000,2.000000,4.000000,4.000000,4.000000,4.000000,4.000000,4.000000,4.000000,4.000000,83.333336,,,,,,,,,,,,,,,,,,,,,,,,,,,,,,,,,,,,,,,,,,,,,,,
1665608804.296441,1665608804.296791,105.000000,0.000000,4300.897461,4300.512695,4298.077148,4316.922852,4289.358887,4306.922852,4296.410156,4318.974121,4296.282227,4274.615234,4482.179688,4451.666504,4357.436035,4435.256348,2049.000000,4.000000,90.000000,,,,0.000000,4.000000,4.000000,4.000000,4.000000,4.000000,2.000000,4.000000,4.000000,4.000000,4.000000,4.000000,4.000000,4.000000,4.000000,83.333336,,,,,,,,,,,,,,,,,,,,,,,,,,,,,,,,,,,,,,,,,,,,,,,
1665608804.304249,1665608804.304499,106.000000,0.000000,4294.487305,4300.256348,4294.358887,4312.563965,4298.461426,4307.051270,4304.102539,4324.743652,4303.717773,4276.666504,4480.256348,4450.769043,4362.436035,4437.820313,2653.000000,4.000000,90.000000,,,,0.000000,4.000000,4.000000,4.000000,4.000000,4.000000,2.000000,4.000000,4.000000,4.000000,4.000000,4.000000,4.000000,4.000000,4.000000,83.333336,,,,,,,,,,,,,,,,,,,,,,,,,,,,,,,,,,,,,,,,,,,,,,,
1665608804.312058,1665608804.312308,107.000000,0.000000,4263.589844,4275.512695,4270.000000,4290.256348,4281.025879,4297.436035,4289.487305,4302.820313,4285.000000,4259.358887,4453.846191,4426.794922,4330.769043,4408.461426,2697.000000,4.000000,90.000000,,,,0.000000,4.000000,4.000000,4.000000,4.000000,4.000000,2.000000,4.000000,4.000000,4.000000,4.000000,4.000000,4.000000,4.000000,4.000000,83.333336,,,,,,,,,,,,,,,,,,,,,,,,,,,,,,,,,,,,,,,,,,,,,,,
1665608804.319866,1665608804.320016,108.000000,0.000000,4259.743652,4273.589844,4267.820313,4290.384766,4274.487305,4296.410156,4293.333496,4311.538574,4287.948730,4262.051270,4457.051270,4431.153809,4327.948730,4405.769043,2505.000000,4.000000,90.000000,,,,0.000000,4.000000,4.000000,4.000000,4.000000,4.000000,2.000000,4.000000,4.000000,4.000000,4.000000,4.000000,4.000000,4.000000,4.000000,83.333336,,,,,,,,,,,,,,,,,,,,,,,,,,,,,,,,,,,,,,,,,,,,,,,
1665608804.327675,1665608804.327825,109.000000,0.000000,4266.538574,4280.256348,4273.461426,4295.641113,4278.589844,4297.563965,4300.641113,4321.410156,4293.589844,4268.717773,4462.692383,4440.256348,4336.794922,4415.256348,2049.000000,4.000000,90.000000,,,,0.000000,4.000000,4.000000,4.000000,4.000000,4.000000,2.000000,4.000000,4.000000,4.000000,4.000000,4.000000,4.000000,4.000000,4.000000,83.333336,,,,,,,,,,,,,,,,,,,,,,,,,,,,,,,,,,,,,,,,,,,,,,,
1665608804.335483,1665608804.335533,110.000000,0.000000,4262.692383,4275.384766,4265.256348,4289.230957,4276.794922,4293.077148,4288.846191,4296.282227,4275.897461,4256.282227,4445.384766,4424.102539,4323.974121,4406.282227,2653.000000,4.000000,90.000000,,,,0.000000,4.000000,4.000000,4.000000,4.000000,4.000000,2.000000,4.000000,4.000000,4.000000,4.000000,4.000000,4.000000,4.000000,4.000000,83.333336,,,,,,,,,,,,,,,,,,,,,,,,,,,,,,,,,,,,,,,,,,,,,,,
1665608804.343291,1665608804.343442,111.000000,0.000000,4273.717773,4283.461426,4271.282227,4296.282227,4281.282227,4292.436035,4291.538574,4294.102539,4277.563965,4258.589844,4451.794922,4426.922852,4335.512695,4411.794922,2697.000000,4.000000,90.000000,,,,0.000000,4.000000,4.000000,4.000000,4.000000,4.000000,2.000000,4.000000,4.000000,4.000000,4.000000,4.000000,4.000000,4.000000,4.000000,83.333336,,,,,,,,,,,,,,,,,,,,,,,,,,,,,,,,,,,,,,,,,,,,,,,
1665608804.351100,1665608804.351250,112.000000,0.000000,4285.897461,4289.615234,4284.102539,4302.436035,4282.436035,4293.205078,4295.897461,4308.205078,4290.128418,4269.615234,4468.589844,4442.179688,4353.589844,4422.948730,2505.000000,4.000000,90.000000,,,,0.000000,4.000000,4.000000,4.000000,4.000000,4.000000,2.000000,4.000000,4.000000,4.000000,4.000000,4.000000,4.000000,4.000000,4.000000,83.333336,,,,,,,,,,,,,,,,,,,,,,,,,,,,,,,,,,,,,,,,,,,,,,,
1665608804.358908,1665608804.359158,113.000000,0.000000,4279.743652,4278.205078,4279.615234,4294.743652,4275.256348,4288.205078,4279.615234,4295.000000,4277.563965,4256.153809,4455.512695,4436.794922,4339.230957,4418.333496,2049.000000,4.000000,90.000000,,,,0.000000,4.000000,4.000000,4.000000,4.000000,4.000000,2.000000,4.000000,4.000000,4.000000,4.000000,4.000000,4.000000,4.000000,4.000000,83.333336,,,,,,,,,,,,,,,,,,,,,,,,,,,,,,,,,,,,,,,,,,,,,,,
1665608804.366717,1665608804.366967,114.000000,0.000000,4284.615234,4286.666504,4281.538574,4302.692383,4282.179688,4285.384766,4283.333496,4293.717773,4272.692383,4250.128418,4452.948730,4435.641113,4340.641113,4425.000000,2653.000000,4.000000,90.000000,,,,0.000000,4.000000,4.000000,4.000000,4.000000,4.000000,2.000000,4.000000,4.000000,4.000000,4.000000,4.000000,4.000000,4.000000,4.000000,83.333336,,,,,,,,,,,,,,,,,,,,,,,,,,,,,,,,,,,,,,,,,,,,,,,
1665608804.374525,1665608804.374875,115.000000,0.000000,4298.974121,4311.794922,4297.051270,4319.487305,4293.333496,4287.436035,4298.846191,4314.615234,4289.487305,4264.230957,4471.538574,4447.692383,4366.538574,4437.692383,2697.000000,4.000000,90.000000,,,,0.000000,4.000000,4.000000,4.000000,4.000000,4.000000,2.000000,4.000000,4.000000,4.000000,4.000000,4.000000,4.000000,4.000000,4.000000,83.333336,,,,,,,,,,,,,,,,,,,,,,,,,,,,,,,,,,,,,,,,,,,,,,,
1665608804.382334,1665608804.382684,116.000000,0.000000,4289.615234,4304.358887,4291.666504,4309.871582,4289.102539,4290.512695,4289.871582,4308.077148,4288.461426,4268.077148,4467.563965,4440.769043,4361.794922,4427.307617,2505.000000,4.000000,90.000000,,,,0.000000,4.000000,4.000000,4.000000,4.000000,4.000000,2.000000,4.000000,4.000000,4.000000,4.000000,4.000000,4.000000,4.000000,4.000000,83.333336,,,,,,,,,,,,,,,,,,,,,,,,,,,,,,,,,,,,,,,,,,,,,,,
1665608804.390142,1665608804.390592,117.000000,0.000000,4274.871582,4276.922852,4275.128418,4291.282227,4277.307617,4291.410156,4282.692383,4288.589844,4273.077148,4258.974121,4451.410156,4428.974121,4343.589844,4415.000000,2049.000000,4.000000,90.000000,,,,0.000000,4.000000,4.000000,4.000000,4.000000,4.000000,2.000000,4.000000,4.000000,4.000000,4.000000,4.000000,4.000000,4.000000,4.000000,83.333336,,,,,,,,,,,,,,,,,,,,,,,,,,,,,,,,,,,,,,,,,,,,,,,
1665608804.397950,1665608804.398400,118.000000,0.000000,4280.000000,4275.769043,4279.615234,4295.128418,4276.538574,4288.717773,4292.820313,4298.717773,4278.205078,4259.871582,4457.051270,4436.025879,4350.512695,4416.538574,2653.000000,4.000000,90.000000,,,,0.000000,4.000000,4.000000,4.000000,4.000000,4.000000,2.000000,4.000000,4.000000,4.000000,4.000000,4.000000,4.000000,4.000000,4.000000,83.333336,,,,,,,,,,,,,,,,,,,,,,,,,,,,,,,,,,,,,,,,,,,,,,,
1665608804.405759,1665608804.406309,119.000000,0.000000,4283.717773,4283.717773,4288.846191,4301.794922,4282.692383,4290.128418,4298.717773,4316.282227,4293.717773,4269.615234,4470.897461,4444.743652,4361.794922,4418.333496,2697.000000,4.000000,90.000000,,,,0.000000,4.000000,4.000000,4.000000,4.000000,4.000000,2.000000,4.000000,4.000000,4.000000,4.000000,4.000000,4.000000,4.000000,4.000000,83.333336,,,,,,,,,,,,,,,,,,,,,,,,,,,,,,,,,,,,,,,,,,,,,,,
1665608804.413567,1665608804.414117,120.000000,0.000000,4275.897461,4275.897461,4283.589844,4295.256348,4282.820313,4295.769043,4301.794922,4314.871582,4295.000000,4274.743652,4473.461426,4438.461426,4361.794922,4419.871582,2505.000000,4.000000,90.000000,,,,0.000000,4.000000,4.000000,4.000000,4.000000,4.000000,2.000000,4.000000,4.000000,4.000000,4.000000,4.000000,4.000000,4.000000,4.000000,83.333336,,,,,,,,,,,,,,,,,,,,,,,,,,,,,,,,,,,,,,,,,,,,,,,
1665608804.421376,1665608804.422025,121.000000,0.000000,4281.153809,4273.077148,4284.102539,4295.000000,4289.743652,4298.077148,4306.666504,4312.307617,4294.743652,4280.384766,4475.897461,4437.948730,4366.282227,4427.820313,2049.000000,4.000000,90.000000,,,,0.000000,4.000000,4.000000,4.000000,4.000000,4.000000,2.000000,4.000000,4.000000,4.000000,4.000000,4.000000,4.000000,4.000000,4.000000,83.333336,,,,,,,,,,,,,,,,,,,,,,,,,,,,,,,,,,,,,,,,,,,,,,,
1665608804.429184,1665608804.429834,122.000000,0.000000,4292.436035,4279.358887,4290.512695,4301.922852,4295.128418,4294.102539,4297.563965,4313.846191,4298.077148,4283.077148,4478.077148,4444.230957,4372.820313,4430.897461,2653.000000,4.000000,90.000000,,,,0.000000,4.000000,4.000000,4.000000,4.000000,4.000000,2.000000,4.000000,4.000000,4.000000,4.000000,4.000000,4.000000,4.000000,4.000000,83.333336,,,,,,,,,,,,,,,,,,,,,,,,,,,,,,,,,,,,,,,,,,,,,,,
1665608804.436993,1665608804.437642,123.000000,0.000000,4292.948730,4280.256348,4291.794922,4307.436035,4286.025879,4292.179688,4289.615234,4308.461426,4294.102539,4280.512695,4474.102539,4442.948730,4371.922852,4428.846191,2697.000000,4.000000,90.000000,,,,0.000000,4.000000,4.000000,4.000000,4.000000,4.000000,2.000000,4.000000,4.000000,4.000000,4.000000,4.000000,4.000000,4.000000,4.000000,83.333336,,,,,,,,,,,,,,,,,,,,,,,,,,,,,,,,,,,,,,,,,,,,,,,
1665608804.444801,1665608804.445451,124.000000,0.000000,4293.461426,4279.230957,4291.794922,4310.256348,4286.282227,4296.282227,4296.922852,4307.820313,4291.153809,4278.077148,4473.846191,4443.077148,4371.538574,4432.307617,2505.000000,4.000000,90.000000,,,,0.000000,4.000000,4.000000,4.000000,4.000000,4.000000,2.000000,4.000000,4.000000,4.000000,4.000000,4.000000,4.000000,4.000000,4.000000,83.333336,,,,,,,,,,,,,,,,,,,,,,,,,,,,,,,,,,,,,,,,,,,,,,,
1665608804.452609,1665608804.453159,125.000000,0.000000,4294.743652,4273.846191,4286.538574,4300.000000,4296.282227,4296.538574,4297.307617,4312.307617,4294.358887,4279.230957,4473.461426,4443.589844,4368.461426,4426.794922,2049.000000,4.000000,90.000000,,,,0.000000,4.000000,4.000000,4.000000,4.000000,4.000000,2.000000,4.000000,4.000000,4.000000,4.000000,4.000000,4.000000,4.000000,4.000000,83.333336,,,,,,,,,,,,,,,,,,,,,,,,,,,,,,,,,,,,,,,,,,,,,,,
1665608804.460418,1665608804.460968,126.000000,0.000000,4294.871582,4266.025879,4282.179688,4292.051270,4292.179688,4295.000000,4293.589844,4308.077148,4293.333496,4278.205078,4466.410156,4440.512695,4361.282227,4416.666504,2653.000000,4.000000,90.000000,,,,0.000000,4.000000,4.000000,4.000000,4.000000,4.000000,2.000000,4.000000,4.000000,4.000000,4.000000,4.000000,4.000000,4.000000,4.000000,83.333336,,,,,,,,,,,,,,,,,,,,,,,,,,,,,,,,,,,,,,,,,,,,,,,
1665608804.468226,1665608804.468676,127.000000,0.000000,4299.230957,4266.666504,4283.077148,4297.948730,4280.512695,4291.025879,4291.025879,4301.282227,4287.436035,4269.358887,4462.948730,4439.358887,4359.487305,4417.307617,90.000000,4.000000,90.000000,,,,0.000000,4.000000,4.000000,4.000000,4.000000,4.000000,2.000000,4.000000,4.000000,4.000000,4.000000,4.000000,4.000000,4.000000,4.000000,83.333336,,,,,,,,,,,,,,,,,,,,,,,,,,,,,,,,,,,,,,,,,,,,,,,
1665608804.476035,1665608804.476485,0.000000,0.000000,4294.615234,4262.948730,4277.051270,4290.384766,4273.717773,4282.692383,4283.333496,4302.820313,4282.948730,4261.153809,4462.820313,4437.563965,4356.922852,4413.589844,2311.000000,4.000000,90.000000,,,,0.000000,4.000000,4.000000,4.000000,4.000000,4.000000,2.000000,4.000000,4.000000,4.000000,4.000000,4.000000,4.000000,4.000000,4.000000,83.333336,,,,,,,,,,,,,,,,,,,,,,,,,,,,,,,,,,,,,,,,,,,,,,,
1665608804.483843,1665608804.484193,1.000000,0.000000,4288.717773,4260.641113,4275.256348,4280.000000,4272.820313,4282.436035,4288.717773,4312.563965,4289.615234,4270.128418,4467.051270,4439.615234,4359.615234,4415.128418,2262.000000,4.000000,90.000000,,,,0.000000,4.000000,4.000000,4.000000,4.000000,4.000000,2.000000,4.000000,4.000000,4.000000,4.000000,4.000000,4.000000,4.000000,4.000000,83.333336,,,,,,,,,,,,,,,,,,,,,,,,,,,,,,,,,,,,,,,,,,,,,,,
1665608804.491651,1665608804.492102,2.000000,0.000000,4297.692383,4273.974121,4289.102539,4292.820313,4280.128418,4290.256348,4300.256348,4322.051270,4301.922852,4288.461426,4478.717773,4453.461426,4371.922852,4432.692383,2242.000000,4.000000,90.000000,,,,0.000000,4.000000,4.000000,4.000000,4.000000,4.000000,2.000000,4.000000,4.000000,4.000000,4.000000,4.000000,4.000000,4.000000,4.000000,83.333336,,,,,,,,,,,,,,,,,,,,,,,,,,,,,,,,,,,,,,,,,,,,,,,
1665608804.499460,1665608804.499910,3.000000,0.000000,4300.256348,4276.025879,4294.358887,4301.025879,4288.461426,4293.589844,4303.589844,4328.589844,4301.282227,4286.410156,4482.179688,4457.307617,4371.282227,4436.153809,2378.000000,4.000000,90.000000,,,,0.000000,4.000000,4.000000,4.000000,4.000000,4.000000,2.000000,4.000000,4.000000,4.000000,4.000000,4.000000,4.000000,4.000000,4.000000,83.333336,,,,,,,,,,,,,,,,,,,,,,,,,,,,,,,,,,,,,,,,,,,,,,,
1665608804.507268,1665608804.507819,4.000000,0.000000,4285.897461,4263.333496,4283.077148,4289.230957,4287.692383,4288.205078,4303.205078,4324.743652,4295.256348,4272.948730,4471.025879,4447.820313,4352.436035,4418.077148,2386.000000,4.000000,90.000000,,,,0.000000,4.000000,4.000000,4.000000,4.000000,4.000000,2.000000,4.000000,4.000000,4.000000,4.000000,4.000000,4.000000,4.000000,4.000000,83.333336,,,,,,,,,,,,,,,,,,,,,,,,,,,,,,,,,,,,,,,,,,,,,,,
1665608804.515077,1665608804.515627,5.000000,0.000000,4286.666504,4272.692383,4286.538574,4294.358887,4293.846191,4288.589844,4305.641113,4320.897461,4307.179688,4286.794922,4475.000000,4450.128418,4357.051270,4422.436035,1614.000000,4.000000,90.000000,,,,0.000000,4.000000,4.000000,4.000000,4.000000,4.000000,2.000000,4.000000,4.000000,4.000000,4.000000,4.000000,4.000000,4.000000,4.000000,83.333336,1.000000,75.000000,4.000000,4.000000,4.000000,4.000000,4.000000,2.000000,4.000000,4.000000,4.000000,4.000000,4.000000,4.000000,3.000000,4.000000,1.000000,0.556290,-0.302067,-1.040408,0.333303,1.000000,0.153446,4.309786,2.645665,13.490657,0.130495,1.000000,0.434155,84.206093,-368.947235,644.781982,1.000000,0.179758,0.156931,0.116689,0.317891,1.000000,0.467736,4.890545,-5.987988,16.985611,1.000000,0.386052,0.386052,0.000000,1.000000
1665608804.522885,1665608804.523535,6.000000,0.000000,4299.358887,4289.230957,4297.563965,4304.871582,4301.666504,4295.256348,4300.000000,4317.820313,4315.000000,4301.538574,4483.589844,4455.641113,4376.794922,4437.692383,2267.000000,4.000000,90.000000,,,,0.000000,4.000000,4.000000,4.000000,4.000000,4.000000,2.000000,4.000000,4.000000,4.000000,4.000000,4.000000,4.000000,4.000000,4.000000,83.333336,,,,,,,,,,,,,,,,,,,,,,,,,,,,,,,,,,,,,,,,,,,,,,,
1665608804.530694,1665608804.531344,7.000000,0.000000,4288.974121,4278.077148,4283.974121,4288.589844,4290.897461,4288.589844,4283.974121,4297.948730,4295.128418,4280.128418,4463.077148,4439.743652,4363.589844,4422.179688,2314.000000,4.000000,90.000000,,,,0.000000,4.000000,4.000000,4.000000,4.000000,4.000000,2.000000,4.000000,4.000000,4.000000,4.000000,4.000000,4.000000,4.000000,4.000000,83.333336,,,,,,,,,,,,,,,,,,,,,,,,,,,,,,,,,,,,,,,,,,,,,,,
1665608804.538502,1665608804.539152,8.000000,0.000000,4280.256348,4269.230957,4276.666504,4280.384766,4283.205078,4286.025879,4284.102539,4291.538574,4283.205078,4266.794922,4451.538574,4435.000000,4350.000000,4411.794922,2384.000000,4.000000,90.000000,,,,0.000000,4.000000,4.000000,4.000000,4.000000,4.000000,2.000000,4.000000,4.000000,4.000000,4.000000,4.000000,4.000000,4.000000,4.000000,83.333336,,,,,,,,,,,,,,,,,,,,,,,,,,,,,,,,,,,,,,,,,,,,,,,
1665608804.546311,1665608804.546861,9.000000,0.000000,4298.077148,4286.538574,4296.666504,4299.871582,4301.538574,4299.871582,4301.922852,4316.410156,4298.333496,4286.282227,4470.641113,4454.102539,4366.538574,4432.307617,2358.000000,4.000000,90.000000,,,,0.000000,4.000000,4.000000,4.000000,4.000000,4.000000,2.000000,4.000000,4.000000,4.000000,4.000000,4.000000,4.000000,4.000000,4.000000,83.333336,,,,,,,,,,,,,,,,,,,,,,,,,,,,,,,,,,,,,,,,,,,,,,,
1665608804.554119,1665608804.554769,10.000000,0.000000,4303.846191,4289.615234,4298.589844,4303.717773,4306.794922,4302.436035,4309.871582,4323.974121,4298.974121,4286.410156,4468.205078,4456.025879,4366.922852,4435.000000,2656.000000,4.000000,90.000000,,,,0.000000,4.000000,4.000000,4.000000,4.000000,4.000000,2.000000,4.000000,4.000000,4.000000,4.000000,4.000000,4.000000,4.000000,4.000000,83.333336,,,,,,,,,,,,,,,,,,,,,,,,,,,,,,,,,,,,,,,,,,,,,,,
1665608804.561927,1665608804.562578,11.000000,0.000000,4280.000000,4267.820313,4271.410156,4281.025879,4285.641113,4290.897461,4296.538574,4301.025879,4276.666504,4258.974121,4438.846191,4434.487305,4337.051270,4406.666504,2705.000000,4.000000,90.000000,,,,0.000000,4.000000,4.000000,4.000000,4.000000,4.000000,2.000000,4.000000,4.000000,4.000000,4.000000,4.000000,4.000000,4.000000,4.000000,83.333336,,,,,,,,,,,,,,,,,,,,,,,,,,,,,,,,,,,,,,,,,,,,,,,
1665608804.569736,1665608804.570486,12.000000,0.000000,4268.974121,4262.307617,4265.384766,4276.153809,4282.692383,4291.153809,4288.077148,4297.307617,4276.025879,4252.179688,4439.871582,4431.922852,4327.948730,4396.922852,2505.000000,4.000000,90.000000,,,,0.000000,4.000000,4.000000,4.000000,4.000000,4.000000,2.000000,4.000000,4.000000,4.000000,4.000000,4.000000,4.000000,4.000000,4.000000,83.333336,,,,,,,,,,,,,,,,,,,,,,,,,,,,,,,,,,,,,,,,,,,,,,,
1665608804.577544,1665608804.578294,13.000000,0.000000,4291.153809,4282.436035,4288.974121,4295.128418,4299.487305,4299.871582,4301.282227,4321.410156,4303.205078,4273.974121,4472.307617,4455.000000,4358.333496,4425.641113,2060.000000,4.000000,90.000000,,,,0.000000,4.000000,4.000000,4.000000,4.000000,4.000000,2.000000,4.000000,4.000000,4.000000,4.000000,4.000000,4.000000,4.000000,4.000000,83.333336,,,,,,,,,,,,,,,,,,,,,,,,,,,,,,,,,,,,,,,,,,,,,,,
1665608804.585353,1665608804.586203,14.000000,0.000000,4306.538574,4291.666504,4302.051270,4302.436035,4302.179688,4304.230957,4317.563965,4340.384766,4318.077148,4292.179688,4487.948730,4469.102539,4383.077148,4447.179688,2656.000000,4.000000,90.000000,,,,0.000000,4.000000,4.000000,4.000000,4.000000,4.000000,2.000000,4.000000,4.000000,4.000000,4.000000,4.000000,4.000000,4.000000,4.000000,83.333336,,,,,,,,,,,,,,,,,,,,,,,,,,,,,,,,,,,,,,,,,,,,,,,
1665608804.593161,1665608804.594011,15.000000,0.000000,4295.256348,4286.794922,4292.436035,4294.871582,4295.897461,4306.025879,4317.563965,4339.358887,4313.077148,4289.871582,4481.794922,4461.922852,4378.205078,4437.179688,2705.000000,4.000000,90.000000,,,,0.000000,4.000000,4.000000,4.000000,4.000000,4.000000,2.000000,4.000000,4.000000,4.000000,4.000000,4.000000,4.000000,4.000000,4.000000,83.333336,,,,,,,,,,,,,,,,,,,,,,,,,,,,,,,,,,,,,,,,,,,,,,,
1665608804.600969,1665608804.601919,16.000000,0.000000,4285.384766,4287.051270,4282.948730,4293.205078,4292.692383,4303.589844,4301.410156,4322.436035,4306.410156,4279.615234,4474.615234,4449.358887,4369.871582,4425.897461,0.000000,4.000000,90.000000,,,,0.000000,4.000000,4.000000,4.000000,4.000000,4.000000,2.000000,4.000000,4.000000,4.000000,4.000000,4.000000,4.000000,4.000000,4.000000,83.333336,,,,,,,,,,,,,,,,,,,,,,,,,,,,,,,,,,,,,,,,,,,,,,,
1665608804.608778,1665608804.609728,17.000000,0.000000,4292.563965,4287.436035,4290.512695,4298.205078,4296.538574,4302.179688,4298.846191,4312.948730,4302.051270,4279.743652,4473.461426,4448.846191,4370.512695,4429.230957,0.000000,4.000000,90.000000,,,,0.000000,4.000000,4.000000,4.000000,4.000000,4.000000,2.000000,4.000000,4.000000,4.000000,4.000000,4.000000,4.000000,4.000000,4.000000,83.333336,,,,,,,,,,,,,,,,,,,,,,,,,,,,,,,,,,,,,,,,,,,,,,,
1665608804.616586,1665608804.617636,18.000000,0.000000,4283.589844,4283.333496,4285.769043,4291.538574,4298.589844,4300.000000,4294.358887,4297.051270,4283.077148,4270.384766,4460.000000,4439.615234,4353.846191,4417.563965,0.000000,4.000000,90.000000,,,,0.000000,4.000000,4.000000,4.000000,4.000000,4.000000,2.000000,4.000000,4.000000,4.000000,4.000000,4.000000,4.000000,4.000000,4.000000,83.333336,,,,,,,,,,,,,,,,,,,,,,,,,,,,,,,,,,,,,,,,,,,,,,,
1665608804.624395,1665608804.625545,19.000000,0.000000,4259.102539,4275.384766,4258.589844,4275.384766,4284.230957,4286.666504,4263.333496,4260.769043,4250.641113,4239.230957,4433.077148,4415.769043,4328.461426,4390.128418,0.000000,4.000000,90.000000,,,,0.000000,4.000000,4.000000,4.000000,4.000000,4.000000,2.000000,4.000000,4.000000,4.000000,4.000000,4.000000,4.000000,4.000000,4.000000,83.333336,,,,,,,,,,,,,,,,,,,,,,,,,,,,,,,,,,,,,,,,,,,,,,,
1665608804.632203,1665608804.633353,20.000000,0.000000,4266.922852,4278.333496,4264.358887,4279.358887,4279.230957,4285.512695,4261.922852,4261.794922,4253.717773,4243.589844,4441.538574,4422.051270,4347.179688,4399.871582,0.000000,4.000000,90.000000,,,,0.000000,4.000000,4.000000,4.000000,4.000000,4.000000,2.000000,4.000000,4.000000,4.000000,4.000000,4.000000,4.000000,4.000000,4.000000,83.333336,,,,,,,,,,,,,,,,,,,,,,,,,,,,,,,,,,,,,,,,,,,,,,,
1665608804.640011,1665608804.641161,21.000000,0.000000,4297.563965,4299.487305,4303.205078,4305.769043,4298.461426,4302.436035,4300.128418,4313.461426,4299.615234,4291.794922,4486.794922,4461.153809,4393.717773,4440.512695,0.000000,4.000000,90.000000,,,,0.000000,4.000000,4.000000,4.000000,4.000000,4.000000,2.000000,4.000000,4.000000,4.000000,4.000000,4.000000,4.000000,4.000000,4.000000,83.333336,,,,,,,,,,,,,,,,,,,,,,,,,,,,,,,,,,,,,,,,,,,,,,,
1665608804.647820,1665608804.648870,22.000000,0.000000,4307.051270,4315.769043,4314.487305,4319.615234,4311.153809,4305.512695,4312.820313,4336.794922,4322.307617,4310.897461,4501.153809,4474.871582,4410.384766,4455.897461,0.000000,4.000000,90.000000,,,,0.000000,4.000000,4.000000,4.000000,4.000000,4.000000,2.000000,4.000000,4.000000,4.000000,4.000000,4.000000,4.000000,4.000000,4.000000,83.333336,,,,,,,,,,,,,,,,,,,,,,,,,,,,,,,,,,,,,,,,,,,,,,,
1665608804.655628,1665608804.656678,23.000000,0.000000,4299.743652,4315.000000,4300.384766,4312.563965,4311.794922,4297.820313,4299.743652,4316.538574,4301.922852,4288.589844,4477.948730,4461.282227,4389.487305,4443.589844,0.000000,4.000000,90.000000,,,,0.000000,4.000000,4.000000,4.000000,4.000000,4.000000,2.000000,4.000000,4.000000,4.000000,4.000000,4.000000,4.000000,4.000000,4.000000,83.333336,,,,,,,,,,,,,,,,,,,,,,,,,,,,,,,,,,,,,,,,,,,,,,,
1665608804.663437,1665608804.664387,24.000000,0.000000,4295.128418,4307.563965,4291.666504,4305.897461,4307.563965,4298.717773,4300.512695,4312.820313,4291.282227,4276.025879,4470.897461,4453.589844,4365.384766,4433.077148,0.000000,4.000000,90.000000,,,,0.000000,4.000000,4.000000,4.000000,4.000000,4.000000,2.000000,4.000000,4.000000,4.000000,4.000000,4.000000,4.000000,4.000000,4.000000,83.333336,,,,,,,,,,,,,,,,,,,,,,,,,,,,,,,,,,,,,,,,,,,,,,,
1665608804.671245,1665608804.672195,25.000000,0.000000,4288.333496,4299.615234,4288.974121,4303.205078,4300.384766,4304.871582,4312.051270,4330.769043,4304.743652,4278.589844,4479.358887,4455.897461,4360.769043,4432.307617,0.000000,4.000000,90.000000,,,,0.000000,4.000000,4.000000,4.000000,4.000000,4.000000,2.000000,4.000000,4.000000,4.000000,4.000000,4.000000,4.000000,4.000000,4.000000,83.333336,,,,,,,,,,,,,,,,,,,,,,,,,,,,,,,,,,,,,,,,,,,,,,,
1665608804.679054,1665608804.679904,26.000000,0.000000,4282.307617,4291.153809,4288.846191,4294.358887,4297.692383,4305.256348,4313.077148,4327.692383,4303.974121,4274.871582,4476.922852,4455.641113,4365.128418,4430.128418,0.000000,4.000000,90.000000,,,,0.000000,4.000000,4.000000,4.000000,4.000000,4.000000,2.000000,4.000000,4.000000,4.000000,4.000000,4.000000,4.000000,4.000000,4.000000,83.333336,,,,,,,,,,,,,,,,,,,,,,,,,,,,,,,,,,,,,,,,,,,,,,,
1665608804.686862,1665608804.687712,27.000000,0.000000,4287.051270,4294.615234,4290.512695,4294.102539,4299.871582,4297.051270,4299.487305,4308.077148,4291.410156,4270.000000,4471.666504,4453.589844,4370.512695,4430.769043,0.000000,4.000000,90.000000,,,,0.000000,4.000000,4.000000,4.000000,4.000000,4.000000,2.000000,4.000000,4.000000,4.000000,4.000000,4.000000,4.000000,4.000000,4.000000,83.333336,,,,,,,,,,,,,,,,,,,,,,,,,,,,,,,,,,,,,,,,,,,,,,,
1665608804.694671,1665608804.695421,28.000000,0.000000,4297.051270,4309.743652,4298.333496,4309.487305,4303.461426,4294.102539,4294.615234,4310.128418,4292.436035,4271.153809,4471.922852,4458.077148,4373.717773,4437.820313,0.000000,4.000000,90.000000,,,,0.000000,4.000000,4.000000,4.000000,4.000000,4.000000,2.000000,4.000000,4.000000,4.000000,4.000000,4.000000,4.000000,4.000000,4.000000,83.333336,,,,,,,,,,,,,,,,,,,,,,,,,,,,,,,,,,,,,,,,,,,,,,,
1665608804.702479,1665608804.703229,29.000000,0.000000,4293.589844,4313.077148,4300.256348,4310.000000,4303.974121,4297.307617,4297.948730,4310.000000,4292.051270,4268.077148,4467.051270,4457.051270,4366.153809,4434.871582,0.000000,4.000000,90.000000,,,,0.000000,4.000000,4.000000,4.000000,4.000000,4.000000,2.000000,4.000000,4.000000,4.000000,4.000000,4.000000,4.000000,4.000000,4.000000,83.333336,,,,,,,,,,,,,,,,,,,,,,,,,,,,,,,,,,,,,,,,,,,,,,,
1665608804.710287,1665608804.710938,30.000000,0.000000,4276.025879,4298.461426,4281.922852,4293.846191,4294.487305,4291.666504,4282.307617,4281.282227,4274.102539,4259.615234,4452.948730,4440.128418,4353.461426,4415.512695,0.000000,4.000000,90.000000,,,,0.000000,4.000000,4.000000,4.000000,4.000000,4.000000,2.000000,4.000000,4.000000,4.000000,4.000000,4.000000,4.000000,4.000000,4.000000,83.333336,,,,,,,,,,,,,,,,,,,,,,,,,,,,,,,,,,,,,,,,,,,,,,,
1665608804.718096,1665608804.718846,31.000000,0.000000,4282.307617,4298.846191,4278.461426,4301.410156,4293.077148,4282.820313,4275.384766,4280.769043,4276.282227,4269.487305,4457.563965,4440.000000,4367.179688,4418.846191,0.000000,4.000000,90.000000,,,,0.000000,4.000000,4.000000,4.000000,4.000000,4.000000,2.000000,4.000000,4.000000,4.000000,4.000000,4.000000,4.000000,4.000000,4.000000,83.333336,,,,,,,,,,,,,,,,,,,,,,,,,,,,,,,,,,,,,,,,,,,,,,,
1665608804.725904,1665608804.726655,32.000000,0.000000,4311.025879,4322.307617,4305.897461,4326.794922,4309.358887,4288.461426,4302.051270,4321.153809,4307.563965,4292.307617,4486.922852,4467.563965,4399.102539,4452.820313,0.000000,4.000000,90.000000,,,,0.000000,4.000000,4.000000,4.000000,4.000000,4.000000,2.000000,4.000000,4.000000,4.000000,4.000000,4.000000,4.000000,4.000000,4.000000,83.333336,,,,,,,,,,,,,,,,,,,,,,,,,,,,,,,,,,,,,,,,,,,,,,,
1665608804.733713,1665608804.734563,33.000000,0.000000,4313.974121,4325.128418,4312.051270,4326.538574,4313.846191,4297.307617,4315.641113,4333.077148,4317.307617,4291.410156,4492.179688,4475.256348,4400.512695,4459.102539,0.000000,4.000000,90.000000,,,,0.000000,4.000000,4.000000,4.000000,4.000000,4.000000,2.000000,4.000000,4.000000,4.000000,4.000000,4.000000,4.000000,4.000000,4.000000,83.333336,,,,,,,,,,,,,,,,,,,,,,,,,,,,,,,,,,,,,,,,,,,,,,,
1665608804.741521,1665608804.742372,34.000000,0.000000,4303.205078,4312.307617,4299.358887,4320.641113,4309.230957,4302.948730,4313.205078,4325.512695,4308.205078,4282.563965,4477.948730,4467.563965,4384.102539,4443.205078,0.000000,4.000000,90.000000,,,,0.000000,4.000000,4.000000,4.000000,4.000000,4.000000,2.000000,4.000000,4.000000,4.000000,4.000000,4.000000,4.000000,4.000000,4.000000,83.333336,,,,,,,,,,,,,,,,,,,,,,,,,,,,,,,,,,,,,,,,,,,,,,,
1665608804.749329,1665608804.750280,35.000000,0.000000,4301.922852,4310.256348,4301.666504,4325.512695,4313.077148,4308.461426,4323.974121,4331.922852,4306.922852,4282.179688,4473.589844,4467.436035,4376.153809,4439.743652,0.000000,4.000000,90.000000,,,,0.000000,4.000000,4.000000,4.000000,4.000000,4.000000,2.000000,4.000000,4.000000,4.000000,4.000000,4.000000,4.000000,4.000000,4.000000,83.333336,,,,,,,,,,,,,,,,,,,,,,,,,,,,,,,,,,,,,,,,,,,,,,,
1665608804.757138,1665608804.758088,36.000000,0.000000,4286.025879,4296.410156,4289.358887,4307.948730,4303.974121,4305.384766,4313.589844,4318.461426,4292.948730,4264.230957,4460.128418,4453.974121,4359.358887,4424.743652,0.000000,4.000000,90.000000,,,,0.000000,4.000000,4.000000,4.000000,4.000000,4.000000,2.000000,4.000000,4.000000,4.000000,4.000000,4.000000,4.000000,4.000000,4.000000,83.333336,,,,,,,,,,,,,,,,,,,,,,,,,,,,,,,,,,,,,,,,,,,,,,,
1665608804.764946,1665608804.765997,37.000000,0.000000,4258.589844,4272.307617,4258.589844,4279.615234,4280.384766,4293.974121,4281.922852,4290.512695,4268.717773,4242.051270,4438.077148,4430.641113,4338.205078,4396.153809,0.000000,4.000000,90.000000,,,,0.000000,4.000000,4.000000,4.000000,4.000000,4.000000,2.000000,4.000000,4.000000,4.000000,4.000000,4.000000,4.000000,4.000000,4.000000,83.333336,,,,,,,,,,,,,,,,,,,,,,,,,,,,,,,,,,,,,,,,,,,,,,,
1665608804.772755,1665608804.773805,38.000000,0.000000,4256.410156,4269.615234,4255.128418,4277.179688,4274.615234,4291.025879,4280.128418,4286.410156,4262.820313,4240.384766,4437.820313,4430.256348,4335.384766,4390.641113,0.000000,4.000000,90.000000,,,,0.000000,4.000000,4.000000,4.000000,4.000000,4.000000,2.000000,4.000000,4.000000,4.000000,4.000000,4.000000,4.000000,4.000000,4.000000,83.333336,,,,,,,,,,,,,,,,,,,,,,,,,,,,,,,,,,,,,,,,,,,,,,,
1665608804.780563,1665608804.781714,39.000000,0.000000,4278.461426,4286.282227,4278.461426,4294.871582,4288.461426,4297.436035,4302.820313,4304.102539,4282.948730,4252.436035,4454.358887,4447.179688,4350.897461,4408.846191,0.000000,4.000000,90.000000,,,,0.000000,4.000000,4.000000,4.000000,4.000000,4.000000,2.000000,4.000000,4.000000,4.000000,4.000000,4.000000,4.000000,4.000000,4.000000,83.333336,,,,,,,,,,,,,,,,,,,,,,,,,,,,,,,,,,,,,,,,,,,,,,,
1665608804.788372,1665608804.789522,40.000000,0.000000,4300.000000,4305.512695,4300.512695,4311.153809,4296.153809,4298.717773,4307.692383,4322.307617,4305.000000,4275.769043,4470.897461,4462.692383,4374.487305,4431.538574,0.000000,4.000000,90.000000,,,,0.000000,4.000000,4.000000,4.000000,4.000000,4.000000,2.000000,4.000000,4.000000,4.000000,4.000000,4.000000,4.000000,4.000000,4.000000,83.333336,,,,,,,,,,,,,,,,,,,,,,,,,,,,,,,,,,,,,,,,,,,,,,,
1665608804.796180,1665608804.797430,41.000000,0.000000,4303.974121,4311.282227,4304.487305,4316.794922,4298.589844,4291.282227,4299.615234,4322.948730,4306.025879,4289.487305,4479.230957,4466.922852,4387.563965,4439.871582,0.000000,4.000000,90.000000,,,,0.000000,4.000000,4.000000,4.000000,4.000000,4.000000,2.000000,4.000000,4.000000,4.000000,4.000000,4.000000,4.000000,4.000000,4.000000,83.333336,,,,,,,,,,,,,,,,,,,,,,,,,,,,,,,,,,,,,,,,,,,,,,,
1665608804.803988,1665608804.805239,42.000000,0.000000,4295.128418,4300.769043,4296.922852,4313.205078,4296.666504,4285.256348,4294.871582,4305.769043,4292.436035,4273.717773,4473.077148,4459.358887,4376.666504,4429.102539,0.000000,4.000000,90.000000,,,,0.000000,4.000000,4.000000,4.000000,4.000000,4.000000,2.000000,4.000000,4.000000,4.000000,4.000000,4.000000,4.000000,4.000000,4.000000,83.333336,,,,,,,,,,,,,,,,,,,,,,,,,,,,,,,,,,,,,,,,,,,,,,,
1665608804.811797,1665608804.812947,43.000000,0.000000,4290.897461,4295.897461,4294.487305,4307.179688,4283.974121,4283.077148,4285.384766,4295.769043,4285.000000,4262.051270,4467.051270,4454.615234,4369.358887,4423.717773,0.000000,4.000000,90.000000,,,,0.000000,4.000000,4.000000,4.000000,4.000000,4.000000,2.000000,4.000000,4.000000,4.000000,4.000000,4.000000,4.000000,4.000000,4.000000,83.333336,,,,,,,,,,,,,,,,,,,,,,,,,,,,,,,,,,,,,,,,,,,,,,,
1665608804.819605,1665608804.820756,44.000000,0.000000,4287.563965,4297.692383,4289.230957,4301.794922,4275.256348,4281.922852,4276.922852,4297.820313,4283.974121,4269.487305,4467.436035,4455.641113,4374.871582,4426.153809,0.000000,4.000000,90.000000,,,,0.000000,4.000000,4.000000,4.000000,4.000000,4.000000,2.000000,4.000000,4.000000,4.000000,4.000000,4.000000,4.000000,4.000000,4.000000,83.333336,,,,,,,,,,,,,,,,,,,,,,,,,,,,,,,,,,,,,,,,,,,,,,,
1665608804.827414,1665608804.828464,45.000000,0.000000,4278.205078,4287.948730,4277.948730,4294.743652,4279.743652,4283.333496,4281.025879,4296.922852,4280.000000,4266.153809,4458.333496,4451.794922,4366.025879,4415.512695,0.000000,4.000000,90.000000,,,,0.000000,4.000000,4.000000,4.000000,4.000000,4.000000,2.000000,4.000000,4.000000,4.000000,4.000000,4.000000,4.000000,4.000000,4.000000,83.333336,,,,,,,,,,,,,,,,,,,,,,,,,,,,,,,,,,,,,,,,,,,,,,,
1665608804.835222,1665608804.836273,46.000000,0.000000,4270.384766,4277.692383,4274.615234,4291.922852,4282.563965,4284.871582,4290.769043,4302.179688,4280.641113,4260.769043,4448.461426,4447.563965,4351.538574,4407.051270,0.000000,4.000000,90.000000,,,,0.000000,4.000000,4.000000,4.000000,4.000000,4.000000,2.000000,4.000000,4.000000,4.000000,4.000000,4.000000,4.000000,4.000000,4.000000,83.333336,,,,,,,,,,,,,,,,,,,,,,,,,,,,,,,,,,,,,,,,,,,,,,,
1665608804.843031,1665608804.843981,47.000000,0.000000,4268.589844,4281.666504,4278.846191,4297.179688,4282.436035,4290.769043,4298.846191,4313.461426,4287.948730,4264.102539,4449.358887,4447.820313,4353.589844,4409.871582,0.000000,4.000000,90.000000,,,,0.000000,4.000000,4.000000,4.000000,4.000000,4.000000,2.000000,4.000000,4.000000,4.000000,4.000000,4.000000,4.000000,4.000000,4.000000,83.333336,,,,,,,,,,,,,,,,,,,,,,,,,,,,,,,,,,,,,,,,,,,,,,,
1665608804.850839,1665608804.851790,48.000000,0.000000,4260.000000,4282.948730,4272.307617,4291.922852,4284.102539,4298.589844,4295.384766,4307.948730,4286.025879,4258.974121,4446.666504,4442.307617,4352.307617,4400.384766,0.000000,4.000000,90.000000,,,,0.000000,4.000000,4.000000,4.000000,4.000000,4.000000,2.000000,4.000000,4.000000,4.000000,4.000000,4.000000,4.000000,4.000000,4.000000,83.333336,,,,,,,,,,,,,,,,,,,,,,,,,,,,,,,,,,,,,,,,,,,,,,,
1665608804.858647,1665608804.859498,49.000000,0.000000,4241.794922,4270.128418,4252.563965,4273.846191,4272.563965,4293.333496,4273.077148,4285.384766,4268.333496,4242.436035,4428.974121,4428.717773,4333.461426,4377.820313,0.000000,4.000000,90.000000,,,,0.000000,4.000000,4.000000,4.000000,4.000000,4.000000,2.000000,4.000000,4.000000,4.000000,4.000000,4.000000,4.000000,4.000000,4.000000,83.333336,,,,,,,,,,,,,,,,,,,,,,,,,,,,,,,,,,,,,,,,,,,,,,,
1665608804.866456,1665608804.867307,50.000000,0.000000,4246.282227,4276.922852,4253.461426,4281.025879,4270.897461,4290.641113,4268.846191,4282.436035,4264.743652,4242.948730,4428.461426,4429.487305,4333.589844,4380.641113,0.000000,4.000000,90.000000,,,,0.000000,4.000000,4.000000,4.000000,4.000000,4.000000,2.000000,4.000000,4.000000,4.000000,4.000000,4.000000,4.000000,4.000000,4.000000,83.333336,,,,,,,,,,,,,,,,,,,,,,,,,,,,,,,,,,,,,,,,,,,,,,,
1665608804.874264,1665608804.875015,51.000000,0.000000,4270.512695,4303.077148,4274.743652,4305.256348,4282.820313,4297.948730,4286.282227,4294.743652,4277.307617,4251.538574,4443.974121,4444.358887,4346.410156,4400.384766,0.000000,4.000000,90.000000,,,,0.000000,4.000000,4.000000,4.000000,4.000000,4.000000,2.000000,4.000000,4.000000,4.000000,4.000000,4.000000,4.000000,4.000000,4.000000,83.333336,,,,,,,,,,,,,,,,,,,,,,,,,,,,,,,,,,,,,,,,,,,,,,,
1665608804.882073,1665608804.882824,52.000000,0.000000,4261.282227,4290.512695,4263.077148,4287.436035,4265.128418,4284.102539,4263.717773,4274.871582,4254.230957,4228.205078,4428.846191,4429.230957,4327.820313,4385.128418,0.000000,4.000000,90.000000,,,,0.000000,4.000000,4.000000,4.000000,4.000000,4.000000,2.000000,4.000000,4.000000,4.000000,4.000000,4.000000,4.000000,4.000000,4.000000,83.333336,,,,,,,,,,,,,,,,,,,,,,,,,,,,,,,,,,,,,,,,,,,,,,,
1665608804.889881,1665608804.890532,53.000000,0.000000,4241.922852,4266.922852,4244.102539,4266.538574,4244.487305,4263.974121,4232.179688,4250.256348,4228.717773,4216.538574,4419.230957,4412.948730,4323.205078,4368.717773,0.000000,4.000000,90.000000,,,,0.000000,4.000000,4.000000,4.000000,4.000000,4.000000,2.000000,4.000000,4.000000,4.000000,4.000000,4.000000,4.000000,4.000000,4.000000,83.333336,,,,,,,,,,,,,,,,,,,,,,,,,,,,,,,,,,,,,,,,,,,,,,,
1665608804.897689,1665608804.898341,54.000000,0.000000,4266.153809,4295.256348,4274.230957,4298.333496,4267.820313,4278.461426,4257.436035,4274.871582,4260.256348,4252.051270,4453.077148,4440.384766,4363.077148,4402.563965,0.000000,4.000000,90.000000,,,,0.000000,4.000000,4.000000,4.000000,4.000000,4.000000,2.000000,4.000000,4.000000,4.000000,4.000000,4.000000,4.000000,4.000000,4.000000,83.333336,,,,,,,,,,,,,,,,,,,,,,,,,,,,,,,,,,,,,,,,,,,,,,,
1665608804.905498,1665608804.906049,55.000000,0.000000,4295.384766,4322.692383,4303.846191,4324.743652,4292.820313,4299.487305,4293.589844,4308.461426,4297.692383,4278.717773,4472.692383,4468.461426,4380.128418,4434.358887,0.000000,4.000000,90.000000,,,,0.000000,4.000000,4.000000,4.000000,4.000000,4.000000,2.000000,4.000000,4.000000,4.000000,4.000000,4.000000,4.000000,4.000000,4.000000,83.333336,,,,,,,,,,,,,,,,,,,,,,,,,,,,,,,,,,,,,,,,,,,,,,,
1665608804.913306,1665608804.913958,56.000000,0.000000,4285.769043,4297.563965,4288.974121,4310.000000,4277.051270,4292.692383,4292.563965,4310.769043,4298.717773,4276.410156,4463.333496,4458.974121,4364.871582,4422.307617,0.000000,4.000000,90.000000,,,,0.000000,4.000000,4.000000,4.000000,4.000000,4.000000,2.000000,4.000000,4.000000,4.000000,4.000000,4.000000,4.000000,4.000000,4.000000,83.333336,,,,,,,,,,,,,,,,,,,,,,,,,,,,,,,,,,,,,,,,,,,,,,,
1665608804.921115,1665608804.921766,57.000000,0.000000,4265.897461,4274.102539,4276.025879,4296.410156,4263.333496,4287.436035,4281.922852,4302.948730,4292.692383,4274.615234,4458.717773,4447.820313,4358.461426,4405.128418,0.000000,4.000000,90.000000,,,,0.000000,4.000000,4.000000,4.000000,4.000000,4.000000,2.000000,4.000000,4.000000,4.000000,4.000000,4.000000,4.000000,4.000000,4.000000,83.333336,,,,,,,,,,,,,,,,,,,,,,,,,,,,,,,,,,,,,,,,,,,,,,,
1665608804.928923,1665608804.929674,58.000000,0.000000,4262.948730,4276.666504,4277.307617,4295.769043,4273.461426,4292.948730,4277.820313,4297.948730,4289.487305,4264.487305,4449.358887,4446.922852,4346.282227,4400.641113,0.000000,4.000000,90.000000,,,,0.000000,4.000000,4.000000,4.000000,4.000000,4.000000,2.000000,4.000000,4.000000,4.000000,4.000000,4.000000,4.000000,4.000000,4.000000,83.333336,,,,,,,,,,,,,,,,,,,,,,,,,,,,,,,,,,,,,,,,,,,,,,,
1665608804.936732,1665608804.937483,59.000000,0.000000,4265.384766,4278.974121,4270.000000,4292.179688,4277.692383,4293.717773,4278.589844,4296.153809,4281.153809,4250.128418,4435.128418,4442.436035,4334.615234,4398.717773,0.000000,4.000000,90.000000,,,,0.000000,4.000000,4.000000,4.000000,4.000000,4.000000,2.000000,4.000000,4.000000,4.000000,4.000000,4.000000,4.000000,4.000000,4.000000,83.333336,,,,,,,,,,,,,,,,,,,,,,,,,,,,,,,,,,,,,,,,,,,,,,,
1665608804.944540,1665608804.945391,60.000000,0.000000,4253.461426,4275.512695,4258.333496,4286.794922,4266.666504,4289.743652,4280.128418,4294.615234,4269.102539,4245.128418,4431.153809,4434.102539,4335.897461,4391.282227,0.000000,4.000000,90.000000,,,,0.000000,4.000000,4.000000,4.000000,4.000000,4.000000,2.000000,4.000000,4.000000,4.000000,4.000000,4.000000,4.000000,4.000000,4.000000,83.333336,,,,,,,,,,,,,,,,,,,,,,,,,,,,,,,,,,,,,,,,,,,,,,,
1665608804.952348,1665608804.953200,61.000000,0.000000,4239.871582,4268.205078,4250.000000,4281.153809,4260.128418,4286.922852,4271.794922,4287.948730,4262.692383,4234.102539,4426.025879,4426.282227,4328.589844,4379.487305,0.000000,4.000000,90.000000,,,,0.000000,4.000000,4.000000,4.000000,4.000000,4.000000,2.000000,4.000000,4.000000,4.000000,4.000000,4.000000,4.000000,4.000000,4.000000,83.333336,,,,,,,,,,,,,,,,,,,,,,,,,,,,,,,,,,,,,,,,,,,,,,,
1665608804.960157,1665608804.961108,62.000000,0.000000,4241.666504,4263.333496,4248.077148,4278.717773,4265.384766,4283.974121,4262.436035,4277.820313,4261.025879,4227.179688,4423.717773,4424.102539,4321.025879,4375.641113,0.000000,4.000000,90.000000,,,,0.000000,4.000000,4.000000,4.000000,4.000000,4.000000,2.000000,4.000000,4.000000,4.000000,4.000000,4.000000,4.000000,4.000000,4.000000,83.333336,,,,,,,,,,,,,,,,,,,,,,,,,,,,,,,,,,,,,,,,,,,,,,,
1665608804.967965,1665608804.968916,63.000000,0.000000,4239.743652,4260.256348,4247.307617,4275.641113,4256.794922,4281.794922,4259.615234,4274.615234,4251.025879,4229.487305,4426.282227,4422.436035,4321.794922,4375.769043,0.000000,4.000000,90.000000,,,,0.000000,4.000000,4.000000,4.000000,4.000000,4.000000,2.000000,4.000000,4.000000,4.000000,4.000000,4.000000,4.000000,4.000000,4.000000,83.333336,,,,,,,,,,,,,,,,,,,,,,,,,,,,,,,,,,,,,,,,,,,,,,,
1665608804.975774,1665608804.976825,64.000000,0.000000,4237.563965,4260.641113,4247.436035,4273.461426,4247.307617,4283.205078,4266.282227,4282.179688,4246.794922,4231.410156,4430.512695,4429.871582,4328.077148,4378.846191,2341.000000,4.000000,90.000000,,,,0.000000,4.000000,4.000000,4.000000,4.000000,4.000000,2.000000,4.000000,4.000000,4.000000,4.000000,4.000000,4.000000,4.000000,4.000000,83.333336,,,,,,,,,,,,,,,,,,,,,,,,,,,,,,,,,,,,,,,,,,,,,,,
1665608804.983582,1665608804.984633,65.000000,0.000000,4257.563965,4270.384766,4260.000000,4286.410156,4256.282227,4287.307617,4282.307617,4298.717773,4272.179688,4251.025879,4450.256348,4449.487305,4347.436035,4398.205078,2297.000000,4.000000,90.000000,,,,0.000000,4.000000,4.000000,4.000000,4.000000,4.000000,2.000000,4.000000,4.000000,4.000000,4.000000,4.000000,4.000000,4.000000,4.000000,83.333336,,,,,,,,,,,,,,,,,,,,,,,,,,,,,,,,,,,,,,,,,,,,,,,
1665608804.991391,1665608804.992542,66.000000,0.000000,4271.538574,4272.307617,4273.077148,4294.871582,4257.563965,4288.205078,4286.538574,4310.641113,4296.282227,4275.641113,4464.102539,4458.333496,4360.128418,4413.205078,2274.000000,4.000000,90.000000,,,,0.000000,4.000000,4.000000,4.000000,4.000000,4.000000,2.000000,4.000000,4.000000,4.000000,4.000000,4.000000,4.000000,4.000000,4.000000,83.333336,,,,,,,,,,,,,,,,,,,,,,,,,,,,,,,,,,,,,,,,,,,,,,,
1665608804.999199,1665608805.000350,67.000000,0.000000,4264.230957,4261.666504,4276.538574,4285.769043,4251.282227,4284.230957,4280.897461,4308.589844,4298.077148,4283.717773,4458.333496,4454.102539,4359.871582,4408.461426,2413.000000,4.000000,90.000000,,,,0.000000,4.000000,4.000000,4.000000,4.000000,4.000000,2.000000,4.000000,4.000000,4.000000,4.000000,4.000000,4.000000,4.000000,4.000000,83.333336,,,,,,,,,,,,,,,,,,,,,,,,,,,,,,,,,,,,,,,,,,,,,,,
1665608805.007007,1665608805.008059,68.000000,0.000000,4271.538574,4268.205078,4288.974121,4290.897461,4264.487305,4287.692383,4291.025879,4311.282227,4309.102539,4294.871582,4470.512695,4465.512695,4377.051270,4419.230957,2414.000000,4.000000,90.000000,,,,0.000000,4.000000,4.000000,4.000000,4.000000,4.000000,2.000000,4.000000,4.000000,4.000000,4.000000,4.000000,4.000000,4.000000,4.000000,83.333336,,,,,,,,,,,,,,,,,,,,,,,,,,,,,,,,,,,,,,,,,,,,,,,
1665608805.014816,1665608805.015867,69.000000,0.000000,4286.794922,4284.871582,4301.282227,4306.153809,4276.794922,4292.948730,4303.974121,4320.641113,4321.666504,4299.102539,4485.256348,4474.487305,4387.051270,4435.641113,1624.000000,4.000000,90.000000,,,,0.000000,4.000000,4.000000,4.000000,4.000000,4.000000,2.000000,4.000000,4.000000,4.000000,4.000000,4.000000,4.000000,4.000000,4.000000,83.333336,1.000000,75.000000,4.000000,4.000000,3.000000,4.000000,4.000000,2.000000,4.000000,4.000000,4.000000,4.000000,4.000000,4.000000,4.000000,4.000000,1.000000,0.554695,-0.437132,-1.040317,0.333224,1.000000,0.133091,4.089033,2.645665,13.490657,0.131168,1.000000,0.433445,83.612038,-368.895142,644.699707,1.000000,0.175137,0.198424,0.116689,0.317865,1.000000,0.469436,5.008803,-5.987031,16.984056,1.000000,0.387690,0.387690,0.000000,1.000000
1665608805.022624,1665608805.023576,70.000000,0.000000,4273.846191,4274.615234,4286.794922,4299.743652,4266.282227,4286.794922,4288.974121,4308.717773,4300.128418,4272.820313,4458.461426,4456.922852,4356.282227,4413.589844,2281.000000,4.000000,90.000000,,,,0.000000,4.000000,4.000000,4.000000,4.000000,4.000000,2.000000,4.000000,4.000000,4.000000,4.000000,4.000000,4.000000,4.000000,4.000000,83.333336,,,,,,,,,,,,,,,,,,,,,,,,,,,,,,,,,,,,,,,,,,,,,,,
1665608805.030433,1665608805.031384,71.000000,0.000000,4248.589844,4256.666504,4263.077148,4283.333496,4261.282227,4281.666504,4268.077148,4284.487305,4271.794922,4248.974121,4425.769043,4434.230957,4328.974121,4381.153809,2332.000000,4.000000,90.000000,,,,0.000000,4.000000,4.000000,4.000000,4.000000,4.000000,2.000000,4.000000,4.000000,4.000000,4.000000,4.000000,4.000000,4.000000,4.000000,83.333336,,,,,,,,,,,,,,,,,,,,,,,,,,,,,,,,,,,,,,,,,,,,,,,
1665608805.038241,1665608805.039093,72.000000,0.000000,4234.358887,4251.794922,4248.205078,4274.358887,4264.871582,4283.205078,4263.717773,4277.307617,4263.974121,4238.077148,4420.641113,4423.846191,4317.179688,4369.871582,2404.000000,4.000000,90.000000,,,,0.000000,4.000000,4.000000,4.000000,4.000000,4.000000,2.000000,4.000000,4.000000,4.000000,4.000000,4.000000,4.000000,4.000000,4.000000,83.333336,,,,,,,,,,,,,,,,,,,,,,,,,,,,,,,,,,,,,,,,,,,,,,,
1665608805.046049,1665608805.047001,73.000000,0.000000,4219.615234,4239.102539,4228.461426,4258.974121,4250.769043,4275.512695,4250.641113,4267.436035,4245.897461,4213.333496,4407.051270,4411.666504,4294.102539,4355.000000,2379.000000,4.000000,90.000000,,,,0.000000,4.000000,4.000000,4.000000,4.000000,4.000000,2.000000,4.000000,4.000000,4.000000,4.000000,4.000000,4.000000,4.000000,4.000000,83.333336,,,,,,,,,,,,,,,,,,,,,,,,,,,,,,,,,,,,,,,,,,,,,,,
1665608805.053858,1665608805.054809,74.000000,0.000000,4213.333496,4234.102539,4220.769043,4253.461426,4238.974121,4268.717773,4242.948730,4254.487305,4228.205078,4201.922852,4393.974121,4406.538574,4289.102539,4343.333496,2687.000000,4.000000,90.000000,,,,0.000000,4.000000,4.000000,4.000000,4.000000,4.000000,2.000000,4.000000,4.000000,4.000000,4.000000,4.000000,4.000000,4.000000,4.000000,83.333336,,,,,,,,,,,,,,,,,,,,,,,,,,,,,,,,,,,,,,,,,,,,,,,
1665608805.061666,1665608805.062718,75.000000,0.000000,4225.769043,4251.538574,4236.153809,4268.846191,4254.615234,4283.846191,4267.820313,4272.307617,4249.487305,4225.769043,4413.846191,4422.948730,4312.820313,4361.410156,2733.000000,4.000000,90.000000,,,,0.000000,4.000000,4.000000,4.000000,4.000000,4.000000,2.000000,4.000000,4.000000,4.000000,4.000000,4.000000,4.000000,4.000000,4.000000,83.333336,,,,,,,,,,,,,,,,,,,,,,,,,,,,,,,,,,,,,,,,,,,,,,,
1665608805.069475,1665608805.070526,76.000000,0.000000,4235.128418,4258.077148,4245.000000,4273.717773,4270.641113,4298.717773,4280.769043,4289.743652,4271.922852,4245.256348,4434.871582,4435.000000,4326.025879,4375.641113,2543.000000,4.000000,90.000000,,,,0.000000,4.000000,4.000000,4.000000,4.000000,4.000000,2.000000,4.000000,4.000000,4.000000,4.000000,4.000000,4.000000,4.000000,4.000000,83.333336,,,,,,,,,,,,,,,,,,,,,,,,,,,,,,,,,,,,,,,,,,,,,,,
