title:Psychopy_Shane_Speakers_Closed, start timestamp:1665780071.672835, stop timestamp:1665780132.679802, headset type:EPOCX, headset serial:E2020A42, headset firmware:720, channels:86, sampling rate:eeg_128;pm_2, samples:7814      , version:2.1, 
Timestamp,OriginalTimestamp,EEG.Counter,EEG.Interpolated,EEG.AF3,EEG.F7,EEG.F3,EEG.FC5,EEG.T7,EEG.P7,EEG.O1,EEG.O2,EEG.P8,EEG.T8,EEG.FC6,EEG.F4,EEG.F8,EEG.AF4,EEG.RawCq,EEG.Battery,EEG.BatteryPercent,MarkerIndex,MarkerType,MarkerValueInt,EEG.MarkerHardware,CQ.AF3,CQ.F7,CQ.F3,CQ.FC5,CQ.T7,CQ.P7,CQ.O1,CQ.O2,CQ.P8,CQ.T8,CQ.FC6,CQ.F4,CQ.F8,CQ.AF4,CQ.Overall,EQ.SampleRateQuality,EQ.OVERALL,EQ.AF3,EQ.F7,EQ.F3,EQ.FC5,EQ.T7,EQ.P7,EQ.O1,EQ.O2,EQ.P8,EQ.T8,EQ.FC6,EQ.F4,EQ.F8,EQ.AF4,PM.Engagement.IsActive,PM.Engagement.Scaled,PM.Engagement.Raw,PM.Engagement.Min,PM.Engagement.Max,PM.Excitement.IsActive,PM.Excitement.Scaled,PM.Excitement.Raw,PM.Excitement.Min,PM.Excitement.Max,PM.LongTermExcitement,PM.Stress.IsActive,PM.Stress.Scaled,PM.Stress.Raw,PM.Stress.Min,PM.Stress.Max,PM.Relaxation.IsActive,PM.Relaxation.Scaled,PM.Relaxation.Raw,PM.Relaxation.Min,PM.Relaxation.Max,PM.Interest.IsActive,PM.Interest.Scaled,PM.Interest.Raw,PM.Interest.Min,PM.Interest.Max,PM.Focus.IsActive,PM.Focus.Scaled,PM.Focus.Raw,PM.Focus.Min,PM.Focus.Max
1665780071.672835,1665780071.672954,110.000000,0.000000,4283.077148,4285.256348,4301.922852,4297.051270,4293.333496,4290.256348,4300.769043,4305.384766,4298.205078,4266.282227,4443.974121,4475.897461,4327.051270,4371.794922,2666.000000,2.000000,51.000000,,,,0.000000,4.000000,4.000000,4.000000,4.000000,4.000000,4.000000,4.000000,4.000000,4.000000,4.000000,4.000000,4.000000,4.000000,4.000000,100.000000,,,,,,,,,,,,,,,,,,,,,,,,,,,,,,,,,,,,,,,,,,,,,,,
1665780071.680644,1665780071.680863,111.000000,0.000000,4284.102539,4282.307617,4300.641113,4302.307617,4301.922852,4298.333496,4316.282227,4302.179688,4296.153809,4265.256348,4438.974121,4479.487305,4328.077148,4372.820313,2650.000000,2.000000,51.000000,,,,0.000000,4.000000,4.000000,4.000000,4.000000,4.000000,4.000000,4.000000,4.000000,4.000000,4.000000,4.000000,4.000000,4.000000,4.000000,100.000000,,,,,,,,,,,,,,,,,,,,,,,,,,,,,,,,,,,,,,,,,,,,,,,
1665780071.688452,1665780071.688671,112.000000,0.000000,4295.384766,4297.820313,4311.666504,4321.153809,4317.051270,4312.179688,4333.461426,4309.487305,4303.077148,4267.692383,4448.205078,4491.794922,4337.051270,4383.589844,2793.000000,2.000000,51.000000,,,,0.000000,4.000000,4.000000,4.000000,4.000000,4.000000,4.000000,4.000000,4.000000,4.000000,4.000000,4.000000,4.000000,4.000000,4.000000,100.000000,,,,,,,,,,,,,,,,,,,,,,,,,,,,,,,,,,,,,,,,,,,,,,,
1665780071.696261,1665780071.696580,113.000000,0.000000,4299.358887,4296.538574,4315.256348,4322.948730,4323.974121,4318.461426,4340.769043,4311.410156,4303.717773,4267.692383,4453.077148,4496.282227,4335.769043,4390.384766,3052.000000,2.000000,51.000000,,,,0.000000,4.000000,4.000000,4.000000,4.000000,4.000000,4.000000,4.000000,4.000000,4.000000,4.000000,4.000000,4.000000,4.000000,4.000000,100.000000,,,,,,,,,,,,,,,,,,,,,,,,,,,,,,,,,,,,,,,,,,,,,,,
1665780071.704069,1665780071.704388,114.000000,0.000000,4298.077148,4293.077148,4312.820313,4319.743652,4326.282227,4319.230957,4345.512695,4302.948730,4298.077148,4266.153809,4457.436035,4489.358887,4331.666504,4389.487305,2666.000000,2.000000,51.000000,,,,0.000000,4.000000,4.000000,4.000000,4.000000,4.000000,4.000000,4.000000,4.000000,4.000000,4.000000,4.000000,4.000000,4.000000,4.000000,100.000000,,,,,,,,,,,,,,,,,,,,,,,,,,,,,,,,,,,,,,,,,,,,,,,
1665780071.711877,1665780071.712296,115.000000,0.000000,4292.436035,4298.333496,4312.436035,4316.922852,4320.128418,4316.538574,4346.666504,4297.307617,4295.128418,4265.641113,4461.153809,4481.538574,4329.230957,4377.179688,2650.000000,2.000000,51.000000,,,,0.000000,4.000000,4.000000,4.000000,4.000000,4.000000,4.000000,4.000000,4.000000,4.000000,4.000000,4.000000,4.000000,4.000000,4.000000,100.000000,,,,,,,,,,,,,,,,,,,,,,,,,,,,,,,,,,,,,,,,,,,,,,,
1665780071.719686,1665780071.720105,116.000000,0.000000,4280.256348,4291.538574,4301.153809,4302.436035,4310.641113,4312.179688,4339.102539,4296.153809,4296.410156,4262.563965,4451.282227,4472.307617,4325.384766,4362.692383,2793.000000,2.000000,51.000000,,,,0.000000,4.000000,4.000000,4.000000,4.000000,4.000000,4.000000,4.000000,4.000000,4.000000,4.000000,4.000000,4.000000,4.000000,4.000000,100.000000,,,,,,,,,,,,,,,,,,,,,,,,,,,,,,,,,,,,,,,,,,,,,,,
1665780071.727494,1665780071.728013,117.000000,0.000000,4275.897461,4283.461426,4284.743652,4295.256348,4311.794922,4315.897461,4329.102539,4293.974121,4300.512695,4261.666504,4443.077148,4461.410156,4325.000000,4363.589844,3052.000000,2.000000,51.000000,,,,0.000000,4.000000,4.000000,4.000000,4.000000,4.000000,4.000000,4.000000,4.000000,4.000000,4.000000,4.000000,4.000000,4.000000,4.000000,100.000000,,,,,,,,,,,,,,,,,,,,,,,,,,,,,,,,,,,,,,,,,,,,,,,
1665780071.735303,1665780071.735822,118.000000,0.000000,4278.461426,4289.487305,4281.538574,4301.666504,4312.307617,4312.948730,4315.256348,4293.717773,4304.871582,4268.974121,4442.307617,4462.307617,4326.282227,4369.102539,2666.000000,2.000000,51.000000,,,,0.000000,4.000000,4.000000,4.000000,4.000000,4.000000,4.000000,4.000000,4.000000,4.000000,4.000000,4.000000,4.000000,4.000000,4.000000,100.000000,,,,,,,,,,,,,,,,,,,,,,,,,,,,,,,,,,,,,,,,,,,,,,,
1665780071.743111,1665780071.743530,119.000000,0.000000,4280.512695,4293.589844,4286.153809,4304.358887,4308.589844,4298.974121,4300.000000,4299.230957,4309.230957,4279.358887,4445.512695,4469.487305,4328.974121,4372.436035,2650.000000,2.000000,51.000000,,,,0.000000,4.000000,4.000000,4.000000,4.000000,4.000000,4.000000,4.000000,4.000000,4.000000,4.000000,4.000000,4.000000,4.000000,4.000000,100.000000,,,,,,,,,,,,,,,,,,,,,,,,,,,,,,,,,,,,,,,,,,,,,,,
1665780071.750919,1665780071.751339,120.000000,0.000000,4291.666504,4295.256348,4295.128418,4306.922852,4309.871582,4291.538574,4290.641113,4311.153809,4314.743652,4288.846191,4451.153809,4473.205078,4338.974121,4386.025879,2793.000000,2.000000,51.000000,,,,0.000000,4.000000,4.000000,4.000000,4.000000,4.000000,4.000000,4.000000,4.000000,4.000000,4.000000,4.000000,4.000000,4.000000,4.000000,100.000000,,,,,,,,,,,,,,,,,,,,,,,,,,,,,,,,,,,,,,,,,,,,,,,
1665780071.758728,1665780071.759047,121.000000,0.000000,4303.846191,4303.461426,4305.769043,4314.487305,4312.307617,4290.256348,4290.128418,4322.179688,4316.538574,4292.436035,4460.384766,4480.641113,4347.692383,4398.974121,3052.000000,2.000000,51.000000,,,,0.000000,4.000000,4.000000,4.000000,4.000000,4.000000,4.000000,4.000000,4.000000,4.000000,4.000000,4.000000,4.000000,4.000000,4.000000,100.000000,,,,,,,,,,,,,,,,,,,,,,,,,,,,,,,,,,,,,,,,,,,,,,,
1665780071.766536,1665780071.766856,122.000000,0.000000,4308.205078,4315.384766,4314.615234,4320.000000,4311.922852,4286.153809,4302.051270,4328.974121,4315.897461,4288.077148,4471.538574,4493.077148,4348.461426,4399.102539,2666.000000,2.000000,51.000000,,,,0.000000,4.000000,4.000000,4.000000,4.000000,4.000000,4.000000,4.000000,4.000000,4.000000,4.000000,4.000000,4.000000,4.000000,4.000000,100.000000,,,,,,,,,,,,,,,,,,,,,,,,,,,,,,,,,,,,,,,,,,,,,,,
1665780071.774344,1665780071.774564,123.000000,0.000000,4305.897461,4317.307617,4323.205078,4320.128418,4308.974121,4287.051270,4320.897461,4326.282227,4313.205078,4279.102539,4471.153809,4497.051270,4348.846191,4396.025879,2650.000000,2.000000,51.000000,,,,0.000000,4.000000,4.000000,4.000000,4.000000,4.000000,4.000000,4.000000,4.000000,4.000000,4.000000,4.000000,4.000000,4.000000,4.000000,100.000000,,,,,,,,,,,,,,,,,,,,,,,,,,,,,,,,,,,,,,,,,,,,,,,
1665780071.782153,1665780071.782373,124.000000,0.000000,4302.307617,4315.897461,4326.410156,4321.410156,4308.974121,4300.256348,4337.179688,4317.948730,4303.333496,4270.256348,4461.922852,4493.846191,4348.846191,4397.948730,2793.000000,2.000000,51.000000,,,,0.000000,4.000000,4.000000,4.000000,4.000000,4.000000,4.000000,4.000000,4.000000,4.000000,4.000000,4.000000,4.000000,4.000000,4.000000,100.000000,,,,,,,,,,,,,,,,,,,,,,,,,,,,,,,,,,,,,,,,,,,,,,,
1665780071.789961,1665780071.790081,125.000000,0.000000,4295.897461,4316.153809,4318.333496,4320.256348,4316.025879,4313.589844,4345.512695,4308.589844,4294.358887,4265.897461,4447.820313,4488.589844,4339.871582,4391.538574,3052.000000,2.000000,51.000000,,,,0.000000,4.000000,4.000000,4.000000,4.000000,4.000000,4.000000,4.000000,4.000000,4.000000,4.000000,4.000000,4.000000,4.000000,4.000000,100.000000,,,,,,,,,,,,,,,,,,,,,,,,,,,,,,,,,,,,,,,,,,,,,,,
1665780071.797770,1665780071.797989,126.000000,0.000000,4287.563965,4304.615234,4307.051270,4314.871582,4322.563965,4318.846191,4343.846191,4298.461426,4293.205078,4263.333496,4432.051270,4477.179688,4326.282227,4376.794922,2666.000000,2.000000,51.000000,,,,0.000000,4.000000,4.000000,4.000000,4.000000,4.000000,4.000000,4.000000,4.000000,4.000000,4.000000,4.000000,4.000000,4.000000,4.000000,100.000000,,,,,,,,,,,,,,,,,,,,,,,,,,,,,,,,,,,,,,,,,,,,,,,
1665780071.805578,1665780071.805798,127.000000,0.000000,4285.641113,4293.717773,4304.615234,4314.871582,4324.487305,4321.025879,4337.692383,4292.692383,4294.743652,4263.589844,4427.436035,4472.563965,4320.128418,4374.102539,51.000000,2.000000,51.000000,,,,0.000000,4.000000,4.000000,4.000000,4.000000,4.000000,4.000000,4.000000,4.000000,4.000000,4.000000,4.000000,4.000000,4.000000,4.000000,100.000000,,,,,,,,,,,,,,,,,,,,,,,,,,,,,,,,,,,,,,,,,,,,,,,
1665780071.813386,1665780071.813706,0.000000,0.000000,4293.717773,4303.589844,4310.641113,4322.051270,4325.641113,4319.743652,4335.000000,4297.051270,4296.025879,4272.179688,4443.205078,4478.589844,4326.025879,4382.436035,2351.000000,2.000000,51.000000,,,,0.000000,4.000000,4.000000,4.000000,4.000000,4.000000,4.000000,4.000000,4.000000,4.000000,4.000000,4.000000,4.000000,4.000000,4.000000,100.000000,,,,,,,,,,,,,,,,,,,,,,,,,,,,,,,,,,,,,,,,,,,,,,,
1665780071.821195,1665780071.821515,1.000000,0.000000,4297.692383,4315.256348,4313.333496,4320.769043,4327.692383,4315.512695,4332.563965,4306.282227,4300.512695,4281.794922,4460.769043,4478.974121,4334.743652,4385.384766,2351.000000,2.000000,51.000000,,,,0.000000,4.000000,4.000000,4.000000,4.000000,4.000000,4.000000,4.000000,4.000000,4.000000,4.000000,4.000000,4.000000,4.000000,4.000000,100.000000,,,,,,,,,,,,,,,,,,,,,,,,,,,,,,,,,,,,,,,,,,,,,,,
1665780071.829003,1665780071.829423,2.000000,0.000000,4285.897461,4309.743652,4303.589844,4310.769043,4323.461426,4309.743652,4322.563965,4310.384766,4307.563965,4283.589844,4459.102539,4473.846191,4336.153809,4379.230957,2216.000000,2.000000,51.000000,,,,0.000000,4.000000,4.000000,4.000000,4.000000,4.000000,4.000000,4.000000,4.000000,4.000000,4.000000,4.000000,4.000000,4.000000,4.000000,100.000000,,,,,,,,,,,,,,,,,,,,,,,,,,,,,,,,,,,,,,,,,,,,,,,
1665780071.836812,1665780071.837231,3.000000,0.000000,4279.358887,4306.794922,4292.051270,4307.051270,4313.974121,4302.179688,4311.410156,4307.436035,4311.153809,4283.077148,4450.641113,4472.563965,4333.846191,4374.358887,2329.000000,2.000000,51.000000,,,,0.000000,4.000000,4.000000,4.000000,4.000000,4.000000,4.000000,4.000000,4.000000,4.000000,4.000000,4.000000,4.000000,4.000000,4.000000,100.000000,,,,,,,,,,,,,,,,,,,,,,,,,,,,,,,,,,,,,,,,,,,,,,,
1665780071.844620,1665780071.845140,4.000000,0.000000,4286.153809,4313.974121,4293.333496,4309.358887,4308.333496,4297.820313,4301.410156,4301.025879,4312.179688,4281.922852,4446.282227,4473.717773,4337.820313,4373.846191,2297.000000,2.000000,51.000000,,,,0.000000,4.000000,4.000000,4.000000,4.000000,4.000000,4.000000,4.000000,4.000000,4.000000,4.000000,4.000000,4.000000,4.000000,4.000000,100.000000,,,,,,,,,,,,,,,,,,,,,,,,,,,,,,,,,,,,,,,,,,,,,,,
1665780071.852428,1665780071.852948,5.000000,0.000000,4288.333496,4312.563965,4296.410156,4309.102539,4310.128418,4302.051270,4295.769043,4296.538574,4312.948730,4280.641113,4445.641113,4473.717773,4341.410156,4377.307617,2334.000000,2.000000,51.000000,,,,0.000000,4.000000,4.000000,4.000000,4.000000,4.000000,4.000000,4.000000,4.000000,4.000000,4.000000,4.000000,4.000000,4.000000,4.000000,100.000000,1.000000,83.333336,4.000000,4.000000,4.000000,4.000000,4.000000,4.000000,3.000000,3.000000,4.000000,4.000000,4.000000,4.000000,4.000000,4.000000,1.000000,0.216277,-1.088337,-1.326911,0.182524,1.000000,0.280111,3.705807,1.836245,8.510594,0.216024,1.000000,0.476763,74.750656,-33.619164,191.495941,1.000000,0.697059,0.303251,0.090776,0.315142,1.000000,0.580389,6.934076,-4.243657,15.120520,1.000000,0.217726,0.217726,0.000000,1.000000
1665780071.860237,1665780071.860857,6.000000,0.000000,4286.538574,4308.846191,4294.358887,4310.641113,4311.794922,4307.692383,4301.025879,4294.743652,4311.922852,4283.461426,4440.769043,4473.461426,4335.897461,4383.461426,2124.000000,2.000000,51.000000,,,,0.000000,4.000000,4.000000,4.000000,4.000000,4.000000,4.000000,4.000000,4.000000,4.000000,4.000000,4.000000,4.000000,4.000000,4.000000,100.000000,,,,,,,,,,,,,,,,,,,,,,,,,,,,,,,,,,,,,,,,,,,,,,,
1665780071.868045,1665780071.868665,7.000000,0.000000,4288.846191,4310.897461,4296.666504,4313.205078,4309.230957,4306.410156,4313.205078,4295.256348,4309.102539,4276.794922,4433.974121,4472.436035,4327.563965,4385.000000,2034.000000,2.000000,51.000000,,,,0.000000,4.000000,4.000000,4.000000,4.000000,4.000000,4.000000,4.000000,4.000000,4.000000,4.000000,4.000000,4.000000,4.000000,4.000000,100.000000,,,,,,,,,,,,,,,,,,,,,,,,,,,,,,,,,,,,,,,,,,,,,,,
1665780071.875853,1665780071.876573,8.000000,0.000000,4295.256348,4312.692383,4307.179688,4311.794922,4311.153809,4306.282227,4327.948730,4304.358887,4310.512695,4266.025879,4440.512695,4473.974121,4325.256348,4384.615234,1163.000000,2.000000,51.000000,,,,0.000000,4.000000,4.000000,4.000000,4.000000,4.000000,4.000000,4.000000,4.000000,4.000000,4.000000,4.000000,4.000000,4.000000,4.000000,100.000000,,,,,,,,,,,,,,,,,,,,,,,,,,,,,,,,,,,,,,,,,,,,,,,
1665780071.883662,1665780071.884382,9.000000,0.000000,4298.077148,4311.922852,4312.563965,4308.589844,4315.769043,4310.256348,4337.948730,4312.051270,4307.692383,4261.410156,4448.461426,4477.307617,4326.666504,4383.974121,2391.000000,2.000000,51.000000,,,,0.000000,4.000000,4.000000,4.000000,4.000000,4.000000,4.000000,4.000000,4.000000,4.000000,4.000000,4.000000,4.000000,4.000000,4.000000,100.000000,,,,,,,,,,,,,,,,,,,,,,,,,,,,,,,,,,,,,,,,,,,,,,,
1665780071.891470,1665780071.892290,10.000000,0.000000,4295.000000,4311.666504,4304.615234,4305.769043,4314.358887,4309.102539,4335.641113,4306.666504,4296.538574,4254.743652,4438.333496,4470.384766,4319.230957,4377.436035,2677.000000,2.000000,51.000000,,,,0.000000,4.000000,4.000000,4.000000,4.000000,4.000000,4.000000,4.000000,4.000000,4.000000,4.000000,4.000000,4.000000,4.000000,4.000000,100.000000,,,,,,,,,,,,,,,,,,,,,,,,,,,,,,,,,,,,,,,,,,,,,,,
1665780071.899279,1665780071.900099,11.000000,0.000000,4286.922852,4310.769043,4295.897461,4298.333496,4305.641113,4305.256348,4329.743652,4295.897461,4292.692383,4241.666504,4422.436035,4459.615234,4309.358887,4367.179688,2648.000000,2.000000,51.000000,,,,0.000000,4.000000,4.000000,4.000000,4.000000,4.000000,4.000000,4.000000,4.000000,4.000000,4.000000,4.000000,4.000000,4.000000,4.000000,100.000000,,,,,,,,,,,,,,,,,,,,,,,,,,,,,,,,,,,,,,,,,,,,,,,
1665780071.907087,1665780071.908007,12.000000,0.000000,4280.000000,4305.769043,4295.256348,4294.871582,4301.794922,4305.384766,4324.230957,4287.436035,4293.846191,4232.179688,4419.487305,4457.307617,4309.487305,4363.077148,2808.000000,2.000000,51.000000,,,,0.000000,4.000000,4.000000,4.000000,4.000000,4.000000,4.000000,4.000000,4.000000,4.000000,4.000000,4.000000,4.000000,4.000000,4.000000,100.000000,,,,,,,,,,,,,,,,,,,,,,,,,,,,,,,,,,,,,,,,,,,,,,,
1665780071.914895,1665780071.915815,13.000000,0.000000,4280.512695,4301.410156,4292.820313,4302.820313,4305.769043,4308.333496,4313.461426,4284.743652,4292.051270,4234.743652,4419.358887,4457.436035,4308.974121,4365.641113,3064.000000,2.000000,51.000000,,,,0.000000,4.000000,4.000000,4.000000,4.000000,4.000000,4.000000,4.000000,4.000000,4.000000,4.000000,4.000000,4.000000,4.000000,4.000000,100.000000,,,,,,,,,,,,,,,,,,,,,,,,,,,,,,,,,,,,,,,,,,,,,,,
1665780071.922704,1665780071.923624,14.000000,0.000000,4287.051270,4302.307617,4292.051270,4309.615234,4310.897461,4308.333496,4310.384766,4293.205078,4295.256348,4250.641113,4421.794922,4458.846191,4306.282227,4371.794922,2677.000000,2.000000,51.000000,,,,0.000000,4.000000,4.000000,4.000000,4.000000,4.000000,4.000000,4.000000,4.000000,4.000000,4.000000,4.000000,4.000000,4.000000,4.000000,100.000000,,,,,,,,,,,,,,,,,,,,,,,,,,,,,,,,,,,,,,,,,,,,,,,
1665780071.930512,1665780071.931532,15.000000,0.000000,4301.410156,4311.922852,4306.922852,4317.307617,4319.230957,4303.717773,4311.025879,4307.563965,4306.922852,4271.794922,4440.256348,4474.487305,4320.000000,4384.615234,2648.000000,2.000000,51.000000,,,,0.000000,4.000000,4.000000,4.000000,4.000000,4.000000,4.000000,4.000000,4.000000,4.000000,4.000000,4.000000,4.000000,4.000000,4.000000,100.000000,,,,,,,,,,,,,,,,,,,,,,,,,,,,,,,,,,,,,,,,,,,,,,,
1665780071.938321,1665780071.939341,16.000000,0.000000,4310.897461,4322.307617,4323.717773,4326.794922,4322.820313,4297.436035,4300.897461,4313.974121,4318.333496,4283.333496,4459.871582,4491.538574,4338.077148,4396.666504,0.000000,2.000000,51.000000,,,,0.000000,4.000000,4.000000,4.000000,4.000000,4.000000,4.000000,4.000000,4.000000,4.000000,4.000000,4.000000,4.000000,4.000000,4.000000,100.000000,,,,,,,,,,,,,,,,,,,,,,,,,,,,,,,,,,,,,,,,,,,,,,,
1665780071.946129,1665780071.947149,17.000000,0.000000,4304.615234,4326.666504,4322.307617,4323.846191,4316.538574,4297.051270,4299.487305,4313.205078,4322.051270,4283.333496,4462.692383,4492.179688,4340.256348,4398.461426,0.000000,2.000000,51.000000,,,,0.000000,4.000000,4.000000,4.000000,4.000000,4.000000,4.000000,4.000000,4.000000,4.000000,4.000000,4.000000,4.000000,4.000000,4.000000,100.000000,,,,,,,,,,,,,,,,,,,,,,,,,,,,,,,,,,,,,,,,,,,,,,,
1665780071.953937,1665780071.954858,18.000000,0.000000,4293.974121,4325.256348,4314.743652,4314.871582,4310.897461,4305.384766,4314.487305,4314.487305,4317.948730,4283.205078,4459.230957,4488.717773,4339.487305,4397.948730,0.000000,2.000000,51.000000,,,,0.000000,4.000000,4.000000,4.000000,4.000000,4.000000,4.000000,4.000000,4.000000,4.000000,4.000000,4.000000,4.000000,4.000000,4.000000,100.000000,,,,,,,,,,,,,,,,,,,,,,,,,,,,,,,,,,,,,,,,,,,,,,,
1665780071.961746,1665780071.962666,19.000000,0.000000,4288.077148,4318.077148,4310.000000,4311.922852,4311.282227,4312.948730,4325.000000,4314.102539,4314.102539,4287.051270,4462.051270,4489.230957,4347.563965,4396.666504,0.000000,2.000000,51.000000,,,,0.000000,4.000000,4.000000,4.000000,4.000000,4.000000,4.000000,4.000000,4.000000,4.000000,4.000000,4.000000,4.000000,4.000000,4.000000,100.000000,,,,,,,,,,,,,,,,,,,,,,,,,,,,,,,,,,,,,,,,,,,,,,,
1665780071.969554,1665780071.970375,20.000000,0.000000,4285.897461,4309.871582,4302.948730,4309.358887,4310.769043,4313.846191,4324.615234,4312.179688,4313.461426,4286.538574,4462.563965,4488.717773,4353.077148,4397.820313,0.000000,2.000000,51.000000,,,,0.000000,4.000000,4.000000,4.000000,4.000000,4.000000,4.000000,4.000000,4.000000,4.000000,4.000000,4.000000,4.000000,4.000000,4.000000,100.000000,,,,,,,,,,,,,,,,,,,,,,,,,,,,,,,,,,,,,,,,,,,,,,,
1665780071.977363,1665780071.978183,21.000000,0.000000,4289.487305,4309.743652,4300.384766,4310.897461,4309.871582,4312.179688,4325.641113,4317.563965,4314.487305,4283.589844,4461.282227,4487.307617,4351.410156,4407.179688,0.000000,2.000000,51.000000,,,,0.000000,4.000000,4.000000,4.000000,4.000000,4.000000,4.000000,4.000000,4.000000,4.000000,4.000000,4.000000,4.000000,4.000000,4.000000,100.000000,,,,,,,,,,,,,,,,,,,,,,,,,,,,,,,,,,,,,,,,,,,,,,,
1665780071.985171,1665780071.985892,22.000000,0.000000,4300.000000,4313.461426,4310.000000,4317.563965,4311.410156,4310.256348,4327.948730,4326.794922,4317.948730,4290.769043,4469.743652,4493.589844,4353.461426,4415.512695,0.000000,2.000000,51.000000,,,,0.000000,4.000000,4.000000,4.000000,4.000000,4.000000,4.000000,4.000000,4.000000,4.000000,4.000000,4.000000,4.000000,4.000000,4.000000,100.000000,,,,,,,,,,,,,,,,,,,,,,,,,,,,,,,,,,,,,,,,,,,,,,,
1665780071.992979,1665780071.993700,23.000000,0.000000,4309.615234,4319.615234,4322.820313,4320.384766,4311.794922,4307.692383,4329.615234,4331.666504,4321.538574,4294.615234,4478.974121,4506.410156,4357.948730,4418.461426,0.000000,2.000000,51.000000,,,,0.000000,4.000000,4.000000,4.000000,4.000000,4.000000,4.000000,4.000000,4.000000,4.000000,4.000000,4.000000,4.000000,4.000000,4.000000,100.000000,,,,,,,,,,,,,,,,,,,,,,,,,,,,,,,,,,,,,,,,,,,,,,,
1665780072.000788,1665780072.001409,24.000000,0.000000,4312.179688,4330.769043,4326.794922,4321.666504,4311.025879,4303.333496,4328.974121,4327.179688,4317.948730,4283.333496,4475.256348,4510.000000,4355.384766,4419.871582,0.000000,2.000000,51.000000,,,,0.000000,4.000000,4.000000,4.000000,4.000000,4.000000,4.000000,4.000000,4.000000,4.000000,4.000000,4.000000,4.000000,4.000000,4.000000,100.000000,,,,,,,,,,,,,,,,,,,,,,,,,,,,,,,,,,,,,,,,,,,,,,,
1665780072.008596,1665780072.009217,25.000000,0.000000,4308.846191,4332.820313,4322.436035,4320.384766,4307.563965,4298.717773,4324.102539,4317.051270,4309.615234,4269.871582,4462.820313,4499.615234,4347.820313,4415.256348,0.000000,2.000000,51.000000,,,,0.000000,4.000000,4.000000,4.000000,4.000000,4.000000,4.000000,4.000000,4.000000,4.000000,4.000000,4.000000,4.000000,4.000000,4.000000,100.000000,,,,,,,,,,,,,,,,,,,,,,,,,,,,,,,,,,,,,,,,,,,,,,,
1665780072.016405,1665780072.016926,26.000000,0.000000,4307.307617,4327.307617,4320.256348,4318.846191,4311.538574,4305.769043,4322.436035,4309.358887,4309.358887,4270.000000,4452.563965,4497.307617,4350.384766,4413.717773,0.000000,2.000000,51.000000,,,,0.000000,4.000000,4.000000,4.000000,4.000000,4.000000,4.000000,4.000000,4.000000,4.000000,4.000000,4.000000,4.000000,4.000000,4.000000,100.000000,,,,,,,,,,,,,,,,,,,,,,,,,,,,,,,,,,,,,,,,,,,,,,,
1665780072.024213,1665780072.024834,27.000000,0.000000,4307.820313,4330.128418,4320.128418,4324.871582,4320.256348,4318.461426,4317.948730,4304.230957,4309.358887,4270.641113,4446.025879,4501.794922,4354.487305,4417.436035,0.000000,2.000000,51.000000,,,,0.000000,4.000000,4.000000,4.000000,4.000000,4.000000,4.000000,4.000000,4.000000,4.000000,4.000000,4.000000,4.000000,4.000000,4.000000,100.000000,,,,,,,,,,,,,,,,,,,,,,,,,,,,,,,,,,,,,,,,,,,,,,,
1665780072.032021,1665780072.032642,28.000000,0.000000,4304.102539,4328.333496,4313.205078,4326.282227,4317.179688,4318.846191,4307.179688,4297.179688,4300.769043,4263.589844,4438.461426,4491.794922,4344.743652,4413.205078,0.000000,2.000000,51.000000,,,,0.000000,4.000000,4.000000,4.000000,4.000000,4.000000,4.000000,4.000000,4.000000,4.000000,4.000000,4.000000,4.000000,4.000000,4.000000,100.000000,,,,,,,,,,,,,,,,,,,,,,,,,,,,,,,,,,,,,,,,,,,,,,,
1665780072.039830,1665780072.040551,29.000000,0.000000,4308.974121,4323.461426,4308.974121,4322.692383,4318.974121,4311.410156,4302.563965,4296.025879,4299.743652,4264.487305,4438.846191,4483.205078,4340.256348,4414.102539,0.000000,2.000000,51.000000,,,,0.000000,4.000000,4.000000,4.000000,4.000000,4.000000,4.000000,4.000000,4.000000,4.000000,4.000000,4.000000,4.000000,4.000000,4.000000,100.000000,,,,,,,,,,,,,,,,,,,,,,,,,,,,,,,,,,,,,,,,,,,,,,,
1665780072.047638,1665780072.048359,30.000000,0.000000,4323.077148,4329.230957,4315.384766,4326.794922,4333.205078,4309.487305,4308.846191,4308.974121,4311.410156,4278.589844,4453.846191,4493.077148,4352.820313,4429.615234,0.000000,2.000000,51.000000,,,,0.000000,4.000000,4.000000,4.000000,4.000000,4.000000,4.000000,4.000000,4.000000,4.000000,4.000000,4.000000,4.000000,4.000000,4.000000,100.000000,,,,,,,,,,,,,,,,,,,,,,,,,,,,,,,,,,,,,,,,,,,,,,,
1665780072.055447,1665780072.056268,31.000000,0.000000,4324.102539,4332.179688,4315.000000,4323.717773,4330.256348,4310.897461,4316.666504,4317.051270,4313.846191,4282.563965,4461.666504,4494.871582,4353.589844,4430.384766,0.000000,2.000000,51.000000,,,,0.000000,4.000000,4.000000,4.000000,4.000000,4.000000,4.000000,4.000000,4.000000,4.000000,4.000000,4.000000,4.000000,4.000000,4.000000,100.000000,,,,,,,,,,,,,,,,,,,,,,,,,,,,,,,,,,,,,,,,,,,,,,,
1665780072.063255,1665780072.064076,32.000000,0.000000,4317.179688,4323.205078,4308.461426,4311.282227,4309.487305,4309.358887,4328.589844,4313.974121,4307.948730,4274.358887,4456.538574,4485.897461,4342.692383,4420.000000,0.000000,2.000000,51.000000,,,,0.000000,4.000000,4.000000,4.000000,4.000000,4.000000,4.000000,4.000000,4.000000,4.000000,4.000000,4.000000,4.000000,4.000000,4.000000,100.000000,,,,,,,,,,,,,,,,,,,,,,,,,,,,,,,,,,,,,,,,,,,,,,,
1665780072.071063,1665780072.071984,33.000000,0.000000,4330.000000,4332.179688,4318.333496,4315.769043,4307.692383,4310.897461,4345.641113,4321.282227,4313.333496,4282.179688,4468.461426,4502.051270,4365.256348,4438.205078,0.000000,2.000000,51.000000,,,,0.000000,4.000000,4.000000,4.000000,4.000000,4.000000,4.000000,4.000000,4.000000,4.000000,4.000000,4.000000,4.000000,4.000000,4.000000,100.000000,,,,,,,,,,,,,,,,,,,,,,,,,,,,,,,,,,,,,,,,,,,,,,,
1665780072.078872,1665780072.079793,34.000000,0.000000,4359.358887,4356.922852,4340.769043,4332.307617,4320.897461,4318.077148,4351.153809,4335.512695,4321.922852,4303.846191,4496.538574,4532.179688,4415.641113,4478.589844,0.000000,2.000000,51.000000,,,,0.000000,4.000000,4.000000,4.000000,4.000000,4.000000,4.000000,4.000000,4.000000,4.000000,4.000000,4.000000,4.000000,4.000000,4.000000,100.000000,,,,,,,,,,,,,,,,,,,,,,,,,,,,,,,,,,,,,,,,,,,,,,,
1665780072.086680,1665780072.087701,35.000000,0.000000,4378.333496,4368.461426,4351.794922,4342.179688,4323.589844,4321.282227,4343.717773,4337.179688,4321.282227,4315.000000,4508.461426,4543.846191,4439.358887,4507.436035,0.000000,2.000000,51.000000,,,,0.000000,4.000000,4.000000,4.000000,4.000000,4.000000,4.000000,4.000000,4.000000,4.000000,4.000000,4.000000,4.000000,4.000000,4.000000,100.000000,,,,,,,,,,,,,,,,,,,,,,,,,,,,,,,,,,,,,,,,,,,,,,,
1665780072.094489,1665780072.095510,36.000000,0.000000,4383.974121,4372.692383,4351.538574,4350.512695,4325.384766,4316.538574,4335.256348,4329.358887,4318.846191,4313.205078,4504.871582,4543.077148,4431.922852,4516.538574,0.000000,2.000000,51.000000,,,,0.000000,4.000000,4.000000,4.000000,4.000000,4.000000,4.000000,4.000000,4.000000,4.000000,4.000000,4.000000,4.000000,4.000000,4.000000,100.000000,,,,,,,,,,,,,,,,,,,,,,,,,,,,,,,,,,,,,,,,,,,,,,,
1665780072.102297,1665780072.103418,37.000000,0.000000,4395.384766,4381.025879,4354.743652,4359.615234,4333.077148,4311.666504,4325.641113,4322.179688,4319.871582,4309.743652,4504.615234,4543.333496,4434.230957,4523.974121,0.000000,2.000000,51.000000,,,,0.000000,4.000000,4.000000,4.000000,4.000000,4.000000,4.000000,4.000000,4.000000,4.000000,4.000000,4.000000,4.000000,4.000000,4.000000,100.000000,,,,,,,,,,,,,,,,,,,,,,,,,,,,,,,,,,,,,,,,,,,,,,,
1665780072.110105,1665780072.111226,38.000000,0.000000,4410.128418,4383.205078,4359.871582,4360.512695,4336.153809,4311.282227,4317.692383,4313.205078,4315.897461,4305.256348,4507.179688,4541.410156,4449.743652,4536.794922,0.000000,2.000000,51.000000,,,,0.000000,4.000000,4.000000,4.000000,4.000000,4.000000,4.000000,4.000000,4.000000,4.000000,4.000000,4.000000,4.000000,4.000000,4.000000,100.000000,,,,,,,,,,,,,,,,,,,,,,,,,,,,,,,,,,,,,,,,,,,,,,,
1665780072.117914,1665780072.118935,39.000000,0.000000,4412.307617,4380.512695,4365.256348,4358.589844,4336.538574,4313.846191,4318.974121,4311.794922,4308.205078,4297.948730,4506.025879,4539.615234,4446.794922,4539.743652,0.000000,2.000000,51.000000,,,,0.000000,4.000000,4.000000,4.000000,4.000000,4.000000,4.000000,4.000000,4.000000,4.000000,4.000000,4.000000,4.000000,4.000000,4.000000,100.000000,,,,,,,,,,,,,,,,,,,,,,,,,,,,,,,,,,,,,,,,,,,,,,,
1665780072.125722,1665780072.126743,40.000000,0.000000,4411.025879,4387.307617,4372.436035,4360.256348,4335.256348,4315.641113,4318.589844,4313.461426,4311.538574,4294.743652,4502.307617,4541.410156,4442.179688,4537.307617,0.000000,2.000000,51.000000,,,,0.000000,4.000000,4.000000,4.000000,4.000000,4.000000,4.000000,4.000000,4.000000,4.000000,4.000000,4.000000,4.000000,4.000000,4.000000,100.000000,,,,,,,,,,,,,,,,,,,,,,,,,,,,,,,,,,,,,,,,,,,,,,,
1665780072.133531,1665780072.134452,41.000000,0.000000,4414.871582,4392.307617,4371.538574,4358.205078,4327.820313,4313.974121,4310.512695,4302.692383,4310.256348,4295.512695,4503.974121,4541.410156,4456.794922,4540.769043,0.000000,2.000000,51.000000,,,,0.000000,4.000000,4.000000,4.000000,4.000000,4.000000,4.000000,4.000000,4.000000,4.000000,4.000000,4.000000,4.000000,4.000000,4.000000,100.000000,,,,,,,,,,,,,,,,,,,,,,,,,,,,,,,,,,,,,,,,,,,,,,,
1665780072.141339,1665780072.142260,42.000000,0.000000,4411.153809,4383.333496,4365.256348,4351.282227,4321.922852,4318.461426,4311.025879,4294.102539,4300.384766,4293.205078,4506.794922,4544.230957,4467.692383,4542.307617,0.000000,2.000000,51.000000,,,,0.000000,4.000000,4.000000,4.000000,4.000000,4.000000,4.000000,4.000000,4.000000,4.000000,4.000000,4.000000,4.000000,4.000000,4.000000,100.000000,,,,,,,,,,,,,,,,,,,,,,,,,,,,,,,,,,,,,,,,,,,,,,,
1665780072.149147,1665780072.149969,43.000000,0.000000,4402.436035,4376.922852,4365.384766,4351.282227,4324.871582,4327.563965,4317.820313,4298.589844,4300.512695,4290.256348,4501.025879,4550.256348,4466.666504,4543.205078,0.000000,2.000000,51.000000,,,,0.000000,4.000000,4.000000,4.000000,4.000000,4.000000,4.000000,4.000000,4.000000,4.000000,4.000000,4.000000,4.000000,4.000000,4.000000,100.000000,,,,,,,,,,,,,,,,,,,,,,,,,,,,,,,,,,,,,,,,,,,,,,,
1665780072.156956,1665780072.157777,44.000000,0.000000,4405.256348,4379.102539,4367.692383,4357.948730,4327.051270,4329.358887,4323.333496,4308.717773,4309.230957,4301.666504,4507.436035,4554.743652,4477.692383,4553.974121,0.000000,2.000000,51.000000,,,,0.000000,4.000000,4.000000,4.000000,4.000000,4.000000,4.000000,4.000000,4.000000,4.000000,4.000000,4.000000,4.000000,4.000000,4.000000,100.000000,,,,,,,,,,,,,,,,,,,,,,,,,,,,,,,,,,,,,,,,,,,,,,,
1665780072.164764,1665780072.165486,45.000000,0.000000,4405.000000,4371.922852,4364.743652,4357.307617,4323.205078,4325.384766,4330.897461,4326.282227,4320.897461,4319.743652,4526.410156,4556.922852,4484.743652,4560.000000,0.000000,2.000000,51.000000,,,,0.000000,4.000000,4.000000,4.000000,4.000000,4.000000,4.000000,4.000000,4.000000,4.000000,4.000000,4.000000,4.000000,4.000000,4.000000,100.000000,,,,,,,,,,,,,,,,,,,,,,,,,,,,,,,,,,,,,,,,,,,,,,,
1665780072.172572,1665780072.173294,46.000000,0.000000,4393.205078,4360.512695,4360.000000,4350.256348,4320.769043,4319.871582,4337.051270,4340.897461,4331.538574,4321.282227,4528.717773,4556.410156,4470.256348,4551.922852,0.000000,2.000000,51.000000,,,,0.000000,4.000000,4.000000,4.000000,4.000000,4.000000,4.000000,4.000000,4.000000,4.000000,4.000000,4.000000,4.000000,4.000000,4.000000,100.000000,,,,,,,,,,,,,,,,,,,,,,,,,,,,,,,,,,,,,,,,,,,,,,,
1665780072.180381,1665780072.181003,47.000000,0.000000,4389.615234,4367.820313,4358.205078,4345.512695,4324.230957,4315.256348,4339.102539,4346.666504,4332.436035,4314.615234,4519.743652,4554.871582,4465.641113,4550.000000,0.000000,2.000000,51.000000,,,,0.000000,4.000000,4.000000,4.000000,4.000000,4.000000,4.000000,4.000000,4.000000,4.000000,4.000000,4.000000,4.000000,4.000000,4.000000,100.000000,,,,,,,,,,,,,,,,,,,,,,,,,,,,,,,,,,,,,,,,,,,,,,,
1665780072.188189,1665780072.188811,48.000000,0.000000,4394.358887,4373.717773,4358.077148,4343.333496,4325.897461,4319.358887,4343.333496,4350.128418,4330.769043,4321.410156,4525.641113,4555.384766,4485.897461,4552.948730,0.000000,2.000000,51.000000,,,,0.000000,4.000000,4.000000,4.000000,4.000000,4.000000,4.000000,4.000000,4.000000,4.000000,4.000000,4.000000,4.000000,4.000000,4.000000,100.000000,,,,,,,,,,,,,,,,,,,,,,,,,,,,,,,,,,,,,,,,,,,,,,,
1665780072.195998,1665780072.196520,49.000000,0.000000,4387.820313,4353.974121,4355.897461,4338.589844,4322.563965,4326.282227,4347.692383,4346.666504,4336.153809,4330.512695,4528.333496,4558.077148,4495.641113,4545.384766,0.000000,2.000000,51.000000,,,,0.000000,4.000000,4.000000,4.000000,4.000000,4.000000,4.000000,4.000000,4.000000,4.000000,4.000000,4.000000,4.000000,4.000000,4.000000,100.000000,,,,,,,,,,,,,,,,,,,,,,,,,,,,,,,,,,,,,,,,,,,,,,,
1665780072.203806,1665780072.204328,50.000000,0.000000,4377.692383,4338.461426,4351.025879,4335.897461,4322.948730,4326.794922,4345.384766,4331.922852,4331.538574,4323.846191,4511.666504,4553.461426,4478.333496,4537.179688,0.000000,2.000000,51.000000,,,,0.000000,4.000000,4.000000,4.000000,4.000000,4.000000,4.000000,4.000000,4.000000,4.000000,4.000000,4.000000,4.000000,4.000000,4.000000,100.000000,,,,,,,,,,,,,,,,,,,,,,,,,,,,,,,,,,,,,,,,,,,,,,,
1665780072.211614,1665780072.212037,51.000000,0.000000,4384.615234,4343.846191,4347.051270,4339.871582,4324.743652,4324.743652,4335.512695,4313.461426,4316.025879,4314.102539,4504.487305,4541.410156,4476.153809,4539.871582,0.000000,2.000000,51.000000,,,,0.000000,4.000000,4.000000,4.000000,4.000000,4.000000,4.000000,4.000000,4.000000,4.000000,4.000000,4.000000,4.000000,4.000000,4.000000,100.000000,,,,,,,,,,,,,,,,,,,,,,,,,,,,,,,,,,,,,,,,,,,,,,,
1665780072.219423,1665780072.219845,52.000000,0.000000,4391.666504,4344.743652,4344.102539,4342.051270,4319.615234,4321.282227,4324.230957,4297.307617,4310.769043,4309.871582,4508.974121,4532.563965,4486.538574,4540.641113,0.000000,2.000000,51.000000,,,,0.000000,4.000000,4.000000,4.000000,4.000000,4.000000,4.000000,4.000000,4.000000,4.000000,4.000000,4.000000,4.000000,4.000000,4.000000,100.000000,,,,,,,,,,,,,,,,,,,,,,,,,,,,,,,,,,,,,,,,,,,,,,,
1665780072.227231,1665780072.227554,53.000000,0.000000,4390.000000,4340.897461,4348.077148,4345.384766,4322.692383,4318.461426,4320.128418,4291.794922,4307.179688,4309.743652,4506.538574,4533.717773,4480.512695,4537.307617,0.000000,2.000000,51.000000,,,,0.000000,4.000000,4.000000,4.000000,4.000000,4.000000,4.000000,4.000000,4.000000,4.000000,4.000000,4.000000,4.000000,4.000000,4.000000,100.000000,,,,,,,,,,,,,,,,,,,,,,,,,,,,,,,,,,,,,,,,,,,,,,,
1665780072.235040,1665780072.235462,54.000000,0.000000,4392.051270,4343.974121,4357.051270,4348.846191,4329.230957,4315.769043,4313.077148,4294.871582,4300.641113,4310.384766,4505.512695,4533.205078,4477.563965,4538.974121,0.000000,2.000000,51.000000,,,,0.000000,4.000000,4.000000,4.000000,4.000000,4.000000,4.000000,4.000000,4.000000,4.000000,4.000000,4.000000,4.000000,4.000000,4.000000,100.000000,,,,,,,,,,,,,,,,,,,,,,,,,,,,,,,,,,,,,,,,,,,,,,,
1665780072.242848,1665780072.243271,55.000000,0.000000,4392.692383,4344.358887,4355.897461,4343.333496,4320.641113,4303.846191,4294.615234,4291.410156,4300.256348,4304.102539,4506.410156,4525.128418,4481.666504,4535.769043,0.000000,2.000000,51.000000,,,,0.000000,4.000000,4.000000,4.000000,4.000000,4.000000,4.000000,4.000000,4.000000,4.000000,4.000000,4.000000,4.000000,4.000000,4.000000,100.000000,,,,,,,,,,,,,,,,,,,,,,,,,,,,,,,,,,,,,,,,,,,,,,,
1665780072.250656,1665780072.251179,56.000000,0.000000,4384.615234,4333.205078,4348.461426,4329.615234,4309.230957,4292.436035,4287.307617,4288.589844,4305.256348,4293.717773,4499.487305,4520.256348,4478.205078,4521.410156,0.000000,2.000000,51.000000,,,,0.000000,4.000000,4.000000,4.000000,4.000000,4.000000,4.000000,4.000000,4.000000,4.000000,4.000000,4.000000,4.000000,4.000000,4.000000,100.000000,,,,,,,,,,,,,,,,,,,,,,,,,,,,,,,,,,,,,,,,,,,,,,,
1665780072.258465,1665780072.258987,57.000000,0.000000,4371.794922,4311.922852,4344.102539,4322.179688,4303.589844,4294.871582,4297.692383,4301.282227,4310.769043,4292.179688,4490.641113,4524.358887,4473.717773,4510.128418,0.000000,2.000000,51.000000,,,,0.000000,4.000000,4.000000,4.000000,4.000000,4.000000,4.000000,4.000000,4.000000,4.000000,4.000000,4.000000,4.000000,4.000000,4.000000,100.000000,,,,,,,,,,,,,,,,,,,,,,,,,,,,,,,,,,,,,,,,,,,,,,,
1665780072.266273,1665780072.266896,58.000000,0.000000,4363.846191,4290.000000,4337.692383,4323.846191,4298.333496,4300.769043,4306.538574,4321.410156,4315.512695,4302.307617,4492.948730,4529.615234,4475.256348,4506.153809,0.000000,2.000000,51.000000,,,,0.000000,4.000000,4.000000,4.000000,4.000000,4.000000,4.000000,4.000000,4.000000,4.000000,4.000000,4.000000,4.000000,4.000000,4.000000,100.000000,,,,,,,,,,,,,,,,,,,,,,,,,,,,,,,,,,,,,,,,,,,,,,,
1665780072.274082,1665780072.274704,59.000000,0.000000,4353.461426,4279.743652,4328.077148,4317.692383,4295.512695,4301.666504,4314.358887,4336.025879,4322.051270,4305.897461,4498.461426,4529.230957,4466.794922,4496.025879,0.000000,2.000000,51.000000,,,,0.000000,4.000000,4.000000,4.000000,4.000000,4.000000,4.000000,4.000000,4.000000,4.000000,4.000000,4.000000,4.000000,4.000000,4.000000,100.000000,,,,,,,,,,,,,,,,,,,,,,,,,,,,,,,,,,,,,,,,,,,,,,,
1665780072.281890,1665780072.282613,60.000000,0.000000,4343.333496,4277.307617,4325.000000,4314.102539,4295.256348,4306.153809,4324.615234,4339.230957,4323.333496,4299.487305,4497.948730,4524.615234,4453.333496,4488.461426,0.000000,2.000000,51.000000,,,,0.000000,4.000000,4.000000,4.000000,4.000000,4.000000,4.000000,4.000000,4.000000,4.000000,4.000000,4.000000,4.000000,4.000000,4.000000,100.000000,,,,,,,,,,,,,,,,,,,,,,,,,,,,,,,,,,,,,,,,,,,,,,,
1665780072.289698,1665780072.290421,61.000000,0.000000,4339.871582,4265.897461,4328.205078,4315.897461,4296.666504,4310.641113,4328.461426,4335.256348,4318.589844,4296.025879,4494.358887,4520.897461,4445.769043,4488.461426,0.000000,2.000000,51.000000,,,,0.000000,4.000000,4.000000,4.000000,4.000000,4.000000,4.000000,4.000000,4.000000,4.000000,4.000000,4.000000,4.000000,4.000000,4.000000,100.000000,,,,,,,,,,,,,,,,,,,,,,,,,,,,,,,,,,,,,,,,,,,,,,,
1665780072.297507,1665780072.298130,62.000000,0.000000,4340.897461,4259.487305,4332.820313,4312.307617,4302.820313,4308.461426,4329.487305,4330.512695,4314.230957,4294.230957,4491.025879,4521.153809,4442.051270,4481.153809,0.000000,2.000000,51.000000,,,,0.000000,4.000000,4.000000,4.000000,4.000000,4.000000,4.000000,4.000000,4.000000,4.000000,4.000000,4.000000,4.000000,4.000000,4.000000,100.000000,,,,,,,,,,,,,,,,,,,,,,,,,,,,,,,,,,,,,,,,,,,,,,,
1665780072.305315,1665780072.305938,63.000000,0.000000,4348.077148,4273.589844,4339.871582,4309.871582,4310.769043,4305.512695,4333.846191,4321.025879,4308.717773,4294.358887,4493.333496,4521.153809,4445.769043,4476.794922,0.000000,2.000000,51.000000,,,,0.000000,4.000000,4.000000,4.000000,4.000000,4.000000,4.000000,4.000000,4.000000,4.000000,4.000000,4.000000,4.000000,4.000000,4.000000,100.000000,,,,,,,,,,,,,,,,,,,,,,,,,,,,,,,,,,,,,,,,,,,,,,,
1665780072.313123,1665780072.313647,64.000000,0.000000,4348.205078,4280.128418,4337.563965,4310.769043,4305.769043,4304.230957,4327.948730,4304.102539,4300.897461,4294.743652,4492.820313,4512.307617,4446.282227,4475.512695,2348.000000,2.000000,51.000000,,,,0.000000,4.000000,4.000000,4.000000,4.000000,4.000000,4.000000,4.000000,4.000000,4.000000,4.000000,4.000000,4.000000,4.000000,4.000000,100.000000,,,,,,,,,,,,,,,,,,,,,,,,,,,,,,,,,,,,,,,,,,,,,,,
1665780072.320932,1665780072.321455,65.000000,0.000000,4335.897461,4268.205078,4328.333496,4311.922852,4298.717773,4305.897461,4315.897461,4283.717773,4293.205078,4287.307617,4481.153809,4497.307617,4438.589844,4464.487305,2338.000000,2.000000,51.000000,,,,0.000000,4.000000,4.000000,4.000000,4.000000,4.000000,4.000000,4.000000,4.000000,4.000000,4.000000,4.000000,4.000000,4.000000,4.000000,100.000000,,,,,,,,,,,,,,,,,,,,,,,,,,,,,,,,,,,,,,,,,,,,,,,
1665780072.328740,1665780072.329164,66.000000,0.000000,4330.000000,4263.461426,4327.436035,4314.102539,4300.128418,4309.102539,4310.000000,4267.307617,4284.615234,4276.794922,4465.512695,4489.743652,4431.025879,4454.230957,2202.000000,2.000000,51.000000,,,,0.000000,4.000000,4.000000,4.000000,4.000000,4.000000,4.000000,4.000000,4.000000,4.000000,4.000000,4.000000,4.000000,4.000000,4.000000,100.000000,,,,,,,,,,,,,,,,,,,,,,,,,,,,,,,,,,,,,,,,,,,,,,,
1665780072.336549,1665780072.336972,67.000000,0.000000,4337.436035,4267.307617,4328.333496,4319.743652,4300.512695,4306.025879,4300.128418,4263.077148,4280.897461,4278.077148,4456.666504,4491.025879,4423.717773,4456.666504,2338.000000,2.000000,51.000000,,,,0.000000,4.000000,4.000000,4.000000,4.000000,4.000000,4.000000,4.000000,4.000000,4.000000,4.000000,4.000000,4.000000,4.000000,4.000000,100.000000,,,,,,,,,,,,,,,,,,,,,,,,,,,,,,,,,,,,,,,,,,,,,,,
1665780072.344357,1665780072.344681,68.000000,0.000000,4339.615234,4265.769043,4326.153809,4323.077148,4302.051270,4297.692383,4287.948730,4272.179688,4288.974121,4282.436035,4461.794922,4489.230957,4416.538574,4456.794922,2292.000000,2.000000,51.000000,,,,0.000000,4.000000,4.000000,4.000000,4.000000,4.000000,4.000000,4.000000,4.000000,4.000000,4.000000,4.000000,4.000000,4.000000,4.000000,100.000000,,,,,,,,,,,,,,,,,,,,,,,,,,,,,,,,,,,,,,,,,,,,,,,
1665780072.352165,1665780072.352489,69.000000,0.000000,4336.025879,4265.256348,4331.538574,4326.153809,4308.077148,4295.000000,4293.717773,4288.461426,4301.025879,4281.794922,4470.897461,4492.051270,4418.205078,4457.948730,2329.000000,2.000000,51.000000,,,,0.000000,4.000000,4.000000,4.000000,4.000000,4.000000,4.000000,4.000000,4.000000,4.000000,4.000000,4.000000,4.000000,4.000000,4.000000,100.000000,1.000000,100.000000,4.000000,4.000000,4.000000,4.000000,4.000000,4.000000,4.000000,4.000000,4.000000,4.000000,4.000000,4.000000,4.000000,4.000000,1.000000,0.207063,-1.067614,-1.327675,0.182808,1.000000,0.302350,3.838468,1.830238,8.472311,0.217668,1.000000,0.476814,74.758842,-33.594582,191.467392,1.000000,0.697059,0.301375,0.090776,0.315142,1.000000,0.579895,6.668766,-4.241082,15.118685,1.000000,0.220194,0.220194,0.000000,1.000000
1665780072.359974,1665780072.360198,70.000000,0.000000,4335.256348,4270.641113,4337.051270,4323.589844,4308.205078,4299.230957,4312.179688,4308.077148,4308.077148,4292.179688,4478.589844,4506.666504,4427.948730,4466.025879,2135.000000,2.000000,51.000000,,,,0.000000,4.000000,4.000000,4.000000,4.000000,4.000000,4.000000,4.000000,4.000000,4.000000,4.000000,4.000000,4.000000,4.000000,4.000000,100.000000,,,,,,,,,,,,,,,,,,,,,,,,,,,,,,,,,,,,,,,,,,,,,,,
1665780072.367782,1665780072.368106,71.000000,0.000000,4326.666504,4264.487305,4329.102539,4312.179688,4299.871582,4303.846191,4326.153809,4327.051270,4310.000000,4295.897461,4485.769043,4512.051270,4423.974121,4457.307617,2019.000000,2.000000,51.000000,,,,0.000000,4.000000,4.000000,4.000000,4.000000,4.000000,4.000000,4.000000,4.000000,4.000000,4.000000,4.000000,4.000000,4.000000,4.000000,100.000000,,,,,,,,,,,,,,,,,,,,,,,,,,,,,,,,,,,,,,,,,,,,,,,
1665780072.375591,1665780072.375914,72.000000,0.000000,4314.102539,4254.102539,4321.794922,4307.692383,4295.641113,4306.025879,4333.589844,4335.641113,4312.692383,4281.794922,4489.871582,4504.615234,4411.410156,4440.512695,1160.000000,2.000000,51.000000,,,,0.000000,4.000000,4.000000,4.000000,4.000000,4.000000,4.000000,4.000000,4.000000,4.000000,4.000000,4.000000,4.000000,4.000000,4.000000,100.000000,,,,,,,,,,,,,,,,,,,,,,,,,,,,,,,,,,,,,,,,,,,,,,,
1665780072.383399,1665780072.383823,73.000000,0.000000,4312.436035,4254.871582,4327.307617,4309.102539,4295.384766,4306.410156,4338.333496,4339.487305,4322.307617,4285.897461,4490.384766,4513.205078,4414.230957,4443.589844,2393.000000,2.000000,51.000000,,,,0.000000,4.000000,4.000000,4.000000,4.000000,4.000000,4.000000,4.000000,4.000000,4.000000,4.000000,4.000000,4.000000,4.000000,4.000000,100.000000,,,,,,,,,,,,,,,,,,,,,,,,,,,,,,,,,,,,,,,,,,,,,,,
1665780072.391207,1665780072.391631,74.000000,0.000000,4320.769043,4259.615234,4336.410156,4315.128418,4294.743652,4306.666504,4336.922852,4344.615234,4326.794922,4304.743652,4492.051270,4531.666504,4422.179688,4457.179688,2661.000000,2.000000,51.000000,,,,0.000000,4.000000,4.000000,4.000000,4.000000,4.000000,4.000000,4.000000,4.000000,4.000000,4.000000,4.000000,4.000000,4.000000,4.000000,100.000000,,,,,,,,,,,,,,,,,,,,,,,,,,,,,,,,,,,,,,,,,,,,,,,
1665780072.399016,1665780072.399440,75.000000,0.000000,4330.897461,4260.256348,4340.000000,4325.512695,4300.512695,4307.563965,4331.410156,4341.538574,4316.922852,4303.333496,4494.358887,4531.025879,4418.717773,4460.769043,2615.000000,2.000000,51.000000,,,,0.000000,4.000000,4.000000,4.000000,4.000000,4.000000,4.000000,4.000000,4.000000,4.000000,4.000000,4.000000,4.000000,4.000000,4.000000,100.000000,,,,,,,,,,,,,,,,,,,,,,,,,,,,,,,,,,,,,,,,,,,,,,,
1665780072.406824,1665780072.407148,76.000000,0.000000,4332.051270,4260.641113,4339.487305,4326.410156,4306.410156,4306.025879,4325.000000,4328.461426,4311.282227,4295.512695,4490.897461,4521.794922,4409.615234,4457.307617,2787.000000,2.000000,51.000000,,,,0.000000,4.000000,4.000000,4.000000,4.000000,4.000000,4.000000,4.000000,4.000000,4.000000,4.000000,4.000000,4.000000,4.000000,4.000000,100.000000,,,,,,,,,,,,,,,,,,,,,,,,,,,,,,,,,,,,,,,,,,,,,,,
1665780072.414632,1665780072.414957,77.000000,0.000000,4327.051270,4260.384766,4343.333496,4320.256348,4308.205078,4301.153809,4321.025879,4316.153809,4313.717773,4298.589844,4489.743652,4523.077148,4408.846191,4459.102539,3051.000000,2.000000,51.000000,,,,0.000000,4.000000,4.000000,4.000000,4.000000,4.000000,4.000000,4.000000,4.000000,4.000000,4.000000,4.000000,4.000000,4.000000,4.000000,100.000000,,,,,,,,,,,,,,,,,,,,,,,,,,,,,,,,,,,,,,,,,,,,,,,
1665780072.422441,1665780072.422665,78.000000,0.000000,4330.769043,4258.717773,4350.641113,4321.282227,4309.743652,4296.666504,4316.922852,4311.153809,4310.128418,4298.333496,4493.333496,4521.922852,4414.358887,4457.820313,2661.000000,2.000000,51.000000,,,,0.000000,4.000000,4.000000,4.000000,4.000000,4.000000,4.000000,4.000000,4.000000,4.000000,4.000000,4.000000,4.000000,4.000000,4.000000,100.000000,,,,,,,,,,,,,,,,,,,,,,,,,,,,,,,,,,,,,,,,,,,,,,,
1665780072.430249,1665780072.430574,79.000000,0.000000,4336.153809,4270.256348,4350.897461,4327.307617,4310.000000,4295.000000,4303.846191,4304.743652,4302.563965,4295.000000,4492.051270,4511.794922,4413.205078,4448.717773,2615.000000,2.000000,51.000000,,,,0.000000,4.000000,4.000000,4.000000,4.000000,4.000000,4.000000,4.000000,4.000000,4.000000,4.000000,4.000000,4.000000,4.000000,4.000000,100.000000,,,,,,,,,,,,,,,,,,,,,,,,,,,,,,,,,,,,,,,,,,,,,,,
1665780072.438058,1665780072.438382,80.000000,0.000000,4334.230957,4280.641113,4345.000000,4325.000000,4308.846191,4296.153809,4290.384766,4292.820313,4299.871582,4296.538574,4489.487305,4507.692383,4410.769043,4441.666504,2787.000000,2.000000,51.000000,,,,0.000000,4.000000,4.000000,4.000000,4.000000,4.000000,4.000000,4.000000,4.000000,4.000000,4.000000,4.000000,4.000000,4.000000,4.000000,100.000000,,,,,,,,,,,,,,,,,,,,,,,,,,,,,,,,,,,,,,,,,,,,,,,
1665780072.445866,1665780072.446290,81.000000,0.000000,4328.461426,4271.025879,4339.871582,4320.128418,4310.256348,4303.461426,4296.666504,4290.384766,4304.230957,4295.512695,4488.974121,4511.153809,4414.743652,4444.615234,3051.000000,2.000000,51.000000,,,,0.000000,4.000000,4.000000,4.000000,4.000000,4.000000,4.000000,4.000000,4.000000,4.000000,4.000000,4.000000,4.000000,4.000000,4.000000,100.000000,,,,,,,,,,,,,,,,,,,,,,,,,,,,,,,,,,,,,,,,,,,,,,,
1665780072.453674,1665780072.454099,82.000000,0.000000,4319.230957,4261.410156,4334.102539,4319.358887,4312.948730,4312.563965,4315.256348,4302.051270,4308.461426,4294.230957,4482.179688,4510.000000,4409.487305,4443.205078,2661.000000,2.000000,51.000000,,,,0.000000,4.000000,4.000000,4.000000,4.000000,4.000000,4.000000,4.000000,4.000000,4.000000,4.000000,4.000000,4.000000,4.000000,4.000000,100.000000,,,,,,,,,,,,,,,,,,,,,,,,,,,,,,,,,,,,,,,,,,,,,,,
1665780072.461483,1665780072.462007,83.000000,0.000000,4307.563965,4255.128418,4326.282227,4314.615234,4308.717773,4314.358887,4323.589844,4312.563965,4310.641113,4295.128418,4475.897461,4505.256348,4395.512695,4431.538574,2615.000000,2.000000,51.000000,,,,0.000000,4.000000,4.000000,4.000000,4.000000,4.000000,4.000000,4.000000,4.000000,4.000000,4.000000,4.000000,4.000000,4.000000,4.000000,100.000000,,,,,,,,,,,,,,,,,,,,,,,,,,,,,,,,,,,,,,,,,,,,,,,
1665780072.469291,1665780072.469816,84.000000,0.000000,4305.256348,4248.333496,4323.461426,4309.487305,4305.000000,4312.436035,4325.512695,4325.000000,4317.692383,4295.128418,4481.538574,4505.128418,4392.820313,4426.282227,2787.000000,2.000000,51.000000,,,,0.000000,4.000000,4.000000,4.000000,4.000000,4.000000,4.000000,4.000000,4.000000,4.000000,4.000000,4.000000,4.000000,4.000000,4.000000,100.000000,,,,,,,,,,,,,,,,,,,,,,,,,,,,,,,,,,,,,,,,,,,,,,,
1665780072.477100,1665780072.477724,85.000000,0.000000,4309.358887,4248.333496,4326.666504,4314.358887,4308.077148,4311.410156,4333.461426,4345.641113,4326.538574,4295.384766,4489.487305,4507.051270,4396.025879,4430.897461,3051.000000,2.000000,51.000000,,,,0.000000,4.000000,4.000000,4.000000,4.000000,4.000000,4.000000,4.000000,4.000000,4.000000,4.000000,4.000000,4.000000,4.000000,4.000000,100.000000,,,,,,,,,,,,,,,,,,,,,,,,,,,,,,,,,,,,,,,,,,,,,,,
1665780072.484908,1665780072.485532,86.000000,0.000000,4310.000000,4260.641113,4328.974121,4320.384766,4309.102539,4311.153809,4337.948730,4354.743652,4328.461426,4298.846191,4499.358887,4514.743652,4394.358887,4434.615234,2661.000000,2.000000,51.000000,,,,0.000000,4.000000,4.000000,4.000000,4.000000,4.000000,4.000000,4.000000,4.000000,4.000000,4.000000,4.000000,4.000000,4.000000,4.000000,100.000000,,,,,,,,,,,,,,,,,,,,,,,,,,,,,,,,,,,,,,,,,,,,,,,
1665780072.492716,1665780072.493241,87.000000,0.000000,4308.589844,4271.410156,4332.307617,4318.333496,4306.922852,4311.538574,4334.615234,4347.563965,4327.051270,4302.692383,4505.769043,4522.436035,4395.641113,4430.384766,2615.000000,2.000000,51.000000,,,,0.000000,4.000000,4.000000,4.000000,4.000000,4.000000,4.000000,4.000000,4.000000,4.000000,4.000000,4.000000,4.000000,4.000000,4.000000,100.000000,,,,,,,,,,,,,,,,,,,,,,,,,,,,,,,,,,,,,,,,,,,,,,,
1665780072.500525,1665780072.501149,88.000000,0.000000,4310.897461,4279.743652,4338.205078,4318.333496,4307.179688,4311.153809,4334.615234,4337.436035,4325.384766,4307.948730,4498.205078,4520.256348,4402.179688,4429.102539,2787.000000,2.000000,51.000000,,,,0.000000,4.000000,4.000000,4.000000,4.000000,4.000000,4.000000,4.000000,4.000000,4.000000,4.000000,4.000000,4.000000,4.000000,4.000000,100.000000,,,,,,,,,,,,,,,,,,,,,,,,,,,,,,,,,,,,,,,,,,,,,,,
1665780072.508333,1665780072.508958,89.000000,0.000000,4319.615234,4287.563965,4342.692383,4327.820313,4309.743652,4312.051270,4336.922852,4333.589844,4325.512695,4317.051270,4494.487305,4523.205078,4409.230957,4437.820313,3051.000000,2.000000,51.000000,,,,0.000000,4.000000,4.000000,4.000000,4.000000,4.000000,4.000000,4.000000,4.000000,4.000000,4.000000,4.000000,4.000000,4.000000,4.000000,100.000000,,,,,,,,,,,,,,,,,,,,,,,,,,,,,,,,,,,,,,,,,,,,,,,
1665780072.516142,1665780072.516766,90.000000,0.000000,4327.948730,4288.717773,4344.358887,4334.358887,4315.641113,4313.589844,4331.666504,4330.897461,4326.922852,4318.461426,4503.846191,4531.666504,4414.358887,4446.025879,2661.000000,2.000000,51.000000,,,,0.000000,4.000000,4.000000,4.000000,4.000000,4.000000,4.000000,4.000000,4.000000,4.000000,4.000000,4.000000,4.000000,4.000000,4.000000,100.000000,,,,,,,,,,,,,,,,,,,,,,,,,,,,,,,,,,,,,,,,,,,,,,,
1665780072.523950,1665780072.524475,91.000000,0.000000,4329.487305,4292.051270,4344.230957,4336.794922,4321.794922,4312.051270,4321.282227,4319.487305,4320.897461,4312.051270,4507.179688,4530.769043,4415.769043,4450.641113,2615.000000,2.000000,51.000000,,,,0.000000,4.000000,4.000000,4.000000,4.000000,4.000000,4.000000,4.000000,4.000000,4.000000,4.000000,4.000000,4.000000,4.000000,4.000000,100.000000,,,,,,,,,,,,,,,,,,,,,,,,,,,,,,,,,,,,,,,,,,,,,,,
1665780072.531758,1665780072.532283,92.000000,0.000000,4328.461426,4295.256348,4343.077148,4339.358887,4320.000000,4309.487305,4316.666504,4300.897461,4310.897461,4308.589844,4503.333496,4522.436035,4415.256348,4457.051270,2787.000000,2.000000,51.000000,,,,0.000000,4.000000,4.000000,4.000000,4.000000,4.000000,4.000000,4.000000,4.000000,4.000000,4.000000,4.000000,4.000000,4.000000,4.000000,100.000000,,,,,,,,,,,,,,,,,,,,,,,,,,,,,,,,,,,,,,,,,,,,,,,
1665780072.539567,1665780072.539992,93.000000,0.000000,4327.051270,4295.512695,4340.128418,4338.077148,4316.794922,4313.077148,4320.000000,4288.589844,4306.410156,4300.384766,4502.563965,4514.102539,4411.794922,4461.794922,3051.000000,2.000000,51.000000,1,1,1,0.000000,4.000000,4.000000,4.000000,4.000000,4.000000,4.000000,4.000000,4.000000,4.000000,4.000000,4.000000,4.000000,4.000000,4.000000,100.000000,,,,,,,,,,,,,,,,,,,,,,,,,,,,,,,,,,,,,,,,,,,,,,,
1665780072.547375,1665780072.547800,94.000000,0.000000,4327.820313,4301.666504,4340.384766,4333.717773,4322.563965,4318.333496,4324.871582,4296.153809,4307.436035,4289.230957,4500.512695,4506.538574,4406.794922,4458.205078,2661.000000,2.000000,51.000000,,,,0.000000,4.000000,4.000000,4.000000,4.000000,4.000000,4.000000,4.000000,4.000000,4.000000,4.000000,4.000000,4.000000,4.000000,4.000000,100.000000,,,,,,,,,,,,,,,,,,,,,,,,,,,,,,,,,,,,,,,,,,,,,,,
1665780072.555184,1665780072.555509,95.000000,0.000000,4334.487305,4315.000000,4343.205078,4334.358887,4327.051270,4321.153809,4328.974121,4319.871582,4314.743652,4294.230957,4506.794922,4509.743652,4415.000000,4460.769043,2615.000000,2.000000,51.000000,,,,0.000000,4.000000,4.000000,4.000000,4.000000,4.000000,4.000000,4.000000,4.000000,4.000000,4.000000,4.000000,4.000000,4.000000,4.000000,100.000000,,,,,,,,,,,,,,,,,,,,,,,,,,,,,,,,,,,,,,,,,,,,,,,
1665780072.562992,1665780072.563317,96.000000,0.000000,4330.769043,4308.589844,4334.871582,4328.846191,4316.794922,4320.384766,4329.102539,4335.512695,4324.358887,4294.230957,4502.307617,4514.871582,4415.128418,4459.230957,2787.000000,2.000000,51.000000,,,,0.000000,4.000000,4.000000,4.000000,4.000000,4.000000,4.000000,4.000000,4.000000,4.000000,4.000000,4.000000,4.000000,4.000000,4.000000,100.000000,,,,,,,,,,,,,,,,,,,,,,,,,,,,,,,,,,,,,,,,,,,,,,,
1665780072.570800,1665780072.571026,97.000000,0.000000,4319.358887,4288.205078,4324.102539,4315.769043,4304.743652,4313.974121,4327.563965,4338.589844,4327.051270,4281.922852,4486.410156,4513.974121,4404.102539,4453.205078,3051.000000,2.000000,51.000000,,,,0.000000,4.000000,4.000000,4.000000,4.000000,4.000000,4.000000,4.000000,4.000000,4.000000,4.000000,4.000000,4.000000,4.000000,4.000000,100.000000,,,,,,,,,,,,,,,,,,,,,,,,,,,,,,,,,,,,,,,,,,,,,,,
1665780072.578609,1665780072.578834,98.000000,0.000000,4336.282227,4301.410156,4335.512695,4328.461426,4311.794922,4312.692383,4334.102539,4352.820313,4331.025879,4299.743652,4506.025879,4527.820313,4429.871582,4474.487305,2661.000000,2.000000,51.000000,,,,0.000000,4.000000,4.000000,4.000000,4.000000,4.000000,4.000000,4.000000,4.000000,4.000000,4.000000,4.000000,4.000000,4.000000,4.000000,100.000000,,,,,,,,,,,,,,,,,,,,,,,,,,,,,,,,,,,,,,,,,,,,,,,
1665780072.586417,1665780072.586543,99.000000,0.000000,4360.000000,4326.538574,4349.487305,4348.205078,4318.205078,4316.538574,4338.333496,4369.230957,4341.410156,4325.769043,4530.641113,4543.589844,4459.487305,4497.948730,2615.000000,2.000000,51.000000,,,,0.000000,4.000000,4.000000,4.000000,4.000000,4.000000,4.000000,4.000000,4.000000,4.000000,4.000000,4.000000,4.000000,4.000000,4.000000,100.000000,,,,,,,,,,,,,,,,,,,,,,,,,,,,,,,,,,,,,,,,,,,,,,,
1665780072.594226,1665780072.594351,100.000000,0.000000,4363.333496,4328.717773,4346.282227,4347.051270,4312.179688,4313.974121,4332.563965,4369.102539,4344.230957,4323.717773,4526.410156,4541.666504,4451.282227,4498.589844,2787.000000,2.000000,51.000000,,,,0.000000,4.000000,4.000000,4.000000,4.000000,4.000000,4.000000,4.000000,4.000000,4.000000,4.000000,4.000000,4.000000,4.000000,4.000000,100.000000,,,,,,,,,,,,,,,,,,,,,,,,,,,,,,,,,,,,,,,,,,,,,,,
1665780072.602034,1665780072.602060,101.000000,0.000000,4365.128418,4327.436035,4349.102539,4345.641113,4311.153809,4305.641113,4324.102539,4361.025879,4340.128418,4320.384766,4531.922852,4538.333496,4450.256348,4501.794922,3051.000000,2.000000,51.000000,,,,0.000000,4.000000,4.000000,4.000000,4.000000,4.000000,4.000000,4.000000,4.000000,4.000000,4.000000,4.000000,4.000000,4.000000,4.000000,100.000000,,,,,,,,,,,,,,,,,,,,,,,,,,,,,,,,,,,,,,,,,,,,,,,
1665780072.609842,1665780072.609968,102.000000,0.000000,4368.077148,4337.692383,4359.743652,4349.871582,4315.256348,4302.563965,4316.538574,4350.128418,4335.128418,4327.051270,4544.230957,4540.512695,4469.230957,4512.179688,2661.000000,2.000000,51.000000,,,,0.000000,4.000000,4.000000,4.000000,4.000000,4.000000,4.000000,4.000000,4.000000,4.000000,4.000000,4.000000,4.000000,4.000000,4.000000,100.000000,,,,,,,,,,,,,,,,,,,,,,,,,,,,,,,,,,,,,,,,,,,,,,,
1665780072.617651,1665780072.617776,103.000000,0.000000,4366.666504,4341.794922,4360.128418,4346.666504,4315.384766,4306.282227,4309.358887,4332.563965,4323.077148,4318.717773,4533.205078,4541.922852,4466.794922,4508.077148,2615.000000,2.000000,51.000000,,,,0.000000,4.000000,4.000000,4.000000,4.000000,4.000000,4.000000,4.000000,4.000000,4.000000,4.000000,4.000000,4.000000,4.000000,4.000000,100.000000,,,,,,,,,,,,,,,,,,,,,,,,,,,,,,,,,,,,,,,,,,,,,,,
1665780072.625459,1665780072.625685,104.000000,0.000000,4366.666504,4331.794922,4359.230957,4340.256348,4310.897461,4309.358887,4308.077148,4312.179688,4309.615234,4299.743652,4518.077148,4534.871582,4448.333496,4495.769043,2787.000000,2.000000,51.000000,,,,0.000000,4.000000,4.000000,4.000000,4.000000,4.000000,4.000000,4.000000,4.000000,4.000000,4.000000,4.000000,4.000000,4.000000,4.000000,100.000000,,,,,,,,,,,,,,,,,,,,,,,,,,,,,,,,,,,,,,,,,,,,,,,
1665780072.633268,1665780072.633493,105.000000,0.000000,4364.230957,4323.717773,4357.563965,4339.230957,4307.307617,4314.615234,4316.282227,4292.692383,4305.384766,4290.641113,4514.487305,4523.717773,4448.333496,4491.153809,3051.000000,2.000000,51.000000,,,,0.000000,4.000000,4.000000,4.000000,4.000000,4.000000,4.000000,4.000000,4.000000,4.000000,4.000000,4.000000,4.000000,4.000000,4.000000,100.000000,,,,,,,,,,,,,,,,,,,,,,,,,,,,,,,,,,,,,,,,,,,,,,,
1665780072.641076,1665780072.641402,106.000000,0.000000,4362.692383,4325.769043,4350.641113,4340.769043,4311.922852,4326.538574,4331.922852,4287.436035,4307.563965,4294.871582,4516.153809,4527.307617,4457.820313,4496.666504,2661.000000,2.000000,51.000000,,,,0.000000,4.000000,4.000000,4.000000,4.000000,4.000000,4.000000,4.000000,4.000000,4.000000,4.000000,4.000000,4.000000,4.000000,4.000000,100.000000,,,,,,,,,,,,,,,,,,,,,,,,,,,,,,,,,,,,,,,,,,,,,,,
1665780072.648884,1665780072.649210,107.000000,0.000000,4370.641113,4327.692383,4347.692383,4345.769043,4320.128418,4336.153809,4346.282227,4304.487305,4314.487305,4305.256348,4519.615234,4537.436035,4455.128418,4505.897461,2615.000000,2.000000,51.000000,,,,0.000000,4.000000,4.000000,4.000000,4.000000,4.000000,4.000000,4.000000,4.000000,4.000000,4.000000,4.000000,4.000000,4.000000,4.000000,100.000000,,,,,,,,,,,,,,,,,,,,,,,,,,,,,,,,,,,,,,,,,,,,,,,
1665780072.656693,1665780072.657118,108.000000,0.000000,4368.333496,4316.922852,4346.282227,4341.025879,4317.692383,4330.512695,4347.051270,4325.256348,4325.128418,4304.230957,4516.538574,4529.871582,4441.282227,4497.051270,2787.000000,2.000000,51.000000,,,,0.000000,4.000000,4.000000,4.000000,4.000000,4.000000,4.000000,4.000000,4.000000,4.000000,4.000000,4.000000,4.000000,4.000000,4.000000,100.000000,,,,,,,,,,,,,,,,,,,,,,,,,,,,,,,,,,,,,,,,,,,,,,,
1665780072.664501,1665780072.664927,109.000000,0.000000,4348.974121,4306.153809,4339.487305,4326.922852,4306.410156,4316.282227,4338.461426,4338.974121,4328.846191,4294.871582,4516.025879,4517.692383,4430.641113,4477.051270,3051.000000,2.000000,51.000000,,,,0.000000,4.000000,4.000000,4.000000,4.000000,4.000000,4.000000,4.000000,4.000000,4.000000,4.000000,4.000000,4.000000,4.000000,4.000000,100.000000,,,,,,,,,,,,,,,,,,,,,,,,,,,,,,,,,,,,,,,,,,,,,,,
1665780072.672310,1665780072.672835,110.000000,0.000000,4342.051270,4311.666504,4339.743652,4326.794922,4305.897461,4304.230957,4332.051270,4351.794922,4326.538574,4291.410156,4522.948730,4521.666504,4429.358887,4472.307617,2661.000000,2.000000,51.000000,,,,0.000000,4.000000,4.000000,4.000000,4.000000,4.000000,4.000000,4.000000,4.000000,4.000000,4.000000,4.000000,4.000000,4.000000,4.000000,100.000000,,,,,,,,,,,,,,,,,,,,,,,,,,,,,,,,,,,,,,,,,,,,,,,
1665780072.680118,1665780072.680644,111.000000,0.000000,4343.717773,4314.358887,4344.743652,4328.077148,4306.025879,4296.410156,4328.461426,4358.974121,4330.512695,4292.948730,4524.358887,4530.641113,4433.589844,4475.384766,2615.000000,2.000000,51.000000,,,,0.000000,4.000000,4.000000,4.000000,4.000000,4.000000,4.000000,4.000000,4.000000,4.000000,4.000000,4.000000,4.000000,4.000000,4.000000,100.000000,,,,,,,,,,,,,,,,,,,,,,,,,,,,,,,,,,,,,,,,,,,,,,,
1665780072.687926,1665780072.688352,112.000000,0.000000,4335.897461,4308.717773,4342.820313,4321.025879,4299.230957,4299.102539,4326.794922,4362.307617,4336.794922,4306.153809,4533.846191,4538.077148,4446.538574,4473.589844,2787.000000,2.000000,51.000000,,,,0.000000,4.000000,4.000000,4.000000,4.000000,4.000000,4.000000,4.000000,4.000000,4.000000,4.000000,4.000000,4.000000,4.000000,4.000000,100.000000,,,,,,,,,,,,,,,,,,,,,,,,,,,,,,,,,,,,,,,,,,,,,,,
1665780072.695735,1665780072.696161,113.000000,0.000000,4325.769043,4305.641113,4337.563965,4318.974121,4299.487305,4302.307617,4318.333496,4358.077148,4334.358887,4318.077148,4540.384766,4543.205078,4446.153809,4470.512695,3051.000000,2.000000,51.000000,,,,0.000000,4.000000,4.000000,4.000000,4.000000,4.000000,4.000000,4.000000,4.000000,4.000000,4.000000,4.000000,4.000000,4.000000,4.000000,100.000000,,,,,,,,,,,,,,,,,,,,,,,,,,,,,,,,,,,,,,,,,,,,,,,
1665780072.703543,1665780072.703869,114.000000,0.000000,4328.077148,4311.794922,4339.230957,4329.487305,4307.948730,4302.948730,4305.641113,4341.538574,4323.077148,4316.025879,4527.051270,4540.256348,4432.563965,4473.077148,2661.000000,2.000000,51.000000,,,,0.000000,4.000000,4.000000,4.000000,4.000000,4.000000,4.000000,4.000000,4.000000,4.000000,4.000000,4.000000,4.000000,4.000000,4.000000,100.000000,,,,,,,,,,,,,,,,,,,,,,,,,,,,,,,,,,,,,,,,,,,,,,,
1665780072.711352,1665780072.711678,115.000000,0.000000,4334.615234,4318.974121,4343.717773,4337.436035,4312.563965,4307.820313,4302.179688,4326.153809,4313.589844,4309.230957,4517.948730,4531.153809,4427.692383,4472.307617,2615.000000,2.000000,51.000000,,,,0.000000,4.000000,4.000000,4.000000,4.000000,4.000000,4.000000,4.000000,4.000000,4.000000,4.000000,4.000000,4.000000,4.000000,4.000000,100.000000,,,,,,,,,,,,,,,,,,,,,,,,,,,,,,,,,,,,,,,,,,,,,,,
1665780072.719160,1665780072.719386,116.000000,0.000000,4330.769043,4316.922852,4341.922852,4335.384766,4311.794922,4306.153809,4303.333496,4316.153809,4311.666504,4303.846191,4516.282227,4518.846191,4418.589844,4459.358887,2787.000000,2.000000,51.000000,,,,0.000000,4.000000,4.000000,4.000000,4.000000,4.000000,4.000000,4.000000,4.000000,4.000000,4.000000,4.000000,4.000000,4.000000,4.000000,100.000000,,,,,,,,,,,,,,,,,,,,,,,,,,,,,,,,,,,,,,,,,,,,,,,
1665780072.726968,1665780072.727195,117.000000,0.000000,4320.384766,4309.615234,4332.563965,4327.436035,4311.922852,4300.128418,4304.743652,4302.051270,4311.794922,4290.384766,4503.205078,4505.128418,4401.153809,4443.205078,3051.000000,2.000000,51.000000,,,,0.000000,4.000000,4.000000,4.000000,4.000000,4.000000,4.000000,4.000000,4.000000,4.000000,4.000000,4.000000,4.000000,4.000000,4.000000,100.000000,,,,,,,,,,,,,,,,,,,,,,,,,,,,,,,,,,,,,,,,,,,,,,,
1665780072.734777,1665780072.734903,118.000000,0.000000,4312.692383,4304.871582,4326.153809,4317.307617,4311.025879,4306.922852,4316.666504,4289.230957,4308.461426,4276.025879,4489.102539,4496.025879,4390.128418,4431.666504,2661.000000,2.000000,51.000000,,,,0.000000,4.000000,4.000000,4.000000,4.000000,4.000000,4.000000,4.000000,4.000000,4.000000,4.000000,4.000000,4.000000,4.000000,4.000000,100.000000,,,,,,,,,,,,,,,,,,,,,,,,,,,,,,,,,,,,,,,,,,,,,,,
1665780072.742585,1665780072.742811,119.000000,0.000000,4312.179688,4302.692383,4325.897461,4317.307617,4311.666504,4319.358887,4333.333496,4291.025879,4306.282227,4283.077148,4490.769043,4493.589844,4389.102539,4428.077148,2615.000000,2.000000,51.000000,,,,0.000000,4.000000,4.000000,4.000000,4.000000,4.000000,4.000000,4.000000,4.000000,4.000000,4.000000,4.000000,4.000000,4.000000,4.000000,100.000000,,,,,,,,,,,,,,,,,,,,,,,,,,,,,,,,,,,,,,,,,,,,,,,
1665780072.750394,1665780072.750620,120.000000,0.000000,4311.922852,4297.563965,4321.794922,4319.102539,4314.615234,4321.666504,4338.846191,4301.922852,4309.743652,4296.410156,4494.102539,4494.102539,4389.102539,4427.307617,2787.000000,2.000000,51.000000,,,,0.000000,4.000000,4.000000,4.000000,4.000000,4.000000,4.000000,4.000000,4.000000,4.000000,4.000000,4.000000,4.000000,4.000000,4.000000,100.000000,,,,,,,,,,,,,,,,,,,,,,,,,,,,,,,,,,,,,,,,,,,,,,,
1665780072.758202,1665780072.758428,121.000000,0.000000,4303.974121,4293.333496,4313.333496,4313.461426,4311.794922,4318.974121,4332.563965,4310.512695,4313.461426,4289.615234,4489.615234,4491.794922,4382.436035,4417.307617,3051.000000,2.000000,51.000000,,,,0.000000,4.000000,4.000000,4.000000,4.000000,4.000000,4.000000,4.000000,4.000000,4.000000,4.000000,4.000000,4.000000,4.000000,4.000000,100.000000,,,,,,,,,,,,,,,,,,,,,,,,,,,,,,,,,,,,,,,,,,,,,,,
1665780072.766010,1665780072.766137,122.000000,0.000000,4302.051270,4294.871582,4309.102539,4317.179688,4308.589844,4312.563965,4323.205078,4319.358887,4313.974121,4278.717773,4485.641113,4493.589844,4374.102539,4411.922852,2661.000000,2.000000,51.000000,,,,0.000000,4.000000,4.000000,4.000000,4.000000,4.000000,4.000000,4.000000,4.000000,4.000000,4.000000,4.000000,4.000000,4.000000,4.000000,100.000000,,,,,,,,,,,,,,,,,,,,,,,,,,,,,,,,,,,,,,,,,,,,,,,
1665780072.773819,1665780072.774045,123.000000,0.000000,4305.128418,4295.384766,4316.282227,4328.077148,4310.256348,4301.410156,4316.922852,4335.128418,4320.000000,4290.512695,4488.717773,4503.589844,4368.589844,4421.153809,2615.000000,2.000000,51.000000,,,,0.000000,4.000000,4.000000,4.000000,4.000000,4.000000,4.000000,4.000000,4.000000,4.000000,4.000000,4.000000,4.000000,4.000000,4.000000,100.000000,,,,,,,,,,,,,,,,,,,,,,,,,,,,,,,,,,,,,,,,,,,,,,,
1665780072.781627,1665780072.781854,124.000000,0.000000,4301.538574,4293.974121,4325.128418,4324.102539,4312.436035,4294.615234,4312.436035,4349.358887,4328.717773,4298.846191,4495.769043,4512.820313,4368.077148,4425.384766,2787.000000,2.000000,51.000000,,,,0.000000,4.000000,4.000000,4.000000,4.000000,4.000000,4.000000,4.000000,4.000000,4.000000,4.000000,4.000000,4.000000,4.000000,4.000000,100.000000,,,,,,,,,,,,,,,,,,,,,,,,,,,,,,,,,,,,,,,,,,,,,,,
1665780072.789435,1665780072.789662,125.000000,0.000000,4295.256348,4290.769043,4323.461426,4310.512695,4310.769043,4291.410156,4307.820313,4345.128418,4323.205078,4282.051270,4492.436035,4507.692383,4362.436035,4413.461426,3051.000000,2.000000,51.000000,,,,0.000000,4.000000,4.000000,4.000000,4.000000,4.000000,4.000000,4.000000,4.000000,4.000000,4.000000,4.000000,4.000000,4.000000,4.000000,100.000000,,,,,,,,,,,,,,,,,,,,,,,,,,,,,,,,,,,,,,,,,,,,,,,
1665780072.797244,1665780072.797371,126.000000,0.000000,4288.589844,4291.025879,4319.358887,4308.461426,4306.153809,4289.743652,4306.666504,4333.077148,4312.179688,4274.487305,4479.743652,4494.487305,4356.153809,4401.153809,2661.000000,2.000000,51.000000,,,,0.000000,4.000000,4.000000,4.000000,4.000000,4.000000,4.000000,4.000000,4.000000,4.000000,4.000000,4.000000,4.000000,4.000000,4.000000,100.000000,,,,,,,,,,,,,,,,,,,,,,,,,,,,,,,,,,,,,,,,,,,,,,,
1665780072.805052,1665780072.805279,127.000000,0.000000,4280.641113,4291.025879,4316.666504,4307.436035,4301.153809,4290.769043,4309.615234,4325.000000,4307.563965,4282.563965,4471.794922,4490.256348,4355.512695,4395.769043,51.000000,2.000000,51.000000,,,,0.000000,4.000000,4.000000,4.000000,4.000000,4.000000,4.000000,4.000000,4.000000,4.000000,4.000000,4.000000,4.000000,4.000000,4.000000,100.000000,,,,,,,,,,,,,,,,,,,,,,,,,,,,,,,,,,,,,,,,,,,,,,,
1665780072.812861,1665780072.813088,0.000000,0.000000,4278.461426,4290.256348,4313.846191,4307.436035,4304.487305,4300.512695,4309.871582,4315.641113,4301.153809,4284.487305,4474.871582,4494.358887,4355.641113,4395.256348,2327.000000,2.000000,51.000000,,,,0.000000,4.000000,4.000000,4.000000,4.000000,4.000000,4.000000,4.000000,4.000000,4.000000,4.000000,4.000000,4.000000,4.000000,4.000000,100.000000,,,,,,,,,,,,,,,,,,,,,,,,,,,,,,,,,,,,,,,,,,,,,,,
1665780072.820669,1665780072.820996,1.000000,0.000000,4282.692383,4292.820313,4311.410156,4316.666504,4317.051270,4315.128418,4311.153809,4300.512695,4295.641113,4280.000000,4473.077148,4489.615234,4352.307617,4395.512695,2312.000000,2.000000,51.000000,,,,0.000000,4.000000,4.000000,4.000000,4.000000,4.000000,4.000000,4.000000,4.000000,4.000000,4.000000,4.000000,4.000000,4.000000,4.000000,100.000000,,,,,,,,,,,,,,,,,,,,,,,,,,,,,,,,,,,,,,,,,,,,,,,
1665780072.828477,1665780072.828804,2.000000,0.000000,4282.563965,4294.743652,4310.512695,4321.025879,4327.436035,4324.871582,4318.077148,4284.102539,4295.128418,4277.820313,4462.692383,4476.666504,4344.743652,4391.794922,2197.000000,2.000000,51.000000,,,,0.000000,4.000000,4.000000,4.000000,4.000000,4.000000,4.000000,4.000000,4.000000,4.000000,4.000000,4.000000,4.000000,4.000000,4.000000,100.000000,,,,,,,,,,,,,,,,,,,,,,,,,,,,,,,,,,,,,,,,,,,,,,,
1665780072.836286,1665780072.836713,3.000000,0.000000,4279.615234,4295.000000,4312.307617,4322.051270,4326.666504,4325.000000,4326.282227,4280.384766,4295.128418,4275.769043,4461.153809,4470.897461,4341.025879,4387.436035,2306.000000,2.000000,51.000000,,,,0.000000,4.000000,4.000000,4.000000,4.000000,4.000000,4.000000,4.000000,4.000000,4.000000,4.000000,4.000000,4.000000,4.000000,4.000000,100.000000,,,,,,,,,,,,,,,,,,,,,,,,,,,,,,,,,,,,,,,,,,,,,,,
1665780072.844094,1665780072.844521,4.000000,0.000000,4277.692383,4295.897461,4313.461426,4322.948730,4319.230957,4316.538574,4328.846191,4295.256348,4298.589844,4276.410156,4468.717773,4473.589844,4340.512695,4385.000000,2284.000000,2.000000,51.000000,,,,0.000000,4.000000,4.000000,4.000000,4.000000,4.000000,4.000000,4.000000,4.000000,4.000000,4.000000,4.000000,4.000000,4.000000,4.000000,100.000000,,,,,,,,,,,,,,,,,,,,,,,,,,,,,,,,,,,,,,,,,,,,,,,
1665780072.851903,1665780072.852429,5.000000,0.000000,4276.666504,4295.384766,4312.307617,4316.410156,4311.025879,4307.948730,4325.128418,4318.461426,4308.589844,4277.563965,4472.051270,4474.615234,4337.563965,4380.256348,2311.000000,2.000000,51.000000,,,,0.000000,4.000000,4.000000,4.000000,4.000000,4.000000,4.000000,4.000000,4.000000,4.000000,4.000000,4.000000,4.000000,4.000000,4.000000,100.000000,1.000000,83.333336,4.000000,4.000000,4.000000,4.000000,4.000000,4.000000,3.000000,4.000000,4.000000,4.000000,4.000000,4.000000,4.000000,3.000000,1.000000,0.199077,-0.953217,-1.328492,0.183124,1.000000,0.286669,3.734315,1.830238,8.472311,0.219032,1.000000,0.475230,74.471771,-33.570171,191.438736,1.000000,0.697059,0.294362,0.090776,0.315142,1.000000,0.572162,6.278389,-4.238551,15.116782,1.000000,0.220188,0.220188,0.000000,1.000000
1665780072.859711,1665780072.860238,6.000000,0.000000,4276.666504,4296.538574,4311.922852,4313.846191,4308.846191,4306.282227,4322.179688,4334.487305,4313.846191,4275.128418,4474.102539,4477.436035,4341.410156,4380.000000,2112.000000,2.000000,51.000000,,,,0.000000,4.000000,4.000000,4.000000,4.000000,4.000000,4.000000,4.000000,4.000000,4.000000,4.000000,4.000000,4.000000,4.000000,4.000000,100.000000,,,,,,,,,,,,,,,,,,,,,,,,,,,,,,,,,,,,,,,,,,,,,,,
1665780072.867519,1665780072.868146,7.000000,0.000000,4271.153809,4297.307617,4307.692383,4316.025879,4313.077148,4304.871582,4317.820313,4336.538574,4312.692383,4279.743652,4473.846191,4485.641113,4351.282227,4386.153809,2015.000000,2.000000,51.000000,,,,0.000000,4.000000,4.000000,4.000000,4.000000,4.000000,4.000000,4.000000,4.000000,4.000000,4.000000,4.000000,4.000000,4.000000,4.000000,100.000000,,,,,,,,,,,,,,,,,,,,,,,,,,,,,,,,,,,,,,,,,,,,,,,
1665780072.875328,1665780072.875955,8.000000,0.000000,4261.410156,4283.846191,4293.461426,4304.230957,4306.282227,4297.179688,4303.333496,4324.102539,4312.051270,4278.846191,4462.948730,4479.487305,4344.102539,4383.333496,1143.000000,2.000000,51.000000,,,,0.000000,4.000000,4.000000,4.000000,4.000000,4.000000,4.000000,4.000000,4.000000,4.000000,4.000000,4.000000,4.000000,4.000000,4.000000,100.000000,,,,,,,,,,,,,,,,,,,,,,,,,,,,,,,,,,,,,,,,,,,,,,,
1665780072.883136,1665780072.883663,9.000000,0.000000,4258.205078,4274.230957,4284.871582,4294.487305,4297.436035,4293.205078,4291.922852,4313.333496,4311.794922,4268.205078,4453.717773,4461.153809,4330.000000,4377.436035,2359.000000,2.000000,51.000000,,,,0.000000,4.000000,4.000000,4.000000,4.000000,4.000000,4.000000,4.000000,4.000000,4.000000,4.000000,4.000000,4.000000,4.000000,4.000000,100.000000,,,,,,,,,,,,,,,,,,,,,,,,,,,,,,,,,,,,,,,,,,,,,,,
1665780072.890944,1665780072.891472,10.000000,0.000000,4266.153809,4287.179688,4292.563965,4306.153809,4304.871582,4298.333496,4298.461426,4315.384766,4311.153809,4269.615234,4458.077148,4461.922852,4335.769043,4385.128418,2640.000000,2.000000,51.000000,,,,0.000000,4.000000,4.000000,4.000000,4.000000,4.000000,4.000000,4.000000,4.000000,4.000000,4.000000,4.000000,4.000000,4.000000,4.000000,100.000000,,,,,,,,,,,,,,,,,,,,,,,,,,,,,,,,,,,,,,,,,,,,,,,
1665780072.898753,1665780072.899180,11.000000,0.000000,4274.102539,4297.051270,4303.461426,4312.307617,4313.589844,4297.692383,4304.487305,4315.512695,4311.410156,4281.410156,4465.128418,4474.102539,4345.000000,4391.538574,2608.000000,2.000000,51.000000,,,,0.000000,4.000000,4.000000,4.000000,4.000000,4.000000,4.000000,4.000000,4.000000,4.000000,4.000000,4.000000,4.000000,4.000000,4.000000,100.000000,,,,,,,,,,,,,,,,,,,,,,,,,,,,,,,,,,,,,,,,,,,,,,,
1665780072.906561,1665780072.906989,12.000000,0.000000,4279.487305,4299.230957,4311.153809,4310.000000,4311.153809,4288.589844,4297.051270,4312.307617,4313.717773,4285.512695,4472.948730,4477.563965,4347.179688,4391.410156,2772.000000,2.000000,51.000000,,,,0.000000,4.000000,4.000000,4.000000,4.000000,4.000000,4.000000,4.000000,4.000000,4.000000,4.000000,4.000000,4.000000,4.000000,4.000000,100.000000,,,,,,,,,,,,,,,,,,,,,,,,,,,,,,,,,,,,,,,,,,,,,,,
1665780072.914370,1665780072.914697,13.000000,0.000000,4280.512695,4302.436035,4312.436035,4312.563965,4304.487305,4284.487305,4291.794922,4306.025879,4311.922852,4279.871582,4475.256348,4476.794922,4349.871582,4392.307617,3024.000000,2.000000,51.000000,,,,0.000000,4.000000,4.000000,4.000000,4.000000,4.000000,4.000000,4.000000,4.000000,4.000000,4.000000,4.000000,4.000000,4.000000,4.000000,100.000000,,,,,,,,,,,,,,,,,,,,,,,,,,,,,,,,,,,,,,,,,,,,,,,
1665780072.922178,1665780072.922506,14.000000,0.000000,4278.461426,4297.692383,4309.358887,4309.615234,4303.589844,4297.051270,4301.794922,4298.846191,4307.692383,4279.102539,4469.230957,4481.153809,4350.384766,4394.487305,2640.000000,2.000000,51.000000,,,,0.000000,4.000000,4.000000,4.000000,4.000000,4.000000,4.000000,4.000000,4.000000,4.000000,4.000000,4.000000,4.000000,4.000000,4.000000,100.000000,,,,,,,,,,,,,,,,,,,,,,,,,,,,,,,,,,,,,,,,,,,,,,,
1665780072.929986,1665780072.930214,15.000000,0.000000,4285.897461,4292.820313,4315.512695,4311.410156,4312.436035,4318.589844,4320.128418,4303.077148,4313.205078,4291.410156,4472.692383,4489.358887,4352.692383,4401.794922,2608.000000,2.000000,51.000000,,,,0.000000,4.000000,4.000000,4.000000,4.000000,4.000000,4.000000,4.000000,4.000000,4.000000,4.000000,4.000000,4.000000,4.000000,4.000000,100.000000,,,,,,,,,,,,,,,,,,,,,,,,,,,,,,,,,,,,,,,,,,,,,,,
1665780072.937795,1665780072.938123,16.000000,0.000000,4295.384766,4298.461426,4323.717773,4323.589844,4323.846191,4330.256348,4331.538574,4316.922852,4322.307617,4305.000000,4479.871582,4495.897461,4360.128418,4413.846191,0.000000,2.000000,51.000000,,,,0.000000,4.000000,4.000000,4.000000,4.000000,4.000000,4.000000,4.000000,4.000000,4.000000,4.000000,4.000000,4.000000,4.000000,4.000000,100.000000,,,,,,,,,,,,,,,,,,,,,,,,,,,,,,,,,,,,,,,,,,,,,,,
1665780072.945603,1665780072.945931,17.000000,0.000000,4295.641113,4299.102539,4320.384766,4325.000000,4320.512695,4321.922852,4327.307617,4318.974121,4320.256348,4299.358887,4478.846191,4494.358887,4364.230957,4418.589844,0.000000,2.000000,51.000000,,,,0.000000,4.000000,4.000000,4.000000,4.000000,4.000000,4.000000,4.000000,4.000000,4.000000,4.000000,4.000000,4.000000,4.000000,4.000000,100.000000,,,,,,,,,,,,,,,,,,,,,,,,,,,,,,,,,,,,,,,,,,,,,,,
1665780072.953412,1665780072.953839,18.000000,0.000000,4298.461426,4291.794922,4319.358887,4318.974121,4311.410156,4304.358887,4319.358887,4317.692383,4317.563965,4291.025879,4484.743652,4495.769043,4368.974121,4422.436035,0.000000,2.000000,51.000000,,,,0.000000,4.000000,4.000000,4.000000,4.000000,4.000000,4.000000,4.000000,4.000000,4.000000,4.000000,4.000000,4.000000,4.000000,4.000000,100.000000,,,,,,,,,,,,,,,,,,,,,,,,,,,,,,,,,,,,,,,,,,,,,,,
1665780072.961220,1665780072.961648,19.000000,0.000000,4310.256348,4297.820313,4331.282227,4323.846191,4310.641113,4297.179688,4319.871582,4328.333496,4324.102539,4296.410156,4491.922852,4506.666504,4370.897461,4434.615234,0.000000,2.000000,51.000000,,,,0.000000,4.000000,4.000000,4.000000,4.000000,4.000000,4.000000,4.000000,4.000000,4.000000,4.000000,4.000000,4.000000,4.000000,4.000000,100.000000,,,,,,,,,,,,,,,,,,,,,,,,,,,,,,,,,,,,,,,,,,,,,,,
1665780072.969028,1665780072.969456,20.000000,0.000000,4317.436035,4317.436035,4337.436035,4329.358887,4312.307617,4295.769043,4319.230957,4326.922852,4323.717773,4291.538574,4489.743652,4510.128418,4375.256348,4441.922852,0.000000,2.000000,51.000000,,,,0.000000,4.000000,4.000000,4.000000,4.000000,4.000000,4.000000,4.000000,4.000000,4.000000,4.000000,4.000000,4.000000,4.000000,4.000000,100.000000,,,,,,,,,,,,,,,,,,,,,,,,,,,,,,,,,,,,,,,,,,,,,,,
1665780072.976837,1665780072.977165,21.000000,0.000000,4321.153809,4332.692383,4330.000000,4329.358887,4312.307617,4291.153809,4310.641113,4314.102539,4315.000000,4281.025879,4491.666504,4507.692383,4392.179688,4449.230957,0.000000,2.000000,51.000000,,,,0.000000,4.000000,4.000000,4.000000,4.000000,4.000000,4.000000,4.000000,4.000000,4.000000,4.000000,4.000000,4.000000,4.000000,4.000000,100.000000,,,,,,,,,,,,,,,,,,,,,,,,,,,,,,,,,,,,,,,,,,,,,,,
1665780072.984645,1665780072.984973,22.000000,0.000000,4325.897461,4339.102539,4323.333496,4335.128418,4310.256348,4286.666504,4300.128418,4312.179688,4312.179688,4279.871582,4489.615234,4504.615234,4389.615234,4454.487305,0.000000,2.000000,51.000000,,,,0.000000,4.000000,4.000000,4.000000,4.000000,4.000000,4.000000,4.000000,4.000000,4.000000,4.000000,4.000000,4.000000,4.000000,4.000000,100.000000,,,,,,,,,,,,,,,,,,,,,,,,,,,,,,,,,,,,,,,,,,,,,,,
1665780072.992453,1665780072.992682,23.000000,0.000000,4333.717773,4353.333496,4329.615234,4345.769043,4315.256348,4292.563965,4298.717773,4318.974121,4312.692383,4286.282227,4486.410156,4503.717773,4375.384766,4459.487305,0.000000,2.000000,51.000000,,,,0.000000,4.000000,4.000000,4.000000,4.000000,4.000000,4.000000,4.000000,4.000000,4.000000,4.000000,4.000000,4.000000,4.000000,4.000000,100.000000,,,,,,,,,,,,,,,,,,,,,,,,,,,,,,,,,,,,,,,,,,,,,,,
1665780073.000262,1665780073.000590,24.000000,0.000000,4349.615234,4368.333496,4343.077148,4353.589844,4329.230957,4309.102539,4310.000000,4324.102539,4311.153809,4294.743652,4503.077148,4510.384766,4385.512695,4476.922852,0.000000,2.000000,51.000000,,,,0.000000,4.000000,4.000000,4.000000,4.000000,4.000000,4.000000,4.000000,4.000000,4.000000,4.000000,4.000000,4.000000,4.000000,4.000000,100.000000,,,,,,,,,,,,,,,,,,,,,,,,,,,,,,,,,,,,,,,,,,,,,,,
1665780073.008070,1665780073.008399,25.000000,0.000000,4352.820313,4362.307617,4338.974121,4350.256348,4326.538574,4311.538574,4312.692383,4318.077148,4306.538574,4286.282227,4511.025879,4507.051270,4392.307617,4479.871582,0.000000,2.000000,51.000000,,,,0.000000,4.000000,4.000000,4.000000,4.000000,4.000000,4.000000,4.000000,4.000000,4.000000,4.000000,4.000000,4.000000,4.000000,4.000000,100.000000,,,,,,,,,,,,,,,,,,,,,,,,,,,,,,,,,,,,,,,,,,,,,,,
1665780073.015879,1665780073.016307,26.000000,0.000000,4339.487305,4356.153809,4326.153809,4339.871582,4311.794922,4299.487305,4306.410156,4300.384766,4299.102539,4265.769043,4486.922852,4487.692383,4365.128418,4458.974121,0.000000,2.000000,51.000000,,,,0.000000,4.000000,4.000000,4.000000,4.000000,4.000000,4.000000,4.000000,4.000000,4.000000,4.000000,4.000000,4.000000,4.000000,4.000000,100.000000,,,,,,,,,,,,,,,,,,,,,,,,,,,,,,,,,,,,,,,,,,,,,,,
1665780073.023687,1665780073.024115,27.000000,0.000000,4335.897461,4361.410156,4333.461426,4336.538574,4308.974121,4302.948730,4319.358887,4291.282227,4296.922852,4265.384766,4470.641113,4484.230957,4347.692383,4449.487305,0.000000,2.000000,51.000000,,,,0.000000,4.000000,4.000000,4.000000,4.000000,4.000000,4.000000,4.000000,4.000000,4.000000,4.000000,4.000000,4.000000,4.000000,4.000000,100.000000,,,,,,,,,,,,,,,,,,,,,,,,,,,,,,,,,,,,,,,,,,,,,,,
1665780073.031495,1665780073.032024,28.000000,0.000000,4344.487305,4362.692383,4347.051270,4337.563965,4313.205078,4321.922852,4343.717773,4305.769043,4307.948730,4280.128418,4483.589844,4504.102539,4363.717773,4465.000000,0.000000,2.000000,51.000000,,,,0.000000,4.000000,4.000000,4.000000,4.000000,4.000000,4.000000,4.000000,4.000000,4.000000,4.000000,4.000000,4.000000,4.000000,4.000000,100.000000,,,,,,,,,,,,,,,,,,,,,,,,,,,,,,,,,,,,,,,,,,,,,,,
1665780073.039304,1665780073.039832,29.000000,0.000000,4346.538574,4366.025879,4344.102539,4341.922852,4317.179688,4328.589844,4348.717773,4322.820313,4319.743652,4282.820313,4492.307617,4519.743652,4372.692383,4475.641113,0.000000,2.000000,51.000000,,,,0.000000,4.000000,4.000000,4.000000,4.000000,4.000000,4.000000,4.000000,4.000000,4.000000,4.000000,4.000000,4.000000,4.000000,4.000000,100.000000,,,,,,,,,,,,,,,,,,,,,,,,,,,,,,,,,,,,,,,,,,,,,,,
1665780073.047112,1665780073.047741,30.000000,0.000000,4342.436035,4373.077148,4337.179688,4347.948730,4326.410156,4326.282227,4338.205078,4328.589844,4324.615234,4289.487305,4491.794922,4526.666504,4368.846191,4476.282227,0.000000,2.000000,51.000000,,,,0.000000,4.000000,4.000000,4.000000,4.000000,4.000000,4.000000,4.000000,4.000000,4.000000,4.000000,4.000000,4.000000,4.000000,4.000000,100.000000,,,,,,,,,,,,,,,,,,,,,,,,,,,,,,,,,,,,,,,,,,,,,,,
1665780073.054921,1665780073.055549,31.000000,0.000000,4341.410156,4366.538574,4334.743652,4346.410156,4328.589844,4323.333496,4327.563965,4332.179688,4323.717773,4300.769043,4492.179688,4523.333496,4362.948730,4476.666504,0.000000,2.000000,51.000000,,,,0.000000,4.000000,4.000000,4.000000,4.000000,4.000000,4.000000,4.000000,4.000000,4.000000,4.000000,4.000000,4.000000,4.000000,4.000000,100.000000,,,,,,,,,,,,,,,,,,,,,,,,,,,,,,,,,,,,,,,,,,,,,,,
1665780073.062729,1665780073.063357,32.000000,0.000000,4337.051270,4359.230957,4327.051270,4340.000000,4318.333496,4309.358887,4314.358887,4327.820313,4317.179688,4288.717773,4485.000000,4503.461426,4353.077148,4469.102539,0.000000,2.000000,51.000000,,,,0.000000,4.000000,4.000000,4.000000,4.000000,4.000000,4.000000,4.000000,4.000000,4.000000,4.000000,4.000000,4.000000,4.000000,4.000000,100.000000,,,,,,,,,,,,,,,,,,,,,,,,,,,,,,,,,,,,,,,,,,,,,,,
1665780073.070537,1665780073.071166,33.000000,0.000000,4331.794922,4370.384766,4322.307617,4342.179688,4316.410156,4295.256348,4299.487305,4315.512695,4311.794922,4266.666504,4474.871582,4486.794922,4338.077148,4459.615234,0.000000,2.000000,51.000000,,,,0.000000,4.000000,4.000000,4.000000,4.000000,4.000000,4.000000,4.000000,4.000000,4.000000,4.000000,4.000000,4.000000,4.000000,4.000000,100.000000,,,,,,,,,,,,,,,,,,,,,,,,,,,,,,,,,,,,,,,,,,,,,,,
1665780073.078346,1665780073.078874,34.000000,0.000000,4336.153809,4384.487305,4330.641113,4352.820313,4324.487305,4289.230957,4292.692383,4310.000000,4307.179688,4259.615234,4471.025879,4484.358887,4328.461426,4456.666504,0.000000,2.000000,51.000000,,,,0.000000,4.000000,4.000000,4.000000,4.000000,4.000000,4.000000,4.000000,4.000000,4.000000,4.000000,4.000000,4.000000,4.000000,4.000000,100.000000,,,,,,,,,,,,,,,,,,,,,,,,,,,,,,,,,,,,,,,,,,,,,,,
1665780073.086154,1665780073.086683,35.000000,0.000000,4347.820313,4387.563965,4344.615234,4360.384766,4329.743652,4288.846191,4295.128418,4310.384766,4300.000000,4265.641113,4474.487305,4488.589844,4339.615234,4462.948730,0.000000,2.000000,51.000000,,,,0.000000,4.000000,4.000000,4.000000,4.000000,4.000000,4.000000,4.000000,4.000000,4.000000,4.000000,4.000000,4.000000,4.000000,4.000000,100.000000,,,,,,,,,,,,,,,,,,,,,,,,,,,,,,,,,,,,,,,,,,,,,,,
1665780073.093963,1665780073.094391,36.000000,0.000000,4354.615234,4390.128418,4347.692383,4362.436035,4330.128418,4290.512695,4293.717773,4301.922852,4294.871582,4264.871582,4474.871582,4493.974121,4353.077148,4465.641113,0.000000,2.000000,51.000000,,,,0.000000,4.000000,4.000000,4.000000,4.000000,4.000000,4.000000,4.000000,4.000000,4.000000,4.000000,4.000000,4.000000,4.000000,4.000000,100.000000,,,,,,,,,,,,,,,,,,,,,,,,,,,,,,,,,,,,,,,,,,,,,,,
1665780073.101771,1665780073.102200,37.000000,0.000000,4347.820313,4388.846191,4335.769043,4355.512695,4323.333496,4289.230957,4280.000000,4284.743652,4293.589844,4252.179688,4463.461426,4490.128418,4345.512695,4454.230957,0.000000,2.000000,51.000000,,,,0.000000,4.000000,4.000000,4.000000,4.000000,4.000000,4.000000,4.000000,4.000000,4.000000,4.000000,4.000000,4.000000,4.000000,4.000000,100.000000,,,,,,,,,,,,,,,,,,,,,,,,,,,,,,,,,,,,,,,,,,,,,,,
1665780073.109579,1665780073.109908,38.000000,0.000000,4332.563965,4369.230957,4324.615234,4341.666504,4312.307617,4286.666504,4271.666504,4273.717773,4291.282227,4248.205078,4444.871582,4474.743652,4325.769043,4440.128418,0.000000,2.000000,51.000000,,,,0.000000,4.000000,4.000000,4.000000,4.000000,4.000000,4.000000,4.000000,4.000000,4.000000,4.000000,4.000000,4.000000,4.000000,4.000000,100.000000,,,,,,,,,,,,,,,,,,,,,,,,,,,,,,,,,,,,,,,,,,,,,,,
1665780073.117388,1665780073.117717,39.000000,0.000000,4327.948730,4351.153809,4323.846191,4339.743652,4312.563965,4294.871582,4287.436035,4281.538574,4290.769043,4258.974121,4442.820313,4474.102539,4317.179688,4439.743652,0.000000,2.000000,51.000000,,,,0.000000,4.000000,4.000000,4.000000,4.000000,4.000000,4.000000,4.000000,4.000000,4.000000,4.000000,4.000000,4.000000,4.000000,4.000000,100.000000,,,,,,,,,,,,,,,,,,,,,,,,,,,,,,,,,,,,,,,,,,,,,,,
1665780073.125196,1665780073.125425,40.000000,0.000000,4336.282227,4357.051270,4331.153809,4351.410156,4324.615234,4309.615234,4315.128418,4307.436035,4304.743652,4272.820313,4464.743652,4495.512695,4322.563965,4447.436035,0.000000,2.000000,51.000000,,,,0.000000,4.000000,4.000000,4.000000,4.000000,4.000000,4.000000,4.000000,4.000000,4.000000,4.000000,4.000000,4.000000,4.000000,4.000000,100.000000,,,,,,,,,,,,,,,,,,,,,,,,,,,,,,,,,,,,,,,,,,,,,,,
1665780073.133005,1665780073.133234,41.000000,0.000000,4330.641113,4355.641113,4336.153809,4347.692383,4321.922852,4309.487305,4324.871582,4323.333496,4319.230957,4277.948730,4478.077148,4503.461426,4326.025879,4441.538574,0.000000,2.000000,51.000000,,,,0.000000,4.000000,4.000000,4.000000,4.000000,4.000000,4.000000,4.000000,4.000000,4.000000,4.000000,4.000000,4.000000,4.000000,4.000000,100.000000,,,,,,,,,,,,,,,,,,,,,,,,,,,,,,,,,,,,,,,,,,,,,,,
1665780073.140813,1665780073.140942,42.000000,0.000000,4311.153809,4333.717773,4327.051270,4326.410156,4304.358887,4295.512695,4315.000000,4319.743652,4316.538574,4275.769043,4475.512695,4492.051270,4324.358887,4430.000000,0.000000,2.000000,51.000000,,,,0.000000,4.000000,4.000000,4.000000,4.000000,4.000000,4.000000,4.000000,4.000000,4.000000,4.000000,4.000000,4.000000,4.000000,4.000000,100.000000,,,,,,,,,,,,,,,,,,,,,,,,,,,,,,,,,,,,,,,,,,,,,,,
1665780073.148621,1665780073.148751,43.000000,0.000000,4307.820313,4322.436035,4314.615234,4320.384766,4300.641113,4290.000000,4310.641113,4321.153809,4312.948730,4277.051270,4473.846191,4491.922852,4324.743652,4425.384766,0.000000,2.000000,51.000000,,,,0.000000,4.000000,4.000000,4.000000,4.000000,4.000000,4.000000,4.000000,4.000000,4.000000,4.000000,4.000000,4.000000,4.000000,4.000000,100.000000,,,,,,,,,,,,,,,,,,,,,,,,,,,,,,,,,,,,,,,,,,,,,,,
1665780073.156430,1665780073.156459,44.000000,0.000000,4312.948730,4323.077148,4314.743652,4327.563965,4307.692383,4297.051270,4317.179688,4332.051270,4321.410156,4283.717773,4472.436035,4501.025879,4334.230957,4422.820313,0.000000,2.000000,51.000000,,,,0.000000,4.000000,4.000000,4.000000,4.000000,4.000000,4.000000,4.000000,4.000000,4.000000,4.000000,4.000000,4.000000,4.000000,4.000000,100.000000,,,,,,,,,,,,,,,,,,,,,,,,,,,,,,,,,,,,,,,,,,,,,,,
1665780073.164238,1665780073.164268,45.000000,0.000000,4295.769043,4306.538574,4309.487305,4322.307617,4302.692383,4296.410156,4311.794922,4331.153809,4323.333496,4283.333496,4461.794922,4490.897461,4332.307617,4412.820313,0.000000,2.000000,51.000000,,,,0.000000,4.000000,4.000000,4.000000,4.000000,4.000000,4.000000,4.000000,4.000000,4.000000,4.000000,4.000000,4.000000,4.000000,4.000000,100.000000,,,,,,,,,,,,,,,,,,,,,,,,,,,,,,,,,,,,,,,,,,,,,,,
1665780073.172047,1665780073.171976,46.000000,0.000000,4279.230957,4285.512695,4296.794922,4315.769043,4298.333496,4291.153809,4297.820313,4318.717773,4315.384766,4277.692383,4453.205078,4475.128418,4317.051270,4398.077148,0.000000,2.000000,51.000000,,,,0.000000,4.000000,4.000000,4.000000,4.000000,4.000000,4.000000,4.000000,4.000000,4.000000,4.000000,4.000000,4.000000,4.000000,4.000000,100.000000,,,,,,,,,,,,,,,,,,,,,,,,,,,,,,,,,,,,,,,,,,,,,,,
1665780073.179855,1665780073.179885,47.000000,0.000000,4288.077148,4283.205078,4305.000000,4325.000000,4309.358887,4295.384766,4294.871582,4315.128418,4311.922852,4281.794922,4462.692383,4479.230957,4320.000000,4397.051270,0.000000,2.000000,51.000000,,,,0.000000,4.000000,4.000000,4.000000,4.000000,4.000000,4.000000,4.000000,4.000000,4.000000,4.000000,4.000000,4.000000,4.000000,4.000000,100.000000,,,,,,,,,,,,,,,,,,,,,,,,,,,,,,,,,,,,,,,,,,,,,,,
1665780073.187663,1665780073.187693,48.000000,0.000000,4291.922852,4283.846191,4312.692383,4326.282227,4309.230957,4290.769043,4290.769043,4307.692383,4304.487305,4275.256348,4467.051270,4474.615234,4324.743652,4396.538574,0.000000,2.000000,51.000000,,,,0.000000,4.000000,4.000000,4.000000,4.000000,4.000000,4.000000,4.000000,4.000000,4.000000,4.000000,4.000000,4.000000,4.000000,4.000000,100.000000,,,,,,,,,,,,,,,,,,,,,,,,,,,,,,,,,,,,,,,,,,,,,,,
1665780073.195472,1665780073.195602,49.000000,0.000000,4278.589844,4272.436035,4297.563965,4312.692383,4295.769043,4274.358887,4275.000000,4286.538574,4296.666504,4252.563965,4451.538574,4451.922852,4312.820313,4377.179688,0.000000,2.000000,51.000000,,,,0.000000,4.000000,4.000000,4.000000,4.000000,4.000000,4.000000,4.000000,4.000000,4.000000,4.000000,4.000000,4.000000,4.000000,4.000000,100.000000,,,,,,,,,,,,,,,,,,,,,,,,,,,,,,,,,,,,,,,,,,,,,,,
1665780073.203280,1665780073.203410,50.000000,0.000000,4271.794922,4261.282227,4291.153809,4305.256348,4292.436035,4271.153809,4268.589844,4273.846191,4292.179688,4245.256348,4442.307617,4448.717773,4307.948730,4359.743652,0.000000,2.000000,51.000000,,,,0.000000,4.000000,4.000000,4.000000,4.000000,4.000000,4.000000,4.000000,4.000000,4.000000,4.000000,4.000000,4.000000,4.000000,4.000000,100.000000,,,,,,,,,,,,,,,,,,,,,,,,,,,,,,,,,,,,,,,,,,,,,,,
1665780073.211089,1665780073.211318,51.000000,0.000000,4272.051270,4251.794922,4302.307617,4303.717773,4290.128418,4280.769043,4281.410156,4275.897461,4284.230957,4253.333496,4444.615234,4461.410156,4314.358887,4361.666504,0.000000,2.000000,51.000000,,,,0.000000,4.000000,4.000000,4.000000,4.000000,4.000000,4.000000,4.000000,4.000000,4.000000,4.000000,4.000000,4.000000,4.000000,4.000000,100.000000,,,,,,,,,,,,,,,,,,,,,,,,,,,,,,,,,,,,,,,,,,,,,,,
1665780073.218897,1665780073.219127,52.000000,0.000000,4265.256348,4237.051270,4294.102539,4295.384766,4279.102539,4282.179688,4294.743652,4275.641113,4283.461426,4250.641113,4436.153809,4455.256348,4310.512695,4360.897461,0.000000,2.000000,51.000000,,,,0.000000,4.000000,4.000000,4.000000,4.000000,4.000000,4.000000,4.000000,4.000000,4.000000,4.000000,4.000000,4.000000,4.000000,4.000000,100.000000,,,,,,,,,,,,,,,,,,,,,,,,,,,,,,,,,,,,,,,,,,,,,,,
1665780073.226705,1665780073.227035,53.000000,0.000000,4256.153809,4226.410156,4280.000000,4290.641113,4278.589844,4282.948730,4298.333496,4275.000000,4293.589844,4244.487305,4425.128418,4444.871582,4301.282227,4350.000000,0.000000,2.000000,51.000000,,,,0.000000,4.000000,4.000000,4.000000,4.000000,4.000000,4.000000,4.000000,4.000000,4.000000,4.000000,4.000000,4.000000,4.000000,4.000000,100.000000,,,,,,,,,,,,,,,,,,,,,,,,,,,,,,,,,,,,,,,,,,,,,,,
1665780073.234514,1665780073.234844,54.000000,0.000000,4252.051270,4221.025879,4278.205078,4293.974121,4283.974121,4281.410156,4290.769043,4281.282227,4296.922852,4247.692383,4426.282227,4445.641113,4295.641113,4345.000000,0.000000,2.000000,51.000000,,,,0.000000,4.000000,4.000000,4.000000,4.000000,4.000000,4.000000,4.000000,4.000000,4.000000,4.000000,4.000000,4.000000,4.000000,4.000000,100.000000,,,,,,,,,,,,,,,,,,,,,,,,,,,,,,,,,,,,,,,,,,,,,,,
1665780073.242322,1665780073.242752,55.000000,0.000000,4246.538574,4211.794922,4270.256348,4289.743652,4277.563965,4266.153809,4279.358887,4285.256348,4292.179688,4246.410156,4423.077148,4437.563965,4283.589844,4338.077148,0.000000,2.000000,51.000000,,,,0.000000,4.000000,4.000000,4.000000,4.000000,4.000000,4.000000,4.000000,4.000000,4.000000,4.000000,4.000000,4.000000,4.000000,4.000000,100.000000,,,,,,,,,,,,,,,,,,,,,,,,,,,,,,,,,,,,,,,,,,,,,,,
1665780073.250131,1665780073.250560,56.000000,0.000000,4246.922852,4218.077148,4268.205078,4288.846191,4280.512695,4266.410156,4288.589844,4297.820313,4302.692383,4251.666504,4425.512695,4436.538574,4284.743652,4335.384766,0.000000,2.000000,51.000000,,,,0.000000,4.000000,4.000000,4.000000,4.000000,4.000000,4.000000,4.000000,4.000000,4.000000,4.000000,4.000000,4.000000,4.000000,4.000000,100.000000,,,,,,,,,,,,,,,,,,,,,,,,,,,,,,,,,,,,,,,,,,,,,,,
1665780073.257939,1665780073.258469,57.000000,0.000000,4252.051270,4234.615234,4279.102539,4295.384766,4293.846191,4280.769043,4302.563965,4312.948730,4313.974121,4266.794922,4439.230957,4451.538574,4300.000000,4344.102539,0.000000,2.000000,51.000000,,,,0.000000,4.000000,4.000000,4.000000,4.000000,4.000000,4.000000,4.000000,4.000000,4.000000,4.000000,4.000000,4.000000,4.000000,4.000000,100.000000,,,,,,,,,,,,,,,,,,,,,,,,,,,,,,,,,,,,,,,,,,,,,,,
1665780073.265747,1665780073.266277,58.000000,0.000000,4250.256348,4234.615234,4281.922852,4293.461426,4288.589844,4273.974121,4286.153809,4302.563965,4305.641113,4267.179688,4437.948730,4450.769043,4301.922852,4344.102539,0.000000,2.000000,51.000000,,,,0.000000,4.000000,4.000000,4.000000,4.000000,4.000000,4.000000,4.000000,4.000000,4.000000,4.000000,4.000000,4.000000,4.000000,4.000000,100.000000,,,,,,,,,,,,,,,,,,,,,,,,,,,,,,,,,,,,,,,,,,,,,,,
1665780073.273556,1665780073.273986,59.000000,0.000000,4245.897461,4230.384766,4277.948730,4290.512695,4278.333496,4259.487305,4261.794922,4283.205078,4294.615234,4255.769043,4423.974121,4441.922852,4294.230957,4337.692383,0.000000,2.000000,51.000000,,,,0.000000,4.000000,4.000000,4.000000,4.000000,4.000000,4.000000,4.000000,4.000000,4.000000,4.000000,4.000000,4.000000,4.000000,4.000000,100.000000,,,,,,,,,,,,,,,,,,,,,,,,,,,,,,,,,,,,,,,,,,,,,,,
1665780073.281364,1665780073.281794,60.000000,0.000000,4245.256348,4232.051270,4277.948730,4291.794922,4278.846191,4261.025879,4258.589844,4278.846191,4293.846191,4251.922852,4415.128418,4445.000000,4293.077148,4340.384766,0.000000,2.000000,51.000000,,,,0.000000,4.000000,4.000000,4.000000,4.000000,4.000000,4.000000,4.000000,4.000000,4.000000,4.000000,4.000000,4.000000,4.000000,4.000000,100.000000,,,,,,,,,,,,,,,,,,,,,,,,,,,,,,,,,,,,,,,,,,,,,,,
1665780073.289173,1665780073.289503,61.000000,0.000000,4248.461426,4232.436035,4278.589844,4294.358887,4279.871582,4263.205078,4260.641113,4279.871582,4295.256348,4251.410156,4414.102539,4446.666504,4294.615234,4346.666504,0.000000,2.000000,51.000000,,,,0.000000,4.000000,4.000000,4.000000,4.000000,4.000000,4.000000,4.000000,4.000000,4.000000,4.000000,4.000000,4.000000,4.000000,4.000000,100.000000,,,,,,,,,,,,,,,,,,,,,,,,,,,,,,,,,,,,,,,,,,,,,,,
1665780073.296981,1665780073.297311,62.000000,0.000000,4254.230957,4237.051270,4284.102539,4300.256348,4283.589844,4261.794922,4264.743652,4278.333496,4288.846191,4246.922852,4420.128418,4446.410156,4292.307617,4348.077148,0.000000,2.000000,51.000000,,,,0.000000,4.000000,4.000000,4.000000,4.000000,4.000000,4.000000,4.000000,4.000000,4.000000,4.000000,4.000000,4.000000,4.000000,4.000000,100.000000,,,,,,,,,,,,,,,,,,,,,,,,,,,,,,,,,,,,,,,,,,,,,,,
1665780073.304789,1665780073.305020,63.000000,0.000000,4264.358887,4249.102539,4299.358887,4313.589844,4296.282227,4275.897461,4286.282227,4279.487305,4282.820313,4245.384766,4429.358887,4456.922852,4294.230957,4352.436035,0.000000,2.000000,51.000000,,,,0.000000,4.000000,4.000000,4.000000,4.000000,4.000000,4.000000,4.000000,4.000000,4.000000,4.000000,4.000000,4.000000,4.000000,4.000000,100.000000,,,,,,,,,,,,,,,,,,,,,,,,,,,,,,,,,,,,,,,,,,,,,,,
1665780073.312598,1665780073.312828,64.000000,0.000000,4269.230957,4255.769043,4305.384766,4317.051270,4301.794922,4291.666504,4311.410156,4281.794922,4283.717773,4244.358887,4432.307617,4463.589844,4296.410156,4357.820313,2331.000000,2.000000,51.000000,,,,0.000000,4.000000,4.000000,4.000000,4.000000,4.000000,4.000000,4.000000,4.000000,4.000000,4.000000,4.000000,4.000000,4.000000,4.000000,100.000000,,,,,,,,,,,,,,,,,,,,,,,,,,,,,,,,,,,,,,,,,,,,,,,
1665780073.320406,1665780073.320537,65.000000,0.000000,4263.205078,4252.436035,4300.256348,4302.179688,4294.743652,4289.230957,4319.615234,4283.333496,4290.000000,4242.307617,4425.128418,4458.717773,4294.615234,4352.051270,2311.000000,2.000000,51.000000,,,,0.000000,4.000000,4.000000,4.000000,4.000000,4.000000,4.000000,4.000000,4.000000,4.000000,4.000000,4.000000,4.000000,4.000000,4.000000,100.000000,,,,,,,,,,,,,,,,,,,,,,,,,,,,,,,,,,,,,,,,,,,,,,,
1665780073.328215,1665780073.328345,66.000000,0.000000,4259.871582,4248.077148,4294.487305,4292.307617,4292.948730,4283.461426,4320.128418,4290.641113,4294.871582,4251.153809,4423.717773,4460.512695,4298.974121,4346.025879,2192.000000,2.000000,51.000000,,,,0.000000,4.000000,4.000000,4.000000,4.000000,4.000000,4.000000,4.000000,4.000000,4.000000,4.000000,4.000000,4.000000,4.000000,4.000000,100.000000,,,,,,,,,,,,,,,,,,,,,,,,,,,,,,,,,,,,,,,,,,,,,,,
1665780073.336023,1665780073.336054,67.000000,0.000000,4263.077148,4249.102539,4296.282227,4300.512695,4297.563965,4293.333496,4321.666504,4302.436035,4299.871582,4265.641113,4438.717773,4471.794922,4315.512695,4355.384766,2317.000000,2.000000,51.000000,,,,0.000000,4.000000,4.000000,4.000000,4.000000,4.000000,4.000000,4.000000,4.000000,4.000000,4.000000,4.000000,4.000000,4.000000,4.000000,100.000000,,,,,,,,,,,,,,,,,,,,,,,,,,,,,,,,,,,,,,,,,,,,,,,
1665780073.343831,1665780073.343862,68.000000,0.000000,4265.769043,4246.794922,4297.307617,4307.307617,4298.717773,4298.589844,4313.974121,4308.717773,4308.077148,4268.589844,4449.230957,4478.205078,4321.666504,4363.589844,2274.000000,2.000000,51.000000,,,,0.000000,4.000000,4.000000,4.000000,4.000000,4.000000,4.000000,4.000000,4.000000,4.000000,4.000000,4.000000,4.000000,4.000000,4.000000,100.000000,,,,,,,,,,,,,,,,,,,,,,,,,,,,,,,,,,,,,,,,,,,,,,,
1665780073.351640,1665780073.351571,69.000000,0.000000,4260.256348,4235.897461,4287.436035,4298.717773,4295.512695,4284.230957,4298.717773,4311.666504,4312.051270,4269.743652,4443.717773,4474.743652,4311.922852,4359.871582,2311.000000,2.000000,51.000000,,,,0.000000,4.000000,4.000000,4.000000,4.000000,4.000000,4.000000,4.000000,4.000000,4.000000,4.000000,4.000000,4.000000,4.000000,4.000000,100.000000,1.000000,91.666664,4.000000,4.000000,4.000000,4.000000,4.000000,4.000000,3.000000,4.000000,4.000000,4.000000,4.000000,4.000000,4.000000,4.000000,1.000000,0.194968,-0.848817,-1.329337,0.183457,1.000000,0.282066,3.703743,1.830238,8.472311,0.220299,1.000000,0.470567,73.628685,-33.546246,191.409790,1.000000,0.697059,0.270856,0.090776,0.315142,1.000000,0.563138,6.089954,-4.236077,15.114808,1.000000,0.219264,0.219264,0.000000,1.000000
1665780073.359448,1665780073.359479,70.000000,0.000000,4254.102539,4232.307617,4281.538574,4295.128418,4296.666504,4277.436035,4291.922852,4318.333496,4315.256348,4280.128418,4443.333496,4470.128418,4309.743652,4358.974121,2122.000000,2.000000,51.000000,,,,0.000000,4.000000,4.000000,4.000000,4.000000,4.000000,4.000000,4.000000,4.000000,4.000000,4.000000,4.000000,4.000000,4.000000,4.000000,100.000000,,,,,,,,,,,,,,,,,,,,,,,,,,,,,,,,,,,,,,,,,,,,,,,
1665780073.367256,1665780073.367287,71.000000,0.000000,4249.871582,4237.051270,4283.205078,4297.307617,4296.025879,4280.384766,4282.820313,4315.641113,4312.563965,4275.384766,4445.641113,4460.641113,4309.102539,4356.153809,2000.000000,2.000000,51.000000,,,,0.000000,4.000000,4.000000,4.000000,4.000000,4.000000,4.000000,4.000000,4.000000,4.000000,4.000000,4.000000,4.000000,4.000000,4.000000,100.000000,,,,,,,,,,,,,,,,,,,,,,,,,,,,,,,,,,,,,,,,,,,,,,,
1665780073.375065,1665780073.375196,72.000000,0.000000,4237.179688,4233.461426,4276.025879,4285.641113,4285.128418,4274.230957,4263.717773,4300.512695,4300.512695,4252.436035,4432.307617,4444.487305,4296.153809,4338.717773,1147.000000,2.000000,51.000000,,,,0.000000,4.000000,4.000000,4.000000,4.000000,4.000000,4.000000,4.000000,4.000000,4.000000,4.000000,4.000000,4.000000,4.000000,4.000000,100.000000,,,,,,,,,,,,,,,,,,,,,,,,,,,,,,,,,,,,,,,,,,,,,,,
1665780073.382873,1665780073.383004,73.000000,0.000000,4230.128418,4227.179688,4270.000000,4274.358887,4277.179688,4274.615234,4265.897461,4290.128418,4294.102539,4238.846191,4416.922852,4439.871582,4287.948730,4325.000000,2369.000000,2.000000,51.000000,,,,0.000000,4.000000,4.000000,4.000000,4.000000,4.000000,4.000000,4.000000,4.000000,4.000000,4.000000,4.000000,4.000000,4.000000,4.000000,100.000000,,,,,,,,,,,,,,,,,,,,,,,,,,,,,,,,,,,,,,,,,,,,,,,
1665780073.390682,1665780073.390913,74.000000,0.000000,4239.358887,4228.717773,4275.512695,4280.384766,4280.384766,4289.487305,4291.282227,4283.461426,4291.410156,4240.000000,4412.563965,4442.563965,4291.025879,4327.179688,2668.000000,2.000000,51.000000,,,,0.000000,4.000000,4.000000,4.000000,4.000000,4.000000,4.000000,4.000000,4.000000,4.000000,4.000000,4.000000,4.000000,4.000000,4.000000,100.000000,,,,,,,,,,,,,,,,,,,,,,,,,,,,,,,,,,,,,,,,,,,,,,,
1665780073.398490,1665780073.398721,75.000000,0.000000,4248.717773,4230.769043,4280.897461,4291.025879,4290.000000,4300.384766,4306.922852,4275.512695,4281.282227,4243.717773,4411.666504,4443.717773,4292.948730,4337.436035,2618.000000,2.000000,51.000000,,,,0.000000,4.000000,4.000000,4.000000,4.000000,4.000000,4.000000,4.000000,4.000000,4.000000,4.000000,4.000000,4.000000,4.000000,4.000000,100.000000,,,,,,,,,,,,,,,,,,,,,,,,,,,,,,,,,,,,,,,,,,,,,,,
1665780073.406298,1665780073.406629,76.000000,0.000000,4251.282227,4235.256348,4283.589844,4296.410156,4299.230957,4298.589844,4309.230957,4272.436035,4275.897461,4244.743652,4414.743652,4450.897461,4292.051270,4350.256348,2778.000000,2.000000,51.000000,,,,0.000000,4.000000,4.000000,4.000000,4.000000,4.000000,4.000000,4.000000,4.000000,4.000000,4.000000,4.000000,4.000000,4.000000,4.000000,100.000000,,,,,,,,,,,,,,,,,,,,,,,,,,,,,,,,,,,,,,,,,,,,,,,
1665780073.414107,1665780073.414438,77.000000,0.000000,4257.820313,4242.692383,4292.051270,4303.333496,4303.846191,4295.512695,4311.794922,4277.692383,4285.897461,4245.769043,4425.897461,4459.487305,4295.256348,4358.974121,3041.000000,2.000000,51.000000,,,,0.000000,4.000000,4.000000,4.000000,4.000000,4.000000,4.000000,4.000000,4.000000,4.000000,4.000000,4.000000,4.000000,4.000000,4.000000,100.000000,,,,,,,,,,,,,,,,,,,,,,,,,,,,,,,,,,,,,,,,,,,,,,,
1665780073.421915,1665780073.422346,78.000000,0.000000,4266.794922,4250.128418,4302.307617,4314.230957,4307.436035,4293.846191,4314.487305,4293.077148,4297.307617,4259.871582,4441.922852,4466.410156,4305.897461,4370.641113,2668.000000,2.000000,51.000000,,,,0.000000,4.000000,4.000000,4.000000,4.000000,4.000000,4.000000,4.000000,4.000000,4.000000,4.000000,4.000000,4.000000,4.000000,4.000000,100.000000,,,,,,,,,,,,,,,,,,,,,,,,,,,,,,,,,,,,,,,,,,,,,,,
1665780073.429724,1665780073.430155,79.000000,0.000000,4268.974121,4259.871582,4305.769043,4316.538574,4306.794922,4289.230957,4312.820313,4309.615234,4305.512695,4275.897461,4451.153809,4476.153809,4316.282227,4381.794922,2618.000000,2.000000,51.000000,,,,0.000000,4.000000,4.000000,4.000000,4.000000,4.000000,4.000000,4.000000,4.000000,4.000000,4.000000,4.000000,4.000000,4.000000,4.000000,100.000000,,,,,,,,,,,,,,,,,,,,,,,,,,,,,,,,,,,,,,,,,,,,,,,
1665780073.437532,1665780073.438063,80.000000,0.000000,4266.666504,4260.000000,4302.179688,4304.230957,4297.051270,4280.384766,4304.230957,4312.307617,4312.051270,4274.743652,4448.077148,4480.000000,4313.461426,4371.410156,2778.000000,2.000000,51.000000,,,,0.000000,4.000000,4.000000,4.000000,4.000000,4.000000,4.000000,4.000000,4.000000,4.000000,4.000000,4.000000,4.000000,4.000000,4.000000,100.000000,,,,,,,,,,,,,,,,,,,,,,,,,,,,,,,,,,,,,,,,,,,,,,,
1665780073.445340,1665780073.445871,81.000000,0.000000,4263.974121,4251.025879,4295.512695,4293.974121,4289.487305,4275.769043,4289.487305,4309.102539,4309.487305,4269.615234,4443.205078,4476.153809,4310.897461,4359.871582,3041.000000,2.000000,51.000000,,,,0.000000,4.000000,4.000000,4.000000,4.000000,4.000000,4.000000,4.000000,4.000000,4.000000,4.000000,4.000000,4.000000,4.000000,4.000000,100.000000,,,,,,,,,,,,,,,,,,,,,,,,,,,,,,,,,,,,,,,,,,,,,,,
1665780073.453149,1665780073.453580,82.000000,0.000000,4262.820313,4248.974121,4288.077148,4294.743652,4289.871582,4279.743652,4280.641113,4311.666504,4307.436035,4275.769043,4446.153809,4477.436035,4321.025879,4368.589844,2668.000000,2.000000,51.000000,,,,0.000000,4.000000,4.000000,4.000000,4.000000,4.000000,4.000000,4.000000,4.000000,4.000000,4.000000,4.000000,4.000000,4.000000,4.000000,100.000000,,,,,,,,,,,,,,,,,,,,,,,,,,,,,,,,,,,,,,,,,,,,,,,
1665780073.460957,1665780073.461388,83.000000,0.000000,4261.794922,4251.282227,4281.922852,4296.538574,4291.282227,4281.666504,4279.871582,4315.256348,4310.512695,4280.641113,4447.179688,4478.333496,4324.871582,4375.000000,2618.000000,2.000000,51.000000,,,,0.000000,4.000000,4.000000,4.000000,4.000000,4.000000,4.000000,4.000000,4.000000,4.000000,4.000000,4.000000,4.000000,4.000000,4.000000,100.000000,,,,,,,,,,,,,,,,,,,,,,,,,,,,,,,,,,,,,,,,,,,,,,,
1665780073.468765,1665780073.469097,84.000000,0.000000,4262.948730,4247.692383,4279.615234,4297.563965,4294.358887,4280.769043,4277.563965,4312.051270,4306.282227,4274.487305,4437.436035,4467.820313,4316.410156,4365.641113,2778.000000,2.000000,51.000000,,,,0.000000,4.000000,4.000000,4.000000,4.000000,4.000000,4.000000,4.000000,4.000000,4.000000,4.000000,4.000000,4.000000,4.000000,4.000000,100.000000,,,,,,,,,,,,,,,,,,,,,,,,,,,,,,,,,,,,,,,,,,,,,,,
1665780073.476574,1665780073.476905,85.000000,0.000000,4262.436035,4245.641113,4280.769043,4298.589844,4296.538574,4287.051270,4280.512695,4302.307617,4297.307617,4261.666504,4428.717773,4453.846191,4308.717773,4359.102539,3041.000000,2.000000,51.000000,,,,0.000000,4.000000,4.000000,4.000000,4.000000,4.000000,4.000000,4.000000,4.000000,4.000000,4.000000,4.000000,4.000000,4.000000,4.000000,100.000000,,,,,,,,,,,,,,,,,,,,,,,,,,,,,,,,,,,,,,,,,,,,,,,
1665780073.484382,1665780073.484614,86.000000,0.000000,4252.307617,4249.871582,4277.051270,4295.256348,4295.384766,4294.743652,4293.461426,4292.948730,4293.974121,4250.000000,4420.384766,4442.179688,4298.974121,4350.897461,2668.000000,2.000000,51.000000,,,,0.000000,4.000000,4.000000,4.000000,4.000000,4.000000,4.000000,4.000000,4.000000,4.000000,4.000000,4.000000,4.000000,4.000000,4.000000,100.000000,,,,,,,,,,,,,,,,,,,,,,,,,,,,,,,,,,,,,,,,,,,,,,,
1665780073.492191,1665780073.492522,87.000000,0.000000,4245.000000,4251.922852,4275.384766,4291.410156,4296.025879,4298.846191,4309.743652,4284.871582,4288.846191,4244.230957,4406.410156,4439.102539,4292.692383,4340.897461,2618.000000,2.000000,51.000000,,,,0.000000,4.000000,4.000000,4.000000,4.000000,4.000000,4.000000,4.000000,4.000000,4.000000,4.000000,4.000000,4.000000,4.000000,4.000000,100.000000,,,,,,,,,,,,,,,,,,,,,,,,,,,,,,,,,,,,,,,,,,,,,,,
1665780073.499999,1665780073.500331,88.000000,0.000000,4253.333496,4250.256348,4285.897461,4292.051270,4290.769043,4298.589844,4319.615234,4277.179688,4278.974121,4245.384766,4403.461426,4450.256348,4302.436035,4346.153809,2778.000000,2.000000,51.000000,,,,0.000000,4.000000,4.000000,4.000000,4.000000,4.000000,4.000000,4.000000,4.000000,4.000000,4.000000,4.000000,4.000000,4.000000,4.000000,100.000000,,,,,,,,,,,,,,,,,,,,,,,,,,,,,,,,,,,,,,,,,,,,,,,
1665780073.507807,1665780073.508239,89.000000,0.000000,4264.230957,4249.871582,4294.358887,4296.282227,4281.922852,4290.256348,4318.589844,4274.871582,4279.487305,4250.641113,4416.153809,4465.256348,4316.025879,4360.256348,3041.000000,2.000000,51.000000,,,,0.000000,4.000000,4.000000,4.000000,4.000000,4.000000,4.000000,4.000000,4.000000,4.000000,4.000000,4.000000,4.000000,4.000000,4.000000,100.000000,,,,,,,,,,,,,,,,,,,,,,,,,,,,,,,,,,,,,,,,,,,,,,,
1665780073.515616,1665780073.516048,90.000000,0.000000,4270.769043,4260.512695,4296.153809,4305.897461,4285.641113,4279.743652,4312.563965,4280.000000,4289.743652,4261.410156,4426.666504,4473.589844,4321.410156,4371.410156,2668.000000,2.000000,51.000000,,,,0.000000,4.000000,4.000000,4.000000,4.000000,4.000000,4.000000,4.000000,4.000000,4.000000,4.000000,4.000000,4.000000,4.000000,4.000000,100.000000,,,,,,,,,,,,,,,,,,,,,,,,,,,,,,,,,,,,,,,,,,,,,,,
1665780073.523424,1665780073.523956,91.000000,0.000000,4280.769043,4269.871582,4303.717773,4315.769043,4295.128418,4281.666504,4309.871582,4290.128418,4299.358887,4278.205078,4435.769043,4484.102539,4328.974121,4380.256348,2618.000000,2.000000,51.000000,,,,0.000000,4.000000,4.000000,4.000000,4.000000,4.000000,4.000000,4.000000,4.000000,4.000000,4.000000,4.000000,4.000000,4.000000,4.000000,100.000000,,,,,,,,,,,,,,,,,,,,,,,,,,,,,,,,,,,,,,,,,,,,,,,
1665780073.531233,1665780073.531764,92.000000,0.000000,4286.666504,4266.410156,4313.717773,4315.897461,4295.512695,4280.897461,4303.077148,4301.922852,4307.692383,4282.692383,4440.641113,4495.384766,4331.153809,4387.436035,2778.000000,2.000000,51.000000,,,,0.000000,4.000000,4.000000,4.000000,4.000000,4.000000,4.000000,4.000000,4.000000,4.000000,4.000000,4.000000,4.000000,4.000000,4.000000,100.000000,,,,,,,,,,,,,,,,,,,,,,,,,,,,,,,,,,,,,,,,,,,,,,,
1665780073.539041,1665780073.539573,93.000000,0.000000,4282.307617,4263.846191,4308.333496,4310.641113,4292.179688,4267.692383,4285.769043,4310.256348,4310.897461,4270.512695,4437.179688,4489.102539,4320.512695,4384.615234,3041.000000,2.000000,51.000000,,,,0.000000,4.000000,4.000000,4.000000,4.000000,4.000000,4.000000,4.000000,4.000000,4.000000,4.000000,4.000000,4.000000,4.000000,4.000000,100.000000,,,,,,,,,,,,,,,,,,,,,,,,,,,,,,,,,,,,,,,,,,,,,,,
1665780073.546849,1665780073.547281,94.000000,0.000000,4279.615234,4267.307617,4301.025879,4308.333496,4294.102539,4269.102539,4278.589844,4312.948730,4311.538574,4271.025879,4437.307617,4480.769043,4320.641113,4377.307617,2668.000000,2.000000,51.000000,,,,0.000000,4.000000,4.000000,4.000000,4.000000,4.000000,4.000000,4.000000,4.000000,4.000000,4.000000,4.000000,4.000000,4.000000,4.000000,100.000000,,,,,,,,,,,,,,,,,,,,,,,,,,,,,,,,,,,,,,,,,,,,,,,
1665780073.554658,1665780073.555190,95.000000,0.000000,4276.410156,4269.358887,4300.128418,4303.846191,4293.077148,4281.410156,4281.025879,4316.538574,4310.384766,4281.025879,4437.563965,4483.589844,4328.333496,4372.563965,2618.000000,2.000000,51.000000,,,,0.000000,4.000000,4.000000,4.000000,4.000000,4.000000,4.000000,4.000000,4.000000,4.000000,4.000000,4.000000,4.000000,4.000000,4.000000,100.000000,,,,,,,,,,,,,,,,,,,,,,,,,,,,,,,,,,,,,,,,,,,,,,,
1665780073.562466,1665780073.562998,96.000000,0.000000,4263.974121,4263.333496,4288.846191,4292.692383,4285.256348,4284.102539,4281.410156,4313.717773,4304.871582,4271.922852,4422.051270,4475.512695,4321.153809,4365.128418,2778.000000,2.000000,51.000000,,,,0.000000,4.000000,4.000000,4.000000,4.000000,4.000000,4.000000,4.000000,4.000000,4.000000,4.000000,4.000000,4.000000,4.000000,4.000000,100.000000,,,,,,,,,,,,,,,,,,,,,,,,,,,,,,,,,,,,,,,,,,,,,,,
1665780073.570274,1665780073.570906,97.000000,0.000000,4253.589844,4252.307617,4276.282227,4285.769043,4279.358887,4287.307617,4286.794922,4301.410156,4294.615234,4250.769043,4404.615234,4456.794922,4305.897461,4353.461426,3041.000000,2.000000,51.000000,,,,0.000000,4.000000,4.000000,4.000000,4.000000,4.000000,4.000000,4.000000,4.000000,4.000000,4.000000,4.000000,4.000000,4.000000,4.000000,100.000000,,,,,,,,,,,,,,,,,,,,,,,,,,,,,,,,,,,,,,,,,,,,,,,
1665780073.578083,1665780073.578715,98.000000,0.000000,4254.102539,4249.487305,4274.358887,4288.077148,4282.948730,4295.641113,4295.897461,4292.051270,4284.230957,4245.384766,4402.563965,4447.179688,4301.666504,4349.615234,2668.000000,2.000000,51.000000,,,,0.000000,4.000000,4.000000,4.000000,4.000000,4.000000,4.000000,4.000000,4.000000,4.000000,4.000000,4.000000,4.000000,4.000000,4.000000,100.000000,,,,,,,,,,,,,,,,,,,,,,,,,,,,,,,,,,,,,,,,,,,,,,,
1665780073.585891,1665780073.586623,99.000000,0.000000,4263.846191,4258.589844,4277.948730,4293.846191,4292.948730,4297.436035,4303.333496,4291.666504,4281.666504,4248.333496,4409.615234,4450.256348,4307.436035,4361.025879,2618.000000,2.000000,51.000000,,,,0.000000,4.000000,4.000000,4.000000,4.000000,4.000000,4.000000,4.000000,4.000000,4.000000,4.000000,4.000000,4.000000,4.000000,4.000000,100.000000,,,,,,,,,,,,,,,,,,,,,,,,,,,,,,,,,,,,,,,,,,,,,,,
1665780073.593700,1665780073.594432,100.000000,0.000000,4274.102539,4270.897461,4284.871582,4302.948730,4297.820313,4292.436035,4309.743652,4292.692383,4284.871582,4248.846191,4418.974121,4454.871582,4312.563965,4372.179688,2778.000000,2.000000,51.000000,,,,0.000000,4.000000,4.000000,4.000000,4.000000,4.000000,4.000000,4.000000,4.000000,4.000000,4.000000,4.000000,4.000000,4.000000,4.000000,100.000000,,,,,,,,,,,,,,,,,,,,,,,,,,,,,,,,,,,,,,,,,,,,,,,
1665780073.601508,1665780073.602340,101.000000,0.000000,4280.000000,4285.128418,4297.436035,4310.897461,4296.794922,4288.205078,4312.692383,4292.563965,4290.000000,4251.666504,4428.333496,4460.384766,4320.512695,4376.025879,3041.000000,2.000000,51.000000,,,,0.000000,4.000000,4.000000,4.000000,4.000000,4.000000,4.000000,4.000000,4.000000,4.000000,4.000000,4.000000,4.000000,4.000000,4.000000,100.000000,,,,,,,,,,,,,,,,,,,,,,,,,,,,,,,,,,,,,,,,,,,,,,,
1665780073.609316,1665780073.610148,102.000000,0.000000,4284.230957,4300.128418,4308.717773,4312.307617,4296.538574,4288.974121,4311.794922,4294.743652,4293.077148,4262.563965,4439.102539,4469.871582,4334.871582,4384.615234,2668.000000,2.000000,51.000000,,,,0.000000,4.000000,4.000000,4.000000,4.000000,4.000000,4.000000,4.000000,4.000000,4.000000,4.000000,4.000000,4.000000,4.000000,4.000000,100.000000,,,,,,,,,,,,,,,,,,,,,,,,,,,,,,,,,,,,,,,,,,,,,,,
1665780073.617125,1665780073.618057,103.000000,0.000000,4292.179688,4309.230957,4313.846191,4317.051270,4299.102539,4295.128418,4314.487305,4296.410156,4294.871582,4277.563965,4448.333496,4483.205078,4350.897461,4397.436035,2618.000000,2.000000,51.000000,,,,0.000000,4.000000,4.000000,4.000000,4.000000,4.000000,4.000000,4.000000,4.000000,4.000000,4.000000,4.000000,4.000000,4.000000,4.000000,100.000000,,,,,,,,,,,,,,,,,,,,,,,,,,,,,,,,,,,,,,,,,,,,,,,
1665780073.624933,1665780073.625865,104.000000,0.000000,4296.410156,4308.205078,4315.000000,4320.897461,4298.077148,4298.461426,4312.179688,4295.256348,4296.666504,4281.025879,4448.974121,4493.077148,4359.487305,4406.153809,2778.000000,2.000000,51.000000,,,,0.000000,4.000000,4.000000,4.000000,4.000000,4.000000,4.000000,4.000000,4.000000,4.000000,4.000000,4.000000,4.000000,4.000000,4.000000,100.000000,,,,,,,,,,,,,,,,,,,,,,,,,,,,,,,,,,,,,,,,,,,,,,,
1665780073.632742,1665780073.633574,105.000000,0.000000,4294.487305,4300.897461,4305.897461,4319.358887,4295.512695,4291.282227,4296.025879,4292.307617,4296.282227,4277.820313,4446.282227,4489.743652,4356.922852,4410.512695,3041.000000,2.000000,51.000000,,,,0.000000,4.000000,4.000000,4.000000,4.000000,4.000000,4.000000,4.000000,4.000000,4.000000,4.000000,4.000000,4.000000,4.000000,4.000000,100.000000,,,,,,,,,,,,,,,,,,,,,,,,,,,,,,,,,,,,,,,,,,,,,,,
1665780073.640550,1665780073.641482,106.000000,0.000000,4298.589844,4302.179688,4297.436035,4322.307617,4298.205078,4283.846191,4283.205078,4296.666504,4298.717773,4282.820313,4448.205078,4483.333496,4357.307617,4416.282227,2668.000000,2.000000,51.000000,,,,0.000000,4.000000,4.000000,4.000000,4.000000,4.000000,4.000000,4.000000,4.000000,4.000000,4.000000,4.000000,4.000000,4.000000,4.000000,100.000000,,,,,,,,,,,,,,,,,,,,,,,,,,,,,,,,,,,,,,,,,,,,,,,
1665780073.648358,1665780073.649291,107.000000,0.000000,4302.563965,4310.641113,4297.563965,4320.256348,4298.589844,4279.743652,4275.384766,4302.179688,4303.461426,4285.897461,4450.000000,4478.717773,4362.179688,4423.333496,2618.000000,2.000000,51.000000,,,,0.000000,4.000000,4.000000,4.000000,4.000000,4.000000,4.000000,4.000000,4.000000,4.000000,4.000000,4.000000,4.000000,4.000000,4.000000,100.000000,,,,,,,,,,,,,,,,,,,,,,,,,,,,,,,,,,,,,,,,,,,,,,,
1665780073.656167,1665780073.657099,108.000000,0.000000,4295.769043,4310.000000,4295.897461,4310.641113,4297.051270,4279.615234,4271.153809,4300.384766,4304.615234,4273.717773,4445.384766,4473.846191,4359.487305,4421.922852,2778.000000,2.000000,51.000000,,,,0.000000,4.000000,4.000000,4.000000,4.000000,4.000000,4.000000,4.000000,4.000000,4.000000,4.000000,4.000000,4.000000,4.000000,4.000000,100.000000,,,,,,,,,,,,,,,,,,,,,,,,,,,,,,,,,,,,,,,,,,,,,,,
1665780073.663975,1665780073.664808,109.000000,0.000000,4295.128418,4311.282227,4293.846191,4313.974121,4303.077148,4288.974121,4283.974121,4301.666504,4302.307617,4262.948730,4442.563965,4470.897461,4355.769043,4416.922852,3041.000000,2.000000,51.000000,,,,0.000000,4.000000,4.000000,4.000000,4.000000,4.000000,4.000000,4.000000,4.000000,4.000000,4.000000,4.000000,4.000000,4.000000,4.000000,100.000000,,,,,,,,,,,,,,,,,,,,,,,,,,,,,,,,,,,,,,,,,,,,,,,
1665780073.671784,1665780073.672616,110.000000,0.000000,4304.230957,4323.205078,4296.666504,4321.410156,4305.384766,4297.948730,4303.205078,4304.743652,4304.102539,4264.615234,4440.897461,4470.897461,4360.384766,4420.769043,2668.000000,2.000000,51.000000,,,,0.000000,4.000000,4.000000,4.000000,4.000000,4.000000,4.000000,4.000000,4.000000,4.000000,4.000000,4.000000,4.000000,4.000000,4.000000,100.000000,,,,,,,,,,,,,,,,,,,,,,,,,,,,,,,,,,,,,,,,,,,,,,,
1665780073.679592,1665780073.680325,111.000000,0.000000,4304.102539,4321.025879,4298.077148,4313.589844,4296.025879,4296.153809,4307.307617,4300.384766,4302.051270,4264.487305,4432.051270,4471.794922,4355.897461,4424.487305,2618.000000,2.000000,51.000000,,,,0.000000,4.000000,4.000000,4.000000,4.000000,4.000000,4.000000,4.000000,4.000000,4.000000,4.000000,4.000000,4.000000,4.000000,4.000000,100.000000,,,,,,,,,,,,,,,,,,,,,,,,,,,,,,,,,,,,,,,,,,,,,,,
1665780073.687400,1665780073.688133,112.000000,0.000000,4300.769043,4309.615234,4295.897461,4309.102539,4293.333496,4294.487305,4302.948730,4296.538574,4296.025879,4262.692383,4424.102539,4474.871582,4350.000000,4426.666504,2778.000000,2.000000,51.000000,,,,0.000000,4.000000,4.000000,4.000000,4.000000,4.000000,4.000000,4.000000,4.000000,4.000000,4.000000,4.000000,4.000000,4.000000,4.000000,100.000000,,,,,,,,,,,,,,,,,,,,,,,,,,,,,,,,,,,,,,,,,,,,,,,
1665780073.695209,1665780073.695842,113.000000,0.000000,4311.282227,4317.436035,4299.358887,4319.358887,4297.563965,4296.794922,4300.000000,4293.461426,4295.384766,4264.487305,4432.051270,4477.179688,4366.153809,4438.205078,3041.000000,2.000000,51.000000,,,,0.000000,4.000000,4.000000,4.000000,4.000000,4.000000,4.000000,4.000000,4.000000,4.000000,4.000000,4.000000,4.000000,4.000000,4.000000,100.000000,,,,,,,,,,,,,,,,,,,,,,,,,,,,,,,,,,,,,,,,,,,,,,,
