title:Psychopy_Kevin_Earphones_Blinking, start timestamp:1665772060.719290, stop timestamp:1665772121.726384, headset type:EPOCX, headset serial:E2020A42, headset firmware:720, channels:86, sampling rate:eeg_128;pm_2, samples:7814      , version:2.1, 
Timestamp,OriginalTimestamp,EEG.Counter,EEG.Interpolated,EEG.AF3,EEG.F7,EEG.F3,EEG.FC5,EEG.T7,EEG.P7,EEG.O1,EEG.O2,EEG.P8,EEG.T8,EEG.FC6,EEG.F4,EEG.F8,EEG.AF4,EEG.RawCq,EEG.Battery,EEG.BatteryPercent,MarkerIndex,MarkerType,MarkerValueInt,EEG.MarkerHardware,CQ.AF3,CQ.F7,CQ.F3,CQ.FC5,CQ.T7,CQ.P7,CQ.O1,CQ.O2,CQ.P8,CQ.T8,CQ.FC6,CQ.F4,CQ.F8,CQ.AF4,CQ.Overall,EQ.SampleRateQuality,EQ.OVERALL,EQ.AF3,EQ.F7,EQ.F3,EQ.FC5,EQ.T7,EQ.P7,EQ.O1,EQ.O2,EQ.P8,EQ.T8,EQ.FC6,EQ.F4,EQ.F8,EQ.AF4,PM.Engagement.IsActive,PM.Engagement.Scaled,PM.Engagement.Raw,PM.Engagement.Min,PM.Engagement.Max,PM.Excitement.IsActive,PM.Excitement.Scaled,PM.Excitement.Raw,PM.Excitement.Min,PM.Excitement.Max,PM.LongTermExcitement,PM.Stress.IsActive,PM.Stress.Scaled,PM.Stress.Raw,PM.Stress.Min,PM.Stress.Max,PM.Relaxation.IsActive,PM.Relaxation.Scaled,PM.Relaxation.Raw,PM.Relaxation.Min,PM.Relaxation.Max,PM.Interest.IsActive,PM.Interest.Scaled,PM.Interest.Raw,PM.Interest.Min,PM.Interest.Max,PM.Focus.IsActive,PM.Focus.Scaled,PM.Focus.Raw,PM.Focus.Min,PM.Focus.Max
1665772060.719290,1665772060.720087,5.000000,0.000000,4282.179688,4268.461426,4290.641113,4278.461426,4286.025879,4280.897461,4273.333496,4288.846191,4277.820313,4263.974121,4461.922852,4472.051270,4357.820313,4408.077148,2296.000000,2.000000,52.000000,,,,0.000000,4.000000,4.000000,4.000000,4.000000,4.000000,4.000000,4.000000,4.000000,4.000000,4.000000,4.000000,4.000000,4.000000,4.000000,100.000000,,,,,,,,,,,,,,,,,,,,,,,,,,,,,,,,,,,,,,,,,,,,,,,
1665772060.727098,1665772060.727796,6.000000,0.000000,4290.000000,4277.307617,4295.384766,4282.051270,4291.410156,4284.743652,4277.948730,4295.128418,4280.256348,4264.102539,4473.846191,4478.974121,4368.974121,4415.256348,2137.000000,2.000000,52.000000,,,,0.000000,4.000000,4.000000,4.000000,4.000000,4.000000,4.000000,4.000000,4.000000,4.000000,4.000000,4.000000,4.000000,4.000000,4.000000,100.000000,,,,,,,,,,,,,,,,,,,,,,,,,,,,,,,,,,,,,,,,,,,,,,,
1665772060.734907,1665772060.735604,7.000000,0.000000,4291.282227,4279.358887,4293.077148,4280.641113,4281.538574,4276.666504,4265.897461,4286.282227,4271.282227,4264.743652,4473.846191,4479.615234,4369.102539,4425.641113,2172.000000,2.000000,52.000000,,,,0.000000,4.000000,4.000000,4.000000,4.000000,4.000000,4.000000,4.000000,4.000000,4.000000,4.000000,4.000000,4.000000,4.000000,4.000000,100.000000,,,,,,,,,,,,,,,,,,,,,,,,,,,,,,,,,,,,,,,,,,,,,,,
1665772060.742715,1665772060.743313,8.000000,0.000000,4287.948730,4274.358887,4292.307617,4279.358887,4272.179688,4272.948730,4258.589844,4279.102539,4264.230957,4264.358887,4465.897461,4476.025879,4364.230957,4429.743652,2316.000000,2.000000,52.000000,,,,0.000000,4.000000,4.000000,4.000000,4.000000,4.000000,4.000000,4.000000,4.000000,4.000000,4.000000,4.000000,4.000000,4.000000,4.000000,100.000000,,,,,,,,,,,,,,,,,,,,,,,,,,,,,,,,,,,,,,,,,,,,,,,
1665772060.750523,1665772060.751121,9.000000,0.000000,4292.307617,4278.077148,4299.358887,4286.794922,4278.205078,4279.102539,4270.128418,4287.051270,4272.563965,4263.717773,4464.871582,4477.563965,4363.461426,4426.666504,2423.000000,2.000000,52.000000,,,,0.000000,4.000000,4.000000,4.000000,4.000000,4.000000,4.000000,4.000000,4.000000,4.000000,4.000000,4.000000,4.000000,4.000000,4.000000,100.000000,,,,,,,,,,,,,,,,,,,,,,,,,,,,,,,,,,,,,,,,,,,,,,,
1665772060.758332,1665772060.758830,10.000000,0.000000,4295.128418,4283.205078,4305.256348,4287.820313,4290.128418,4285.384766,4282.179688,4295.000000,4278.461426,4265.769043,4465.256348,4478.205078,4359.230957,4423.333496,2578.000000,2.000000,52.000000,,,,0.000000,4.000000,4.000000,4.000000,4.000000,4.000000,4.000000,4.000000,4.000000,4.000000,4.000000,4.000000,4.000000,4.000000,4.000000,100.000000,,,,,,,,,,,,,,,,,,,,,,,,,,,,,,,,,,,,,,,,,,,,,,,
1665772060.766140,1665772060.766638,11.000000,0.000000,4291.282227,4280.769043,4308.205078,4280.769043,4295.512695,4285.256348,4282.563965,4294.743652,4270.128418,4261.794922,4462.820313,4473.205078,4355.641113,4416.282227,2520.000000,2.000000,52.000000,,,,0.000000,4.000000,4.000000,4.000000,4.000000,4.000000,4.000000,4.000000,4.000000,4.000000,4.000000,4.000000,4.000000,4.000000,4.000000,100.000000,,,,,,,,,,,,,,,,,,,,,,,,,,,,,,,,,,,,,,,,,,,,,,,
1665772060.773949,1665772060.774347,12.000000,0.000000,4290.256348,4280.769043,4306.922852,4280.769043,4294.743652,4281.922852,4279.615234,4287.692383,4265.128418,4253.205078,4462.179688,4472.692383,4356.410156,4412.692383,2708.000000,2.000000,52.000000,,,,0.000000,4.000000,4.000000,4.000000,4.000000,4.000000,4.000000,4.000000,4.000000,4.000000,4.000000,4.000000,4.000000,4.000000,4.000000,100.000000,,,,,,,,,,,,,,,,,,,,,,,,,,,,,,,,,,,,,,,,,,,,,,,
1665772060.781757,1665772060.782155,13.000000,0.000000,4288.077148,4282.563965,4301.282227,4281.153809,4288.333496,4278.461426,4271.666504,4279.871582,4266.666504,4250.256348,4460.384766,4469.743652,4352.436035,4411.922852,3348.000000,2.000000,52.000000,,,,0.000000,4.000000,4.000000,4.000000,4.000000,4.000000,4.000000,4.000000,4.000000,4.000000,4.000000,4.000000,4.000000,4.000000,4.000000,100.000000,,,,,,,,,,,,,,,,,,,,,,,,,,,,,,,,,,,,,,,,,,,,,,,
1665772060.789565,1665772060.789864,14.000000,0.000000,4281.410156,4281.025879,4298.461426,4274.615234,4283.846191,4275.641113,4264.871582,4276.666504,4265.769043,4247.051270,4455.769043,4460.641113,4348.333496,4402.820313,2578.000000,2.000000,52.000000,,,,0.000000,4.000000,4.000000,4.000000,4.000000,4.000000,4.000000,4.000000,4.000000,4.000000,4.000000,4.000000,4.000000,4.000000,4.000000,100.000000,,,,,,,,,,,,,,,,,,,,,,,,,,,,,,,,,,,,,,,,,,,,,,,
1665772060.797374,1665772060.797672,15.000000,0.000000,4285.897461,4280.641113,4297.948730,4273.461426,4287.692383,4277.563965,4272.820313,4279.102539,4266.538574,4248.461426,4455.512695,4463.589844,4351.153809,4400.384766,2520.000000,2.000000,52.000000,,,,0.000000,4.000000,4.000000,4.000000,4.000000,4.000000,4.000000,4.000000,4.000000,4.000000,4.000000,4.000000,4.000000,4.000000,4.000000,100.000000,,,,,,,,,,,,,,,,,,,,,,,,,,,,,,,,,,,,,,,,,,,,,,,
1665772060.805182,1665772060.805381,16.000000,0.000000,4298.974121,4283.205078,4296.282227,4278.589844,4291.025879,4280.128418,4276.410156,4281.410156,4267.820313,4261.025879,4460.897461,4475.000000,4360.512695,4412.051270,0.000000,2.000000,52.000000,,,,0.000000,4.000000,4.000000,4.000000,4.000000,4.000000,4.000000,4.000000,4.000000,4.000000,4.000000,4.000000,4.000000,4.000000,4.000000,100.000000,,,,,,,,,,,,,,,,,,,,,,,,,,,,,,,,,,,,,,,,,,,,,,,
1665772060.812991,1665772060.813189,17.000000,0.000000,4299.102539,4282.436035,4293.077148,4276.538574,4282.307617,4277.436035,4265.512695,4278.205078,4265.769043,4263.717773,4462.820313,4474.230957,4366.794922,4415.128418,0.000000,2.000000,52.000000,,,,0.000000,4.000000,4.000000,4.000000,4.000000,4.000000,4.000000,4.000000,4.000000,4.000000,4.000000,4.000000,4.000000,4.000000,4.000000,100.000000,,,,,,,,,,,,,,,,,,,,,,,,,,,,,,,,,,,,,,,,,,,,,,,
1665772060.820799,1665772060.820898,18.000000,0.000000,4297.563965,4280.512695,4291.794922,4268.974121,4276.666504,4276.282227,4260.641113,4278.461426,4264.871582,4257.692383,4461.025879,4473.333496,4366.538574,4412.307617,0.000000,2.000000,52.000000,,,,0.000000,4.000000,4.000000,4.000000,4.000000,4.000000,4.000000,4.000000,4.000000,4.000000,4.000000,4.000000,4.000000,4.000000,4.000000,100.000000,,,,,,,,,,,,,,,,,,,,,,,,,,,,,,,,,,,,,,,,,,,,,,,
1665772060.828607,1665772060.828806,19.000000,0.000000,4305.384766,4278.974121,4296.410156,4265.256348,4281.666504,4282.179688,4273.461426,4287.436035,4267.948730,4263.974121,4462.948730,4481.282227,4364.102539,4420.128418,0.000000,2.000000,52.000000,,,,0.000000,4.000000,4.000000,4.000000,4.000000,4.000000,4.000000,4.000000,4.000000,4.000000,4.000000,4.000000,4.000000,4.000000,4.000000,100.000000,,,,,,,,,,,,,,,,,,,,,,,,,,,,,,,,,,,,,,,,,,,,,,,
1665772060.836416,1665772060.836615,20.000000,0.000000,4303.717773,4274.743652,4298.846191,4265.256348,4282.051270,4282.948730,4280.128418,4290.128418,4267.692383,4264.358887,4463.205078,4480.000000,4360.384766,4421.666504,0.000000,2.000000,52.000000,,,,0.000000,4.000000,4.000000,4.000000,4.000000,4.000000,4.000000,4.000000,4.000000,4.000000,4.000000,4.000000,4.000000,4.000000,4.000000,100.000000,,,,,,,,,,,,,,,,,,,,,,,,,,,,,,,,,,,,,,,,,,,,,,,
1665772060.844224,1665772060.844523,21.000000,0.000000,4298.077148,4275.897461,4296.282227,4266.666504,4284.871582,4279.358887,4270.256348,4281.666504,4265.256348,4250.256348,4460.512695,4474.358887,4355.000000,4415.000000,0.000000,2.000000,52.000000,,,,0.000000,4.000000,4.000000,4.000000,4.000000,4.000000,4.000000,4.000000,4.000000,4.000000,4.000000,4.000000,4.000000,4.000000,4.000000,100.000000,,,,,,,,,,,,,,,,,,,,,,,,,,,,,,,,,,,,,,,,,,,,,,,
1665772060.852033,1665772060.852331,22.000000,0.000000,4298.974121,4274.230957,4294.102539,4264.615234,4290.769043,4278.717773,4263.974121,4277.948730,4263.589844,4246.922852,4457.051270,4470.000000,4347.692383,4410.384766,0.000000,2.000000,52.000000,,,,0.000000,4.000000,4.000000,4.000000,4.000000,4.000000,4.000000,4.000000,4.000000,4.000000,4.000000,4.000000,4.000000,4.000000,4.000000,100.000000,,,,,,,,,,,,,,,,,,,,,,,,,,,,,,,,,,,,,,,,,,,,,,,
1665772060.859841,1665772060.860240,23.000000,0.000000,4290.128418,4265.384766,4292.051270,4263.846191,4289.743652,4276.922852,4264.871582,4280.897461,4260.769043,4250.000000,4446.922852,4459.230957,4341.538574,4399.615234,0.000000,2.000000,52.000000,,,,0.000000,4.000000,4.000000,4.000000,4.000000,4.000000,4.000000,4.000000,4.000000,4.000000,4.000000,4.000000,4.000000,4.000000,4.000000,100.000000,,,,,,,,,,,,,,,,,,,,,,,,,,,,,,,,,,,,,,,,,,,,,,,
1665772060.867649,1665772060.868048,24.000000,0.000000,4276.282227,4265.769043,4287.820313,4269.871582,4288.077148,4276.282227,4264.102539,4278.461426,4260.769043,4245.641113,4442.051270,4452.820313,4338.974121,4392.179688,0.000000,2.000000,52.000000,,,,0.000000,4.000000,4.000000,4.000000,4.000000,4.000000,4.000000,4.000000,4.000000,4.000000,4.000000,4.000000,4.000000,4.000000,4.000000,100.000000,,,,,,,,,,,,,,,,,,,,,,,,,,,,,,,,,,,,,,,,,,,,,,,
1665772060.875458,1665772060.875957,25.000000,0.000000,4282.179688,4277.051270,4288.974121,4271.410156,4294.358887,4280.256348,4265.000000,4280.512695,4265.128418,4245.641113,4452.820313,4458.077148,4340.256348,4396.666504,0.000000,2.000000,52.000000,,,,0.000000,4.000000,4.000000,4.000000,4.000000,4.000000,4.000000,4.000000,4.000000,4.000000,4.000000,4.000000,4.000000,4.000000,4.000000,100.000000,,,,,,,,,,,,,,,,,,,,,,,,,,,,,,,,,,,,,,,,,,,,,,,
1665772060.883266,1665772060.883765,26.000000,0.000000,4294.358887,4281.410156,4292.307617,4266.025879,4294.743652,4281.025879,4268.974121,4286.410156,4265.641113,4251.410156,4460.384766,4460.128418,4341.794922,4397.692383,0.000000,2.000000,52.000000,,,,0.000000,4.000000,4.000000,4.000000,4.000000,4.000000,4.000000,4.000000,4.000000,4.000000,4.000000,4.000000,4.000000,4.000000,4.000000,100.000000,,,,,,,,,,,,,,,,,,,,,,,,,,,,,,,,,,,,,,,,,,,,,,,
1665772060.891075,1665772060.891673,27.000000,0.000000,4293.205078,4279.487305,4291.794922,4263.974121,4284.102539,4277.820313,4268.589844,4284.743652,4264.615234,4249.230957,4457.307617,4458.333496,4345.256348,4398.205078,0.000000,2.000000,52.000000,,,,0.000000,4.000000,4.000000,4.000000,4.000000,4.000000,4.000000,4.000000,4.000000,4.000000,4.000000,4.000000,4.000000,4.000000,4.000000,100.000000,,,,,,,,,,,,,,,,,,,,,,,,,,,,,,,,,,,,,,,,,,,,,,,
1665772060.898883,1665772060.899482,28.000000,0.000000,4297.179688,4281.538574,4297.307617,4267.179688,4283.846191,4275.897461,4269.102539,4284.102539,4272.051270,4247.436035,4459.230957,4467.692383,4350.128418,4410.256348,0.000000,2.000000,52.000000,,,,0.000000,4.000000,4.000000,4.000000,4.000000,4.000000,4.000000,4.000000,4.000000,4.000000,4.000000,4.000000,4.000000,4.000000,4.000000,100.000000,,,,,,,,,,,,,,,,,,,,,,,,,,,,,,,,,,,,,,,,,,,,,,,
1665772060.906691,1665772060.907390,29.000000,0.000000,4310.000000,4284.615234,4303.974121,4266.025879,4291.410156,4278.589844,4273.589844,4287.436035,4280.384766,4259.102539,4464.230957,4479.615234,4355.897461,4418.333496,0.000000,2.000000,52.000000,,,,0.000000,4.000000,4.000000,4.000000,4.000000,4.000000,4.000000,4.000000,4.000000,4.000000,4.000000,4.000000,4.000000,4.000000,4.000000,100.000000,1.000000,100.000000,4.000000,4.000000,4.000000,4.000000,4.000000,4.000000,4.000000,4.000000,4.000000,4.000000,4.000000,4.000000,4.000000,4.000000,1.000000,0.431458,-0.298289,-1.475786,0.708811,1.000000,0.008902,2.832422,2.747465,12.291216,0.078443,1.000000,0.283015,39.449093,-83.808884,308.621033,1.000000,0.388802,0.105000,0.091733,0.251650,1.000000,0.317886,3.021113,-4.212906,17.710527,1.000000,0.198896,0.198896,0.000000,1.000000
1665772060.914500,1665772060.915199,30.000000,0.000000,4309.615234,4284.487305,4297.820313,4261.410156,4288.461426,4280.256348,4272.436035,4286.922852,4280.128418,4266.794922,4461.153809,4477.179688,4361.794922,4415.256348,0.000000,2.000000,52.000000,,,,0.000000,4.000000,4.000000,4.000000,4.000000,4.000000,4.000000,4.000000,4.000000,4.000000,4.000000,4.000000,4.000000,4.000000,4.000000,100.000000,,,,,,,,,,,,,,,,,,,,,,,,,,,,,,,,,,,,,,,,,,,,,,,
1665772060.922308,1665772060.922907,31.000000,0.000000,4303.077148,4282.051270,4292.307617,4262.307617,4279.487305,4280.256348,4272.692383,4283.077148,4279.102539,4263.717773,4460.769043,4475.128418,4367.820313,4415.256348,0.000000,2.000000,52.000000,,,,0.000000,4.000000,4.000000,4.000000,4.000000,4.000000,4.000000,4.000000,4.000000,4.000000,4.000000,4.000000,4.000000,4.000000,4.000000,100.000000,,,,,,,,,,,,,,,,,,,,,,,,,,,,,,,,,,,,,,,,,,,,,,,
1665772060.930117,1665772060.930716,32.000000,0.000000,4308.077148,4284.102539,4297.820313,4264.743652,4279.487305,4286.153809,4281.666504,4287.692383,4281.282227,4272.051270,4470.256348,4489.358887,4373.589844,4425.256348,0.000000,2.000000,52.000000,,,,0.000000,4.000000,4.000000,4.000000,4.000000,4.000000,4.000000,4.000000,4.000000,4.000000,4.000000,4.000000,4.000000,4.000000,4.000000,100.000000,,,,,,,,,,,,,,,,,,,,,,,,,,,,,,,,,,,,,,,,,,,,,,,
1665772060.937925,1665772060.938424,33.000000,0.000000,4307.563965,4284.871582,4296.538574,4257.948730,4282.692383,4289.230957,4284.102539,4292.179688,4283.717773,4281.538574,4473.077148,4494.871582,4370.256348,4428.205078,0.000000,2.000000,52.000000,,,,0.000000,4.000000,4.000000,4.000000,4.000000,4.000000,4.000000,4.000000,4.000000,4.000000,4.000000,4.000000,4.000000,4.000000,4.000000,100.000000,,,,,,,,,,,,,,,,,,,,,,,,,,,,,,,,,,,,,,,,,,,,,,,
1665772060.945733,1665772060.946233,34.000000,0.000000,4296.153809,4274.871582,4288.846191,4247.692383,4281.282227,4282.820313,4274.102539,4287.307617,4281.666504,4270.384766,4462.948730,4477.307617,4359.358887,4415.769043,0.000000,2.000000,52.000000,,,,0.000000,4.000000,4.000000,4.000000,4.000000,4.000000,4.000000,4.000000,4.000000,4.000000,4.000000,4.000000,4.000000,4.000000,4.000000,100.000000,,,,,,,,,,,,,,,,,,,,,,,,,,,,,,,,,,,,,,,,,,,,,,,
1665772060.953542,1665772060.953941,35.000000,0.000000,4288.846191,4264.487305,4287.307617,4246.410156,4285.000000,4280.641113,4265.000000,4282.692383,4271.666504,4260.641113,4455.512695,4463.077148,4351.666504,4401.282227,0.000000,2.000000,52.000000,,,,0.000000,4.000000,4.000000,4.000000,4.000000,4.000000,4.000000,4.000000,4.000000,4.000000,4.000000,4.000000,4.000000,4.000000,4.000000,100.000000,,,,,,,,,,,,,,,,,,,,,,,,,,,,,,,,,,,,,,,,,,,,,,,
1665772060.961350,1665772060.961849,36.000000,0.000000,4280.384766,4264.102539,4286.153809,4250.384766,4287.051270,4282.820313,4265.897461,4282.692383,4262.692383,4265.897461,4456.538574,4460.128418,4348.846191,4394.743652,0.000000,2.000000,52.000000,,,,0.000000,4.000000,4.000000,4.000000,4.000000,4.000000,4.000000,4.000000,4.000000,4.000000,4.000000,4.000000,4.000000,4.000000,4.000000,100.000000,,,,,,,,,,,,,,,,,,,,,,,,,,,,,,,,,,,,,,,,,,,,,,,
1665772060.969159,1665772060.969658,37.000000,0.000000,4275.769043,4271.410156,4285.128418,4255.641113,4284.871582,4280.897461,4273.077148,4285.000000,4264.487305,4267.051270,4457.307617,4460.512695,4347.051270,4394.871582,0.000000,2.000000,52.000000,,,,0.000000,4.000000,4.000000,4.000000,4.000000,4.000000,4.000000,4.000000,4.000000,4.000000,4.000000,4.000000,4.000000,4.000000,4.000000,100.000000,,,,,,,,,,,,,,,,,,,,,,,,,,,,,,,,,,,,,,,,,,,,,,,
1665772060.976967,1665772060.977566,38.000000,0.000000,4287.307617,4278.333496,4291.282227,4260.384766,4285.512695,4280.384766,4275.256348,4286.922852,4268.077148,4263.589844,4461.153809,4468.461426,4350.256348,4397.948730,0.000000,2.000000,52.000000,,,,0.000000,4.000000,4.000000,4.000000,4.000000,4.000000,4.000000,4.000000,4.000000,4.000000,4.000000,4.000000,4.000000,4.000000,4.000000,100.000000,,,,,,,,,,,,,,,,,,,,,,,,,,,,,,,,,,,,,,,,,,,,,,,
1665772060.984776,1665772060.985375,39.000000,0.000000,4296.153809,4279.358887,4292.436035,4256.282227,4285.512695,4280.128418,4266.153809,4286.410156,4265.769043,4267.179688,4459.615234,4471.794922,4350.384766,4401.410156,0.000000,2.000000,52.000000,,,,0.000000,4.000000,4.000000,4.000000,4.000000,4.000000,4.000000,4.000000,4.000000,4.000000,4.000000,4.000000,4.000000,4.000000,4.000000,100.000000,,,,,,,,,,,,,,,,,,,,,,,,,,,,,,,,,,,,,,,,,,,,,,,
1665772060.992584,1665772060.993283,40.000000,0.000000,4289.487305,4276.025879,4286.666504,4245.512695,4280.641113,4273.717773,4257.692383,4280.256348,4262.948730,4262.692383,4447.563965,4461.153809,4341.794922,4398.333496,0.000000,2.000000,52.000000,,,,0.000000,4.000000,4.000000,4.000000,4.000000,4.000000,4.000000,4.000000,4.000000,4.000000,4.000000,4.000000,4.000000,4.000000,4.000000,100.000000,,,,,,,,,,,,,,,,,,,,,,,,,,,,,,,,,,,,,,,,,,,,,,,
1665772061.000392,1665772061.001092,41.000000,0.000000,4289.615234,4278.077148,4285.384766,4240.641113,4281.794922,4271.794922,4261.282227,4277.563965,4261.922852,4252.692383,4448.589844,4455.641113,4342.563965,4395.512695,0.000000,2.000000,52.000000,,,,0.000000,4.000000,4.000000,4.000000,4.000000,4.000000,4.000000,4.000000,4.000000,4.000000,4.000000,4.000000,4.000000,4.000000,4.000000,100.000000,,,,,,,,,,,,,,,,,,,,,,,,,,,,,,,,,,,,,,,,,,,,,,,
1665772061.008201,1665772061.008900,42.000000,0.000000,4296.666504,4282.436035,4288.077148,4240.897461,4290.512695,4275.897461,4264.871582,4281.410156,4264.743652,4256.666504,4462.563965,4463.717773,4353.333496,4400.897461,0.000000,2.000000,52.000000,,,,0.000000,4.000000,4.000000,4.000000,4.000000,4.000000,4.000000,4.000000,4.000000,4.000000,4.000000,4.000000,4.000000,4.000000,4.000000,100.000000,,,,,,,,,,,,,,,,,,,,,,,,,,,,,,,,,,,,,,,,,,,,,,,
1665772061.016009,1665772061.016609,43.000000,0.000000,4301.025879,4282.563965,4292.692383,4246.922852,4289.487305,4278.974121,4268.077148,4284.615234,4273.717773,4264.743652,4466.410156,4474.230957,4356.538574,4411.025879,0.000000,2.000000,52.000000,,,,0.000000,4.000000,4.000000,4.000000,4.000000,4.000000,4.000000,4.000000,4.000000,4.000000,4.000000,4.000000,4.000000,4.000000,4.000000,100.000000,,,,,,,,,,,,,,,,,,,,,,,,,,,,,,,,,,,,,,,,,,,,,,,
1665772061.023818,1665772061.024517,44.000000,0.000000,4307.692383,4283.205078,4297.563965,4251.922852,4282.563965,4281.025879,4276.282227,4286.282227,4281.282227,4268.333496,4460.641113,4479.102539,4353.974121,4418.717773,0.000000,2.000000,52.000000,,,,0.000000,4.000000,4.000000,4.000000,4.000000,4.000000,4.000000,4.000000,4.000000,4.000000,4.000000,4.000000,4.000000,4.000000,4.000000,100.000000,,,,,,,,,,,,,,,,,,,,,,,,,,,,,,,,,,,,,,,,,,,,,,,
1665772061.031626,1665772061.032325,45.000000,0.000000,4309.358887,4285.128418,4294.487305,4242.051270,4280.000000,4282.307617,4280.000000,4290.641113,4283.974121,4274.230957,4461.153809,4480.256348,4360.897461,4414.871582,0.000000,2.000000,52.000000,,,,0.000000,4.000000,4.000000,4.000000,4.000000,4.000000,4.000000,4.000000,4.000000,4.000000,4.000000,4.000000,4.000000,4.000000,4.000000,100.000000,,,,,,,,,,,,,,,,,,,,,,,,,,,,,,,,,,,,,,,,,,,,,,,
1665772061.039434,1665772061.040234,46.000000,0.000000,4299.230957,4277.307617,4284.615234,4226.538574,4279.871582,4281.922852,4276.922852,4289.230957,4282.948730,4277.436035,4462.051270,4474.230957,4367.563965,4399.615234,0.000000,2.000000,52.000000,,,,0.000000,4.000000,4.000000,4.000000,4.000000,4.000000,4.000000,4.000000,4.000000,4.000000,4.000000,4.000000,4.000000,4.000000,4.000000,100.000000,,,,,,,,,,,,,,,,,,,,,,,,,,,,,,,,,,,,,,,,,,,,,,,
1665772061.047243,1665772061.048042,47.000000,0.000000,4291.666504,4265.897461,4283.589844,4227.436035,4277.563965,4279.230957,4273.205078,4279.871582,4273.846191,4265.000000,4451.666504,4461.666504,4356.922852,4388.717773,0.000000,2.000000,52.000000,,,,0.000000,4.000000,4.000000,4.000000,4.000000,4.000000,4.000000,4.000000,4.000000,4.000000,4.000000,4.000000,4.000000,4.000000,4.000000,100.000000,,,,,,,,,,,,,,,,,,,,,,,,,,,,,,,,,,,,,,,,,,,,,,,
1665772061.055051,1665772061.055950,48.000000,0.000000,4292.179688,4270.000000,4288.974121,4240.128418,4277.051270,4278.333496,4272.179688,4277.051270,4262.948730,4251.282227,4449.102539,4458.461426,4343.461426,4394.230957,0.000000,2.000000,52.000000,,,,0.000000,4.000000,4.000000,4.000000,4.000000,4.000000,4.000000,4.000000,4.000000,4.000000,4.000000,4.000000,4.000000,4.000000,4.000000,100.000000,,,,,,,,,,,,,,,,,,,,,,,,,,,,,,,,,,,,,,,,,,,,,,,
1665772061.062860,1665772061.063759,49.000000,0.000000,4292.692383,4277.692383,4291.666504,4247.820313,4280.256348,4278.846191,4272.179688,4281.282227,4262.307617,4252.436035,4457.692383,4468.846191,4344.615234,4401.410156,0.000000,2.000000,52.000000,,,,0.000000,4.000000,4.000000,4.000000,4.000000,4.000000,4.000000,4.000000,4.000000,4.000000,4.000000,4.000000,4.000000,4.000000,4.000000,100.000000,,,,,,,,,,,,,,,,,,,,,,,,,,,,,,,,,,,,,,,,,,,,,,,
1665772061.070668,1665772061.071667,50.000000,0.000000,4292.820313,4273.589844,4292.307617,4255.769043,4279.871582,4276.153809,4266.410156,4280.128418,4266.922852,4258.461426,4455.769043,4474.615234,4352.948730,4398.077148,0.000000,2.000000,52.000000,,,,0.000000,4.000000,4.000000,4.000000,4.000000,4.000000,4.000000,4.000000,4.000000,4.000000,4.000000,4.000000,4.000000,4.000000,4.000000,100.000000,,,,,,,,,,,,,,,,,,,,,,,,,,,,,,,,,,,,,,,,,,,,,,,
1665772061.078477,1665772061.079476,51.000000,0.000000,4297.820313,4274.743652,4294.871582,4272.436035,4280.512695,4275.641113,4262.820313,4277.436035,4266.410156,4262.051270,4447.948730,4472.820313,4350.769043,4399.102539,0.000000,2.000000,52.000000,,,,0.000000,4.000000,4.000000,4.000000,4.000000,4.000000,4.000000,4.000000,4.000000,4.000000,4.000000,4.000000,4.000000,4.000000,4.000000,100.000000,,,,,,,,,,,,,,,,,,,,,,,,,,,,,,,,,,,,,,,,,,,,,,,
1665772061.086285,1665772061.087384,52.000000,0.000000,4300.769043,4282.307617,4297.692383,4281.025879,4286.282227,4279.487305,4264.615234,4278.846191,4264.615234,4258.589844,4454.743652,4473.205078,4346.922852,4407.948730,0.000000,2.000000,52.000000,,,,0.000000,4.000000,4.000000,4.000000,4.000000,4.000000,4.000000,4.000000,4.000000,4.000000,4.000000,4.000000,4.000000,4.000000,4.000000,100.000000,,,,,,,,,,,,,,,,,,,,,,,,,,,,,,,,,,,,,,,,,,,,,,,
1665772061.094093,1665772061.095192,53.000000,0.000000,4300.512695,4283.077148,4300.769043,4281.153809,4288.461426,4279.102539,4266.025879,4280.512695,4266.282227,4252.820313,4463.077148,4474.102539,4355.769043,4414.358887,0.000000,2.000000,52.000000,,,,0.000000,4.000000,4.000000,4.000000,4.000000,4.000000,4.000000,4.000000,4.000000,4.000000,4.000000,4.000000,4.000000,4.000000,4.000000,100.000000,,,,,,,,,,,,,,,,,,,,,,,,,,,,,,,,,,,,,,,,,,,,,,,
1665772061.101902,1665772061.102901,54.000000,0.000000,4295.512695,4281.025879,4298.461426,4286.922852,4286.025879,4279.871582,4267.307617,4283.846191,4267.948730,4251.282227,4459.487305,4475.769043,4362.563965,4412.692383,0.000000,2.000000,52.000000,,,,0.000000,4.000000,4.000000,4.000000,4.000000,4.000000,4.000000,4.000000,4.000000,4.000000,4.000000,4.000000,4.000000,4.000000,4.000000,100.000000,,,,,,,,,,,,,,,,,,,,,,,,,,,,,,,,,,,,,,,,,,,,,,,
1665772061.109710,1665772061.110809,55.000000,0.000000,4284.102539,4274.743652,4289.487305,4293.589844,4278.205078,4276.922852,4265.256348,4281.538574,4265.512695,4246.666504,4457.436035,4470.641113,4353.589844,4407.051270,0.000000,2.000000,52.000000,,,,0.000000,4.000000,4.000000,4.000000,4.000000,4.000000,4.000000,4.000000,4.000000,4.000000,4.000000,4.000000,4.000000,4.000000,4.000000,100.000000,,,,,,,,,,,,,,,,,,,,,,,,,,,,,,,,,,,,,,,,,,,,,,,
1665772061.117519,1665772061.118618,56.000000,0.000000,4275.000000,4266.282227,4290.641113,4294.743652,4270.256348,4266.922852,4260.000000,4276.666504,4263.461426,4243.589844,4460.000000,4460.897461,4348.461426,4406.922852,0.000000,2.000000,52.000000,,,,0.000000,4.000000,4.000000,4.000000,4.000000,4.000000,4.000000,4.000000,4.000000,4.000000,4.000000,4.000000,4.000000,4.000000,4.000000,100.000000,,,,,,,,,,,,,,,,,,,,,,,,,,,,,,,,,,,,,,,,,,,,,,,
1665772061.125327,1665772061.126426,57.000000,0.000000,4271.025879,4265.641113,4298.846191,4297.692383,4268.846191,4271.922852,4263.974121,4282.948730,4271.922852,4254.358887,4463.589844,4468.461426,4358.846191,4409.102539,0.000000,2.000000,52.000000,,,,0.000000,4.000000,4.000000,4.000000,4.000000,4.000000,4.000000,4.000000,4.000000,4.000000,4.000000,4.000000,4.000000,4.000000,4.000000,100.000000,,,,,,,,,,,,,,,,,,,,,,,,,,,,,,,,,,,,,,,,,,,,,,,
1665772061.133135,1665772061.134135,58.000000,0.000000,4265.641113,4266.410156,4294.743652,4297.051270,4269.102539,4279.487305,4272.179688,4288.589844,4283.205078,4262.820313,4463.333496,4474.743652,4359.102539,4402.820313,0.000000,2.000000,52.000000,,,,0.000000,4.000000,4.000000,4.000000,4.000000,4.000000,4.000000,4.000000,4.000000,4.000000,4.000000,4.000000,4.000000,4.000000,4.000000,100.000000,,,,,,,,,,,,,,,,,,,,,,,,,,,,,,,,,,,,,,,,,,,,,,,
1665772061.140944,1665772061.141943,59.000000,0.000000,4261.025879,4260.256348,4284.230957,4294.743652,4262.436035,4266.282227,4266.153809,4281.538574,4279.102539,4251.666504,4453.974121,4456.538574,4344.615234,4393.077148,0.000000,2.000000,52.000000,,,,0.000000,4.000000,4.000000,4.000000,4.000000,4.000000,4.000000,4.000000,4.000000,4.000000,4.000000,4.000000,4.000000,4.000000,4.000000,100.000000,,,,,,,,,,,,,,,,,,,,,,,,,,,,,,,,,,,,,,,,,,,,,,,
1665772061.148752,1665772061.149652,60.000000,0.000000,4258.205078,4258.205078,4282.820313,4301.666504,4258.333496,4264.743652,4265.641113,4275.128418,4267.563965,4244.230957,4449.487305,4447.051270,4340.769043,4394.615234,0.000000,2.000000,52.000000,,,,0.000000,4.000000,4.000000,4.000000,4.000000,4.000000,4.000000,4.000000,4.000000,4.000000,4.000000,4.000000,4.000000,4.000000,4.000000,100.000000,,,,,,,,,,,,,,,,,,,,,,,,,,,,,,,,,,,,,,,,,,,,,,,
1665772061.156561,1665772061.157460,61.000000,0.000000,4253.461426,4261.153809,4286.025879,4313.205078,4263.717773,4280.641113,4270.897461,4275.000000,4264.487305,4246.666504,4448.333496,4458.077148,4343.974121,4400.000000,0.000000,2.000000,52.000000,,,,0.000000,4.000000,4.000000,4.000000,4.000000,4.000000,4.000000,4.000000,4.000000,4.000000,4.000000,4.000000,4.000000,4.000000,4.000000,100.000000,,,,,,,,,,,,,,,,,,,,,,,,,,,,,,,,,,,,,,,,,,,,,,,
1665772061.164369,1665772061.165169,62.000000,0.000000,4254.615234,4261.794922,4287.948730,4320.128418,4268.077148,4279.871582,4265.256348,4273.846191,4269.102539,4246.025879,4445.384766,4459.230957,4344.358887,4397.179688,0.000000,2.000000,52.000000,,,,0.000000,4.000000,4.000000,4.000000,4.000000,4.000000,4.000000,4.000000,4.000000,4.000000,4.000000,4.000000,4.000000,4.000000,4.000000,100.000000,,,,,,,,,,,,,,,,,,,,,,,,,,,,,,,,,,,,,,,,,,,,,,,
1665772061.172177,1665772061.172977,63.000000,0.000000,4262.563965,4262.051270,4289.487305,4326.922852,4272.436035,4272.692383,4261.794922,4274.358887,4274.615234,4253.205078,4450.000000,4457.179688,4350.128418,4397.307617,0.000000,2.000000,52.000000,,,,0.000000,4.000000,4.000000,4.000000,4.000000,4.000000,4.000000,4.000000,4.000000,4.000000,4.000000,4.000000,4.000000,4.000000,4.000000,100.000000,,,,,,,,,,,,,,,,,,,,,,,,,,,,,,,,,,,,,,,,,,,,,,,
1665772061.179986,1665772061.180686,64.000000,0.000000,4265.897461,4261.666504,4291.666504,4335.000000,4278.333496,4277.948730,4262.051270,4277.179688,4278.333496,4264.871582,4461.153809,4470.769043,4358.974121,4407.051270,2039.000000,2.000000,52.000000,,,,0.000000,4.000000,4.000000,4.000000,4.000000,4.000000,4.000000,4.000000,4.000000,4.000000,4.000000,4.000000,4.000000,4.000000,4.000000,100.000000,,,,,,,,,,,,,,,,,,,,,,,,,,,,,,,,,,,,,,,,,,,,,,,
1665772061.187794,1665772061.188494,65.000000,0.000000,4269.358887,4269.871582,4298.461426,4342.179688,4279.871582,4281.666504,4261.538574,4282.563965,4279.615234,4264.487305,4465.256348,4481.410156,4361.410156,4416.282227,2147.000000,2.000000,52.000000,,,,0.000000,4.000000,4.000000,4.000000,4.000000,4.000000,4.000000,4.000000,4.000000,4.000000,4.000000,4.000000,4.000000,4.000000,4.000000,100.000000,,,,,,,,,,,,,,,,,,,,,,,,,,,,,,,,,,,,,,,,,,,,,,,
1665772061.195603,1665772061.196203,66.000000,0.000000,4276.410156,4277.051270,4305.384766,4349.358887,4282.436035,4281.794922,4269.871582,4288.333496,4279.102539,4262.051270,4463.077148,4479.871582,4358.589844,4422.307617,2287.000000,2.000000,52.000000,,,,0.000000,4.000000,4.000000,4.000000,4.000000,4.000000,4.000000,4.000000,4.000000,4.000000,4.000000,4.000000,4.000000,4.000000,4.000000,100.000000,,,,,,,,,,,,,,,,,,,,,,,,,,,,,,,,,,,,,,,,,,,,,,,
1665772061.203411,1665772061.204111,67.000000,0.000000,4278.461426,4272.051270,4305.512695,4352.436035,4283.717773,4281.538574,4275.384766,4284.871582,4277.051270,4263.846191,4460.256348,4474.743652,4353.205078,4422.820313,2311.000000,2.000000,52.000000,,,,0.000000,4.000000,4.000000,4.000000,4.000000,4.000000,4.000000,4.000000,4.000000,4.000000,4.000000,4.000000,4.000000,4.000000,4.000000,100.000000,,,,,,,,,,,,,,,,,,,,,,,,,,,,,,,,,,,,,,,,,,,,,,,
1665772061.211219,1665772061.211920,68.000000,0.000000,4276.666504,4270.384766,4305.641113,4351.410156,4282.692383,4280.128418,4271.794922,4285.256348,4279.230957,4264.487305,4458.333496,4473.333496,4351.025879,4420.256348,2401.000000,2.000000,52.000000,,,,0.000000,4.000000,4.000000,4.000000,4.000000,4.000000,4.000000,4.000000,4.000000,4.000000,4.000000,4.000000,4.000000,4.000000,4.000000,100.000000,,,,,,,,,,,,,,,,,,,,,,,,,,,,,,,,,,,,,,,,,,,,,,,
1665772061.219028,1665772061.219828,69.000000,0.000000,4273.461426,4272.179688,4305.769043,4351.538574,4281.666504,4280.769043,4273.589844,4291.410156,4280.897461,4264.230957,4460.256348,4476.666504,4350.769043,4418.205078,2316.000000,2.000000,52.000000,,,,0.000000,4.000000,4.000000,4.000000,4.000000,4.000000,4.000000,4.000000,4.000000,4.000000,4.000000,4.000000,4.000000,4.000000,4.000000,100.000000,,,,,,,,,,,,,,,,,,,,,,,,,,,,,,,,,,,,,,,,,,,,,,,
1665772061.226836,1665772061.227636,70.000000,0.000000,4266.410156,4266.153809,4303.333496,4351.538574,4280.000000,4280.256348,4275.641113,4287.179688,4271.794922,4262.051270,4460.769043,4469.743652,4348.974121,4410.384766,2140.000000,2.000000,52.000000,,,,0.000000,4.000000,4.000000,4.000000,4.000000,4.000000,4.000000,4.000000,4.000000,4.000000,4.000000,4.000000,4.000000,4.000000,4.000000,100.000000,,,,,,,,,,,,,,,,,,,,,,,,,,,,,,,,,,,,,,,,,,,,,,,
1665772061.234645,1665772061.235545,71.000000,0.000000,4262.820313,4263.717773,4301.538574,4350.512695,4279.615234,4278.461426,4271.538574,4280.897461,4267.820313,4261.538574,4458.333496,4459.615234,4352.563965,4401.282227,2177.000000,2.000000,52.000000,,,,0.000000,4.000000,4.000000,4.000000,4.000000,4.000000,4.000000,4.000000,4.000000,4.000000,4.000000,4.000000,4.000000,4.000000,4.000000,100.000000,,,,,,,,,,,,,,,,,,,,,,,,,,,,,,,,,,,,,,,,,,,,,,,
1665772061.242453,1665772061.243353,72.000000,0.000000,4266.922852,4267.307617,4299.871582,4347.948730,4278.333496,4279.230957,4276.025879,4285.897461,4276.666504,4263.717773,4462.436035,4464.102539,4357.563965,4404.871582,2307.000000,2.000000,52.000000,,,,0.000000,4.000000,4.000000,4.000000,4.000000,4.000000,4.000000,4.000000,4.000000,4.000000,4.000000,4.000000,4.000000,4.000000,4.000000,100.000000,,,,,,,,,,,,,,,,,,,,,,,,,,,,,,,,,,,,,,,,,,,,,,,
1665772061.250261,1665772061.251262,73.000000,0.000000,4274.871582,4266.025879,4303.333496,4348.974121,4275.384766,4278.077148,4279.615234,4289.102539,4279.615234,4262.051270,4467.307617,4476.922852,4358.846191,4414.743652,2434.000000,2.000000,52.000000,,,,0.000000,4.000000,4.000000,4.000000,4.000000,4.000000,4.000000,4.000000,4.000000,4.000000,4.000000,4.000000,4.000000,4.000000,4.000000,100.000000,,,,,,,,,,,,,,,,,,,,,,,,,,,,,,,,,,,,,,,,,,,,,,,
1665772061.258070,1665772061.259070,74.000000,0.000000,4277.948730,4269.102539,4310.000000,4355.384766,4273.589844,4275.384766,4272.051270,4283.461426,4275.769043,4258.846191,4464.871582,4486.153809,4361.153809,4415.641113,2575.000000,2.000000,52.000000,,,,0.000000,4.000000,4.000000,4.000000,4.000000,4.000000,4.000000,4.000000,4.000000,4.000000,4.000000,4.000000,4.000000,4.000000,4.000000,100.000000,,,,,,,,,,,,,,,,,,,,,,,,,,,,,,,,,,,,,,,,,,,,,,,
1665772061.265878,1665772061.266978,75.000000,0.000000,4277.563965,4276.282227,4309.871582,4360.128418,4276.282227,4277.436035,4268.333496,4282.436035,4279.358887,4261.794922,4461.153809,4490.000000,4363.461426,4413.846191,2550.000000,2.000000,52.000000,,,,0.000000,4.000000,4.000000,4.000000,4.000000,4.000000,4.000000,4.000000,4.000000,4.000000,4.000000,4.000000,4.000000,4.000000,4.000000,100.000000,,,,,,,,,,,,,,,,,,,,,,,,,,,,,,,,,,,,,,,,,,,,,,,
1665772061.273687,1665772061.274787,76.000000,0.000000,4276.025879,4275.384766,4303.077148,4357.563965,4279.102539,4280.128418,4269.743652,4282.948730,4282.051270,4265.641113,4463.461426,4485.769043,4358.333496,4417.051270,2708.000000,2.000000,52.000000,,,,0.000000,4.000000,4.000000,4.000000,4.000000,4.000000,4.000000,4.000000,4.000000,4.000000,4.000000,4.000000,4.000000,4.000000,4.000000,100.000000,,,,,,,,,,,,,,,,,,,,,,,,,,,,,,,,,,,,,,,,,,,,,,,
1665772061.281495,1665772061.282495,77.000000,0.000000,4281.153809,4275.769043,4304.358887,4357.948730,4275.769043,4279.615234,4269.615234,4282.692383,4276.922852,4263.589844,4460.384766,4478.333496,4352.436035,4421.153809,3365.000000,2.000000,52.000000,,,,0.000000,4.000000,4.000000,4.000000,4.000000,4.000000,4.000000,4.000000,4.000000,4.000000,4.000000,4.000000,4.000000,4.000000,4.000000,100.000000,,,,,,,,,,,,,,,,,,,,,,,,,,,,,,,,,,,,,,,,,,,,,,,
1665772061.289303,1665772061.290304,78.000000,0.000000,4289.743652,4279.358887,4308.846191,4367.307617,4274.102539,4280.512695,4272.051270,4282.307617,4277.948730,4262.436035,4453.589844,4478.205078,4352.436035,4419.102539,2575.000000,2.000000,52.000000,,,,0.000000,4.000000,4.000000,4.000000,4.000000,4.000000,4.000000,4.000000,4.000000,4.000000,4.000000,4.000000,4.000000,4.000000,4.000000,100.000000,,,,,,,,,,,,,,,,,,,,,,,,,,,,,,,,,,,,,,,,,,,,,,,
1665772061.297112,1665772061.298012,79.000000,0.000000,4288.205078,4281.666504,4306.538574,4366.922852,4280.384766,4282.051270,4275.000000,4281.666504,4277.436035,4264.358887,4455.000000,4478.974121,4353.461426,4413.333496,2550.000000,2.000000,52.000000,,,,0.000000,4.000000,4.000000,4.000000,4.000000,4.000000,4.000000,4.000000,4.000000,4.000000,4.000000,4.000000,4.000000,4.000000,4.000000,100.000000,,,,,,,,,,,,,,,,,,,,,,,,,,,,,,,,,,,,,,,,,,,,,,,
1665772061.304920,1665772061.305821,80.000000,0.000000,4280.128418,4278.077148,4298.461426,4356.153809,4284.358887,4280.641113,4270.384766,4280.897461,4268.461426,4266.922852,4452.820313,4470.641113,4350.128418,4411.794922,2708.000000,2.000000,52.000000,,,,0.000000,4.000000,4.000000,4.000000,4.000000,4.000000,4.000000,4.000000,4.000000,4.000000,4.000000,4.000000,4.000000,4.000000,4.000000,100.000000,,,,,,,,,,,,,,,,,,,,,,,,,,,,,,,,,,,,,,,,,,,,,,,
1665772061.312729,1665772061.313529,81.000000,0.000000,4278.974121,4267.051270,4294.358887,4353.461426,4282.051270,4278.589844,4269.871582,4279.743652,4263.077148,4266.153809,4447.179688,4463.846191,4345.769043,4412.436035,3365.000000,2.000000,52.000000,,,,0.000000,4.000000,4.000000,4.000000,4.000000,4.000000,4.000000,4.000000,4.000000,4.000000,4.000000,4.000000,4.000000,4.000000,4.000000,100.000000,,,,,,,,,,,,,,,,,,,,,,,,,,,,,,,,,,,,,,,,,,,,,,,
1665772061.320537,1665772061.321338,82.000000,0.000000,4281.153809,4262.820313,4297.307617,4356.153809,4284.102539,4279.102539,4273.333496,4279.230957,4266.025879,4261.410156,4454.358887,4463.077148,4348.974121,4410.256348,2575.000000,2.000000,52.000000,,,,0.000000,4.000000,4.000000,4.000000,4.000000,4.000000,4.000000,4.000000,4.000000,4.000000,4.000000,4.000000,4.000000,4.000000,4.000000,100.000000,,,,,,,,,,,,,,,,,,,,,,,,,,,,,,,,,,,,,,,,,,,,,,,
1665772061.328345,1665772061.329046,83.000000,0.000000,4280.000000,4275.000000,4300.769043,4355.641113,4291.282227,4278.974121,4267.820313,4279.487305,4265.897461,4259.615234,4460.897461,4468.461426,4352.051270,4412.820313,2550.000000,2.000000,52.000000,,,,0.000000,4.000000,4.000000,4.000000,4.000000,4.000000,4.000000,4.000000,4.000000,4.000000,4.000000,4.000000,4.000000,4.000000,4.000000,100.000000,,,,,,,,,,,,,,,,,,,,,,,,,,,,,,,,,,,,,,,,,,,,,,,
1665772061.336154,1665772061.336855,84.000000,0.000000,4282.948730,4283.205078,4306.153809,4354.615234,4291.538574,4278.589844,4270.256348,4285.000000,4266.538574,4263.333496,4458.077148,4476.153809,4350.512695,4418.846191,2708.000000,2.000000,52.000000,,,,0.000000,4.000000,4.000000,4.000000,4.000000,4.000000,4.000000,4.000000,4.000000,4.000000,4.000000,4.000000,4.000000,4.000000,4.000000,100.000000,,,,,,,,,,,,,,,,,,,,,,,,,,,,,,,,,,,,,,,,,,,,,,,
1665772061.343962,1665772061.344563,85.000000,0.000000,4285.641113,4278.205078,4311.282227,4355.769043,4285.897461,4280.000000,4278.846191,4288.846191,4275.641113,4265.128418,4462.436035,4479.871582,4353.846191,4416.666504,3365.000000,2.000000,52.000000,,,,0.000000,4.000000,4.000000,4.000000,4.000000,4.000000,4.000000,4.000000,4.000000,4.000000,4.000000,4.000000,4.000000,4.000000,4.000000,100.000000,,,,,,,,,,,,,,,,,,,,,,,,,,,,,,,,,,,,,,,,,,,,,,,
1665772061.351771,1665772061.352372,86.000000,0.000000,4280.512695,4276.794922,4307.051270,4356.025879,4281.282227,4280.000000,4272.179688,4285.256348,4281.025879,4262.948730,4466.922852,4477.436035,4358.333496,4412.692383,2575.000000,2.000000,52.000000,,,,0.000000,4.000000,4.000000,4.000000,4.000000,4.000000,4.000000,4.000000,4.000000,4.000000,4.000000,4.000000,4.000000,4.000000,4.000000,100.000000,,,,,,,,,,,,,,,,,,,,,,,,,,,,,,,,,,,,,,,,,,,,,,,
1665772061.359579,1665772061.360080,87.000000,0.000000,4277.948730,4275.512695,4300.128418,4355.128418,4279.743652,4278.205078,4267.820313,4285.256348,4279.743652,4261.922852,4462.179688,4473.846191,4357.179688,4413.974121,2550.000000,2.000000,52.000000,,,,0.000000,4.000000,4.000000,4.000000,4.000000,4.000000,4.000000,4.000000,4.000000,4.000000,4.000000,4.000000,4.000000,4.000000,4.000000,100.000000,,,,,,,,,,,,,,,,,,,,,,,,,,,,,,,,,,,,,,,,,,,,,,,
1665772061.367388,1665772061.367889,88.000000,0.000000,4277.436035,4266.538574,4300.512695,4349.871582,4280.897461,4274.743652,4275.256348,4288.333496,4279.615234,4262.179688,4458.333496,4475.769043,4352.692383,4412.692383,2708.000000,2.000000,52.000000,,,,0.000000,4.000000,4.000000,4.000000,4.000000,4.000000,4.000000,4.000000,4.000000,4.000000,4.000000,4.000000,4.000000,4.000000,4.000000,100.000000,,,,,,,,,,,,,,,,,,,,,,,,,,,,,,,,,,,,,,,,,,,,,,,
1665772061.375196,1665772061.375597,89.000000,0.000000,4279.358887,4268.333496,4303.333496,4349.871582,4278.077148,4274.358887,4274.743652,4284.487305,4281.025879,4263.205078,4454.743652,4475.897461,4349.743652,4408.333496,3365.000000,2.000000,52.000000,,,,0.000000,4.000000,4.000000,4.000000,4.000000,4.000000,4.000000,4.000000,4.000000,4.000000,4.000000,4.000000,4.000000,4.000000,4.000000,100.000000,,,,,,,,,,,,,,,,,,,,,,,,,,,,,,,,,,,,,,,,,,,,,,,
1665772061.383004,1665772061.383406,90.000000,0.000000,4286.538574,4279.743652,4303.333496,4358.461426,4275.769043,4276.538574,4270.000000,4276.538574,4281.410156,4261.153809,4452.948730,4471.666504,4351.153809,4406.922852,2575.000000,2.000000,52.000000,,,,0.000000,4.000000,4.000000,4.000000,4.000000,4.000000,4.000000,4.000000,4.000000,4.000000,4.000000,4.000000,4.000000,4.000000,4.000000,100.000000,,,,,,,,,,,,,,,,,,,,,,,,,,,,,,,,,,,,,,,,,,,,,,,
1665772061.390813,1665772061.391114,91.000000,0.000000,4294.871582,4283.077148,4307.051270,4361.922852,4281.538574,4278.077148,4273.717773,4277.820313,4280.128418,4258.333496,4458.846191,4476.410156,4359.615234,4414.230957,2550.000000,2.000000,52.000000,,,,0.000000,4.000000,4.000000,4.000000,4.000000,4.000000,4.000000,4.000000,4.000000,4.000000,4.000000,4.000000,4.000000,4.000000,4.000000,100.000000,,,,,,,,,,,,,,,,,,,,,,,,,,,,,,,,,,,,,,,,,,,,,,,
1665772061.398621,1665772061.398923,92.000000,0.000000,4296.410156,4282.692383,4310.128418,4363.717773,4287.820313,4284.615234,4276.922852,4285.641113,4277.307617,4262.436035,4463.461426,4489.615234,4365.000000,4422.692383,2708.000000,2.000000,52.000000,,,,0.000000,4.000000,4.000000,4.000000,4.000000,4.000000,4.000000,4.000000,4.000000,4.000000,4.000000,4.000000,4.000000,4.000000,4.000000,100.000000,,,,,,,,,,,,,,,,,,,,,,,,,,,,,,,,,,,,,,,,,,,,,,,
1665772061.406430,1665772061.406631,93.000000,0.000000,4297.948730,4285.897461,4307.692383,4368.589844,4291.410156,4289.871582,4276.794922,4287.820313,4278.717773,4265.897461,4461.922852,4491.538574,4365.384766,4421.153809,3365.000000,2.000000,52.000000,,,,0.000000,4.000000,4.000000,4.000000,4.000000,4.000000,4.000000,4.000000,4.000000,4.000000,4.000000,4.000000,4.000000,4.000000,4.000000,100.000000,1.000000,91.666664,4.000000,4.000000,4.000000,3.000000,4.000000,4.000000,4.000000,4.000000,4.000000,4.000000,4.000000,4.000000,4.000000,4.000000,1.000000,0.435711,-0.448255,-1.475772,0.708729,1.000000,0.007357,2.817680,2.747465,12.291216,0.076891,1.000000,0.280013,38.272903,-83.815025,308.598755,1.000000,0.358518,0.092908,0.091742,0.251638,1.000000,0.312890,3.059767,-4.214016,17.709921,1.000000,0.211713,0.211713,0.000000,1.000000
1665772061.414238,1665772061.414540,94.000000,0.000000,4294.358887,4282.051270,4301.922852,4363.846191,4290.769043,4284.615234,4274.487305,4283.077148,4277.692383,4263.461426,4459.871582,4479.615234,4366.538574,4415.384766,2575.000000,2.000000,52.000000,,,,0.000000,4.000000,4.000000,4.000000,4.000000,4.000000,4.000000,4.000000,4.000000,4.000000,4.000000,4.000000,4.000000,4.000000,4.000000,100.000000,,,,,,,,,,,,,,,,,,,,,,,,,,,,,,,,,,,,,,,,,,,,,,,
1665772061.422047,1665772061.422348,95.000000,0.000000,4285.384766,4275.000000,4298.333496,4351.666504,4283.205078,4277.692383,4268.717773,4279.230957,4268.589844,4262.820313,4458.461426,4473.846191,4361.538574,4418.589844,2550.000000,2.000000,52.000000,,,,0.000000,4.000000,4.000000,4.000000,4.000000,4.000000,4.000000,4.000000,4.000000,4.000000,4.000000,4.000000,4.000000,4.000000,4.000000,100.000000,,,,,,,,,,,,,,,,,,,,,,,,,,,,,,,,,,,,,,,,,,,,,,,
1665772061.429855,1665772061.430256,96.000000,0.000000,4285.128418,4277.307617,4300.384766,4350.512695,4278.846191,4280.512695,4272.179688,4285.384766,4268.461426,4265.128418,4458.846191,4477.179688,4355.256348,4421.538574,2708.000000,2.000000,52.000000,,,,0.000000,4.000000,4.000000,4.000000,4.000000,4.000000,4.000000,4.000000,4.000000,4.000000,4.000000,4.000000,4.000000,4.000000,4.000000,100.000000,,,,,,,,,,,,,,,,,,,,,,,,,,,,,,,,,,,,,,,,,,,,,,,
1665772061.437663,1665772061.438065,97.000000,0.000000,4288.333496,4277.820313,4300.897461,4352.051270,4285.769043,4281.794922,4278.205078,4289.358887,4276.666504,4262.179688,4459.615234,4476.538574,4355.000000,4413.589844,3365.000000,2.000000,52.000000,,,,0.000000,4.000000,4.000000,4.000000,4.000000,4.000000,4.000000,4.000000,4.000000,4.000000,4.000000,4.000000,4.000000,4.000000,4.000000,100.000000,,,,,,,,,,,,,,,,,,,,,,,,,,,,,,,,,,,,,,,,,,,,,,,
1665772061.445472,1665772061.445973,98.000000,0.000000,4289.743652,4275.256348,4301.794922,4347.436035,4292.563965,4278.717773,4278.077148,4289.230957,4277.563965,4259.358887,4457.820313,4473.717773,4349.743652,4413.974121,2575.000000,2.000000,52.000000,,,,0.000000,4.000000,4.000000,4.000000,4.000000,4.000000,4.000000,4.000000,4.000000,4.000000,4.000000,4.000000,4.000000,4.000000,4.000000,100.000000,,,,,,,,,,,,,,,,,,,,,,,,,,,,,,,,,,,,,,,,,,,,,,,
1665772061.453280,1665772061.453782,99.000000,0.000000,4294.615234,4277.692383,4308.077148,4347.820313,4290.512695,4280.641113,4275.769043,4289.102539,4277.179688,4260.128418,4456.922852,4475.512695,4342.692383,4421.153809,2550.000000,2.000000,52.000000,,,,0.000000,4.000000,4.000000,4.000000,4.000000,4.000000,4.000000,4.000000,4.000000,4.000000,4.000000,4.000000,4.000000,4.000000,4.000000,100.000000,,,,,,,,,,,,,,,,,,,,,,,,,,,,,,,,,,,,,,,,,,,,,,,
1665772061.461089,1665772061.461690,100.000000,0.000000,4298.846191,4281.666504,4312.692383,4355.384766,4284.743652,4280.256348,4272.692383,4286.666504,4281.410156,4256.153809,4457.436035,4476.025879,4346.282227,4416.538574,2708.000000,2.000000,52.000000,,,,0.000000,4.000000,4.000000,4.000000,4.000000,4.000000,4.000000,4.000000,4.000000,4.000000,4.000000,4.000000,4.000000,4.000000,4.000000,100.000000,,,,,,,,,,,,,,,,,,,,,,,,,,,,,,,,,,,,,,,,,,,,,,,
1665772061.468897,1665772061.469498,101.000000,0.000000,4296.538574,4282.436035,4310.769043,4359.102539,4279.615234,4277.179688,4270.256348,4284.487305,4279.743652,4254.615234,4457.820313,4474.230957,4351.025879,4409.743652,3365.000000,2.000000,52.000000,,,,0.000000,4.000000,4.000000,4.000000,4.000000,4.000000,4.000000,4.000000,4.000000,4.000000,4.000000,4.000000,4.000000,4.000000,4.000000,100.000000,,,,,,,,,,,,,,,,,,,,,,,,,,,,,,,,,,,,,,,,,,,,,,,
1665772061.476705,1665772061.477407,102.000000,0.000000,4293.333496,4281.666504,4308.717773,4354.487305,4280.256348,4278.461426,4272.948730,4284.615234,4276.794922,4258.717773,4456.282227,4474.102539,4347.948730,4415.000000,2575.000000,2.000000,52.000000,,,,0.000000,4.000000,4.000000,4.000000,4.000000,4.000000,4.000000,4.000000,4.000000,4.000000,4.000000,4.000000,4.000000,4.000000,4.000000,100.000000,,,,,,,,,,,,,,,,,,,,,,,,,,,,,,,,,,,,,,,,,,,,,,,
1665772061.484514,1665772061.485215,103.000000,0.000000,4294.102539,4283.205078,4306.538574,4346.282227,4282.820313,4281.794922,4276.282227,4284.230957,4279.871582,4260.000000,4456.025879,4476.922852,4351.794922,4421.666504,2550.000000,2.000000,52.000000,,,,0.000000,4.000000,4.000000,4.000000,4.000000,4.000000,4.000000,4.000000,4.000000,4.000000,4.000000,4.000000,4.000000,4.000000,4.000000,100.000000,,,,,,,,,,,,,,,,,,,,,,,,,,,,,,,,,,,,,,,,,,,,,,,
1665772061.492322,1665772061.492924,104.000000,0.000000,4293.717773,4282.948730,4302.436035,4343.461426,4281.538574,4280.897461,4272.436035,4281.025879,4279.615234,4260.641113,4457.820313,4477.692383,4362.563965,4420.256348,2708.000000,2.000000,52.000000,,,,0.000000,4.000000,4.000000,4.000000,4.000000,4.000000,4.000000,4.000000,4.000000,4.000000,4.000000,4.000000,4.000000,4.000000,4.000000,100.000000,,,,,,,,,,,,,,,,,,,,,,,,,,,,,,,,,,,,,,,,,,,,,,,
1665772061.500131,1665772061.500732,105.000000,0.000000,4293.589844,4279.230957,4300.641113,4343.717773,4280.641113,4278.846191,4273.461426,4278.974121,4279.615234,4265.897461,4458.846191,4476.410156,4366.153809,4417.436035,3365.000000,2.000000,52.000000,,,,0.000000,4.000000,4.000000,4.000000,4.000000,4.000000,4.000000,4.000000,4.000000,4.000000,4.000000,4.000000,4.000000,4.000000,4.000000,100.000000,,,,,,,,,,,,,,,,,,,,,,,,,,,,,,,,,,,,,,,,,,,,,,,
1665772061.507939,1665772061.508441,106.000000,0.000000,4293.974121,4277.179688,4300.512695,4338.461426,4282.179688,4279.615234,4279.871582,4281.025879,4281.794922,4264.358887,4460.897461,4483.589844,4366.282227,4419.487305,2575.000000,2.000000,52.000000,,,,0.000000,4.000000,4.000000,4.000000,4.000000,4.000000,4.000000,4.000000,4.000000,4.000000,4.000000,4.000000,4.000000,4.000000,4.000000,100.000000,,,,,,,,,,,,,,,,,,,,,,,,,,,,,,,,,,,,,,,,,,,,,,,
1665772061.515747,1665772061.516249,107.000000,0.000000,4296.025879,4276.538574,4300.769043,4336.282227,4280.384766,4280.769043,4277.820313,4286.153809,4281.282227,4264.615234,4463.333496,4494.230957,4367.948730,4426.794922,2550.000000,2.000000,52.000000,,,,0.000000,4.000000,4.000000,4.000000,4.000000,4.000000,4.000000,4.000000,4.000000,4.000000,4.000000,4.000000,4.000000,4.000000,4.000000,100.000000,,,,,,,,,,,,,,,,,,,,,,,,,,,,,,,,,,,,,,,,,,,,,,,
1665772061.523556,1665772061.523958,108.000000,0.000000,4296.410156,4270.128418,4298.589844,4337.436035,4279.615234,4282.307617,4270.897461,4288.077148,4282.179688,4275.384766,4461.794922,4489.871582,4363.077148,4424.743652,2708.000000,2.000000,52.000000,,,,0.000000,4.000000,4.000000,4.000000,4.000000,4.000000,4.000000,4.000000,4.000000,4.000000,4.000000,4.000000,4.000000,4.000000,4.000000,100.000000,,,,,,,,,,,,,,,,,,,,,,,,,,,,,,,,,,,,,,,,,,,,,,,
1665772061.531364,1665772061.531866,109.000000,0.000000,4291.538574,4261.922852,4295.641113,4334.230957,4282.820313,4281.153809,4269.615234,4285.128418,4283.205078,4272.307617,4457.307617,4476.666504,4355.000000,4412.692383,3365.000000,2.000000,52.000000,,,,0.000000,4.000000,4.000000,4.000000,4.000000,4.000000,4.000000,4.000000,4.000000,4.000000,4.000000,4.000000,4.000000,4.000000,4.000000,100.000000,,,,,,,,,,,,,,,,,,,,,,,,,,,,,,,,,,,,,,,,,,,,,,,
1665772061.539173,1665772061.539675,110.000000,0.000000,4288.589844,4263.717773,4291.410156,4333.461426,4282.436035,4278.461426,4270.256348,4283.077148,4278.974121,4258.589844,4454.230957,4472.948730,4349.230957,4408.077148,2575.000000,2.000000,52.000000,,,,0.000000,4.000000,4.000000,4.000000,4.000000,4.000000,4.000000,4.000000,4.000000,4.000000,4.000000,4.000000,4.000000,4.000000,4.000000,100.000000,,,,,,,,,,,,,,,,,,,,,,,,,,,,,,,,,,,,,,,,,,,,,,,
1665772061.546981,1665772061.547583,111.000000,0.000000,4289.230957,4267.179688,4289.487305,4336.282227,4280.128418,4279.102539,4270.000000,4284.230957,4276.282227,4260.000000,4453.846191,4473.077148,4344.871582,4409.358887,2550.000000,2.000000,52.000000,,,,0.000000,4.000000,4.000000,4.000000,4.000000,4.000000,4.000000,4.000000,4.000000,4.000000,4.000000,4.000000,4.000000,4.000000,4.000000,100.000000,,,,,,,,,,,,,,,,,,,,,,,,,,,,,,,,,,,,,,,,,,,,,,,
1665772061.554789,1665772061.555391,112.000000,0.000000,4287.307617,4264.358887,4290.897461,4332.820313,4287.436035,4280.897461,4271.282227,4287.307617,4280.512695,4267.307617,4457.051270,4471.794922,4344.871582,4411.025879,2708.000000,2.000000,52.000000,,,,0.000000,4.000000,4.000000,4.000000,4.000000,4.000000,4.000000,4.000000,4.000000,4.000000,4.000000,4.000000,4.000000,4.000000,4.000000,100.000000,,,,,,,,,,,,,,,,,,,,,,,,,,,,,,,,,,,,,,,,,,,,,,,
1665772061.562598,1665772061.563300,113.000000,0.000000,4288.205078,4271.538574,4296.666504,4329.615234,4295.641113,4280.769043,4279.615234,4291.922852,4283.717773,4265.641113,4460.128418,4476.153809,4350.512695,4420.000000,3365.000000,2.000000,52.000000,1,1,1,0.000000,4.000000,4.000000,4.000000,4.000000,4.000000,4.000000,4.000000,4.000000,4.000000,4.000000,4.000000,4.000000,4.000000,4.000000,100.000000,,,,,,,,,,,,,,,,,,,,,,,,,,,,,,,,,,,,,,,,,,,,,,,
1665772061.570406,1665772061.571108,114.000000,0.000000,4296.025879,4285.512695,4301.282227,4335.769043,4297.179688,4280.512695,4288.077148,4291.282227,4281.025879,4263.333496,4460.897461,4479.615234,4352.563965,4423.077148,2575.000000,2.000000,52.000000,,,,0.000000,4.000000,4.000000,4.000000,4.000000,4.000000,4.000000,4.000000,4.000000,4.000000,4.000000,4.000000,4.000000,4.000000,4.000000,100.000000,,,,,,,,,,,,,,,,,,,,,,,,,,,,,,,,,,,,,,,,,,,,,,,
1665772061.578215,1665772061.578917,115.000000,0.000000,4298.974121,4285.641113,4299.358887,4337.436035,4291.922852,4278.333496,4280.897461,4284.743652,4277.820313,4262.051270,4460.641113,4475.384766,4346.538574,4411.666504,2550.000000,2.000000,52.000000,,,,0.000000,4.000000,4.000000,4.000000,4.000000,4.000000,4.000000,4.000000,4.000000,4.000000,4.000000,4.000000,4.000000,4.000000,4.000000,100.000000,,,,,,,,,,,,,,,,,,,,,,,,,,,,,,,,,,,,,,,,,,,,,,,
1665772061.586023,1665772061.586625,116.000000,0.000000,4293.077148,4278.077148,4295.256348,4328.846191,4284.871582,4271.538574,4265.897461,4278.461426,4275.641113,4257.820313,4456.153809,4468.846191,4341.410156,4406.153809,2708.000000,2.000000,52.000000,,,,0.000000,4.000000,4.000000,4.000000,4.000000,4.000000,4.000000,4.000000,4.000000,4.000000,4.000000,4.000000,4.000000,4.000000,4.000000,100.000000,,,,,,,,,,,,,,,,,,,,,,,,,,,,,,,,,,,,,,,,,,,,,,,
1665772061.593831,1665772061.594533,117.000000,0.000000,4295.512695,4282.436035,4296.410156,4321.410156,4285.000000,4271.410156,4268.333496,4277.948730,4278.205078,4259.615234,4455.512695,4474.102539,4347.051270,4413.717773,3365.000000,2.000000,52.000000,,,,0.000000,4.000000,4.000000,4.000000,4.000000,4.000000,4.000000,4.000000,4.000000,4.000000,4.000000,4.000000,4.000000,4.000000,4.000000,100.000000,,,,,,,,,,,,,,,,,,,,,,,,,,,,,,,,,,,,,,,,,,,,,,,
1665772061.601640,1665772061.602342,118.000000,0.000000,4306.538574,4289.358887,4303.589844,4326.666504,4292.179688,4282.820313,4283.974121,4287.820313,4285.641113,4270.128418,4467.820313,4491.282227,4362.820313,4424.743652,2575.000000,2.000000,52.000000,,,,0.000000,4.000000,4.000000,4.000000,4.000000,4.000000,4.000000,4.000000,4.000000,4.000000,4.000000,4.000000,4.000000,4.000000,4.000000,100.000000,,,,,,,,,,,,,,,,,,,,,,,,,,,,,,,,,,,,,,,,,,,,,,,
1665772061.609448,1665772061.610250,119.000000,0.000000,4312.179688,4287.563965,4306.153809,4331.025879,4295.512695,4291.282227,4287.051270,4297.307617,4294.358887,4281.025879,4478.846191,4500.384766,4371.153809,4432.436035,2550.000000,2.000000,52.000000,,,,0.000000,4.000000,4.000000,4.000000,4.000000,4.000000,4.000000,4.000000,4.000000,4.000000,4.000000,4.000000,4.000000,4.000000,4.000000,100.000000,,,,,,,,,,,,,,,,,,,,,,,,,,,,,,,,,,,,,,,,,,,,,,,
1665772061.617257,1665772061.618059,120.000000,0.000000,4310.128418,4281.025879,4300.256348,4317.563965,4290.769043,4288.205078,4279.871582,4297.436035,4297.436035,4284.487305,4473.333496,4494.743652,4365.256348,4426.666504,2708.000000,2.000000,52.000000,,,,0.000000,4.000000,4.000000,4.000000,4.000000,4.000000,4.000000,4.000000,4.000000,4.000000,4.000000,4.000000,4.000000,4.000000,4.000000,100.000000,,,,,,,,,,,,,,,,,,,,,,,,,,,,,,,,,,,,,,,,,,,,,,,
1665772061.625065,1665772061.625967,121.000000,0.000000,4301.153809,4269.487305,4292.692383,4307.820313,4288.077148,4286.153809,4280.000000,4291.538574,4288.077148,4275.000000,4461.410156,4489.743652,4355.897461,4414.358887,3365.000000,2.000000,52.000000,,,,0.000000,4.000000,4.000000,4.000000,4.000000,4.000000,4.000000,4.000000,4.000000,4.000000,4.000000,4.000000,4.000000,4.000000,4.000000,100.000000,,,,,,,,,,,,,,,,,,,,,,,,,,,,,,,,,,,,,,,,,,,,,,,
1665772061.632873,1665772061.633776,122.000000,0.000000,4299.615234,4267.948730,4292.436035,4318.077148,4290.641113,4292.436035,4287.563965,4293.077148,4281.410156,4267.051270,4458.205078,4490.000000,4350.256348,4413.205078,2575.000000,2.000000,52.000000,,,,0.000000,4.000000,4.000000,4.000000,4.000000,4.000000,4.000000,4.000000,4.000000,4.000000,4.000000,4.000000,4.000000,4.000000,4.000000,100.000000,,,,,,,,,,,,,,,,,,,,,,,,,,,,,,,,,,,,,,,,,,,,,,,
1665772061.640682,1665772061.641684,123.000000,0.000000,4309.230957,4278.846191,4298.333496,4326.794922,4295.641113,4297.051270,4285.256348,4297.179688,4283.974121,4274.102539,4459.487305,4488.846191,4352.436035,4418.205078,2550.000000,2.000000,52.000000,,,,0.000000,4.000000,4.000000,4.000000,4.000000,4.000000,4.000000,4.000000,4.000000,4.000000,4.000000,4.000000,4.000000,4.000000,4.000000,100.000000,,,,,,,,,,,,,,,,,,,,,,,,,,,,,,,,,,,,,,,,,,,,,,,
1665772061.648490,1665772061.649492,124.000000,0.000000,4312.820313,4282.307617,4300.897461,4325.000000,4298.846191,4293.589844,4276.794922,4292.820313,4283.205078,4274.871582,4459.615234,4489.615234,4354.230957,4418.205078,2708.000000,2.000000,52.000000,,,,0.000000,4.000000,4.000000,4.000000,4.000000,4.000000,4.000000,4.000000,4.000000,4.000000,4.000000,4.000000,4.000000,4.000000,4.000000,100.000000,,,,,,,,,,,,,,,,,,,,,,,,,,,,,,,,,,,,,,,,,,,,,,,
1665772061.656299,1665772061.657201,125.000000,0.000000,4311.025879,4284.358887,4300.256348,4325.256348,4298.974121,4293.589844,4280.256348,4289.487305,4279.358887,4264.487305,4461.153809,4487.948730,4352.179688,4416.922852,3365.000000,2.000000,52.000000,,,,0.000000,4.000000,4.000000,4.000000,4.000000,4.000000,4.000000,4.000000,4.000000,4.000000,4.000000,4.000000,4.000000,4.000000,4.000000,100.000000,,,,,,,,,,,,,,,,,,,,,,,,,,,,,,,,,,,,,,,,,,,,,,,
1665772061.664107,1665772061.665009,126.000000,0.000000,4312.051270,4294.871582,4302.692383,4328.717773,4298.717773,4295.641113,4286.282227,4292.436035,4278.846191,4263.077148,4459.230957,4480.512695,4350.769043,4416.538574,2575.000000,2.000000,52.000000,,,,0.000000,4.000000,4.000000,4.000000,4.000000,4.000000,4.000000,4.000000,4.000000,4.000000,4.000000,4.000000,4.000000,4.000000,4.000000,100.000000,,,,,,,,,,,,,,,,,,,,,,,,,,,,,,,,,,,,,,,,,,,,,,,
1665772061.671915,1665772061.672718,127.000000,0.000000,4314.871582,4295.897461,4305.000000,4327.436035,4296.922852,4287.179688,4280.897461,4292.051270,4277.820313,4266.282227,4457.820313,4477.436035,4352.179688,4415.897461,52.000000,2.000000,52.000000,,,,0.000000,4.000000,4.000000,4.000000,4.000000,4.000000,4.000000,4.000000,4.000000,4.000000,4.000000,4.000000,4.000000,4.000000,4.000000,100.000000,,,,,,,,,,,,,,,,,,,,,,,,,,,,,,,,,,,,,,,,,,,,,,,
1665772061.679724,1665772061.680626,0.000000,0.000000,4320.897461,4289.487305,4306.922852,4318.717773,4297.307617,4283.846191,4281.666504,4291.794922,4277.436035,4265.769043,4469.358887,4487.563965,4358.461426,4422.820313,2032.000000,2.000000,52.000000,,,,0.000000,4.000000,4.000000,4.000000,4.000000,4.000000,4.000000,4.000000,4.000000,4.000000,4.000000,4.000000,4.000000,4.000000,4.000000,100.000000,,,,,,,,,,,,,,,,,,,,,,,,,,,,,,,,,,,,,,,,,,,,,,,
1665772061.687532,1665772061.688435,1.000000,0.000000,4325.384766,4294.358887,4309.230957,4313.077148,4297.179688,4293.077148,4290.641113,4299.871582,4285.897461,4272.948730,4479.743652,4502.179688,4366.922852,4432.179688,2144.000000,2.000000,52.000000,,,,0.000000,4.000000,4.000000,4.000000,4.000000,4.000000,4.000000,4.000000,4.000000,4.000000,4.000000,4.000000,4.000000,4.000000,4.000000,100.000000,,,,,,,,,,,,,,,,,,,,,,,,,,,,,,,,,,,,,,,,,,,,,,,
1665772061.695341,1665772061.696243,2.000000,0.000000,4320.769043,4295.000000,4308.333496,4314.358887,4298.333496,4296.922852,4294.871582,4306.153809,4295.000000,4281.794922,4477.307617,4507.307617,4367.179688,4431.025879,2269.000000,2.000000,52.000000,,,,0.000000,4.000000,4.000000,4.000000,4.000000,4.000000,4.000000,4.000000,4.000000,4.000000,4.000000,4.000000,4.000000,4.000000,4.000000,100.000000,,,,,,,,,,,,,,,,,,,,,,,,,,,,,,,,,,,,,,,,,,,,,,,
1665772061.703149,1665772061.703952,3.000000,0.000000,4321.153809,4289.743652,4308.077148,4312.563965,4301.153809,4295.000000,4297.436035,4307.179688,4297.692383,4280.128418,4474.615234,4506.153809,4366.794922,4427.820313,2312.000000,2.000000,52.000000,,,,0.000000,4.000000,4.000000,4.000000,4.000000,4.000000,4.000000,4.000000,4.000000,4.000000,4.000000,4.000000,4.000000,4.000000,4.000000,100.000000,,,,,,,,,,,,,,,,,,,,,,,,,,,,,,,,,,,,,,,,,,,,,,,
1665772061.710958,1665772061.711760,4.000000,0.000000,4328.461426,4292.948730,4311.025879,4312.563965,4300.000000,4297.179688,4299.871582,4313.077148,4297.051270,4280.000000,4476.282227,4508.461426,4372.307617,4428.461426,2399.000000,2.000000,52.000000,,,,0.000000,4.000000,4.000000,4.000000,4.000000,4.000000,4.000000,4.000000,4.000000,4.000000,4.000000,4.000000,4.000000,4.000000,4.000000,100.000000,,,,,,,,,,,,,,,,,,,,,,,,,,,,,,,,,,,,,,,,,,,,,,,
1665772061.718766,1665772061.719469,5.000000,0.000000,4323.717773,4296.794922,4308.077148,4310.000000,4297.563965,4297.820313,4297.051270,4312.051270,4299.102539,4283.333496,4475.000000,4507.179688,4369.358887,4428.717773,2299.000000,2.000000,52.000000,,,,0.000000,4.000000,4.000000,4.000000,4.000000,4.000000,4.000000,4.000000,4.000000,4.000000,4.000000,4.000000,4.000000,4.000000,4.000000,100.000000,,,,,,,,,,,,,,,,,,,,,,,,,,,,,,,,,,,,,,,,,,,,,,,
1665772061.726574,1665772061.727277,6.000000,0.000000,4311.922852,4293.205078,4302.179688,4296.538574,4297.692383,4295.897461,4294.358887,4299.615234,4296.794922,4282.436035,4470.128418,4497.307617,4367.563965,4425.641113,2129.000000,2.000000,52.000000,,,,0.000000,4.000000,4.000000,4.000000,4.000000,4.000000,4.000000,4.000000,4.000000,4.000000,4.000000,4.000000,4.000000,4.000000,4.000000,100.000000,,,,,,,,,,,,,,,,,,,,,,,,,,,,,,,,,,,,,,,,,,,,,,,
1665772061.734383,1665772061.734986,7.000000,0.000000,4311.666504,4292.436035,4301.153809,4295.128418,4296.666504,4295.000000,4292.820313,4291.410156,4284.487305,4277.563965,4463.589844,4489.487305,4373.589844,4425.384766,2174.000000,2.000000,52.000000,,,,0.000000,4.000000,4.000000,4.000000,4.000000,4.000000,4.000000,4.000000,4.000000,4.000000,4.000000,4.000000,4.000000,4.000000,4.000000,100.000000,,,,,,,,,,,,,,,,,,,,,,,,,,,,,,,,,,,,,,,,,,,,,,,
1665772061.742191,1665772061.742794,8.000000,0.000000,4322.692383,4295.000000,4303.333496,4312.436035,4294.230957,4292.436035,4284.358887,4290.897461,4279.102539,4277.436035,4462.051270,4491.538574,4371.410156,4428.974121,2299.000000,2.000000,52.000000,,,,0.000000,4.000000,4.000000,4.000000,4.000000,4.000000,4.000000,4.000000,4.000000,4.000000,4.000000,4.000000,4.000000,4.000000,4.000000,100.000000,,,,,,,,,,,,,,,,,,,,,,,,,,,,,,,,,,,,,,,,,,,,,,,
1665772061.750000,1665772061.750503,9.000000,0.000000,4326.538574,4293.717773,4302.563965,4315.897461,4296.410156,4292.563965,4276.922852,4291.794922,4282.563965,4281.794922,4465.769043,4493.974121,4365.769043,4432.179688,2429.000000,2.000000,52.000000,,,,0.000000,4.000000,4.000000,4.000000,4.000000,4.000000,4.000000,4.000000,4.000000,4.000000,4.000000,4.000000,4.000000,4.000000,4.000000,100.000000,,,,,,,,,,,,,,,,,,,,,,,,,,,,,,,,,,,,,,,,,,,,,,,
1665772061.757808,1665772061.758311,10.000000,0.000000,4319.230957,4294.743652,4299.743652,4301.666504,4298.461426,4293.589844,4278.717773,4291.153809,4281.282227,4280.256348,4468.846191,4492.820313,4367.692383,4433.461426,2558.000000,2.000000,52.000000,,,,0.000000,4.000000,4.000000,4.000000,4.000000,4.000000,4.000000,4.000000,4.000000,4.000000,4.000000,4.000000,4.000000,4.000000,4.000000,100.000000,,,,,,,,,,,,,,,,,,,,,,,,,,,,,,,,,,,,,,,,,,,,,,,
1665772061.765616,1665772061.766020,11.000000,0.000000,4315.641113,4291.282227,4298.205078,4295.897461,4295.384766,4291.282227,4281.282227,4291.025879,4278.974121,4276.282227,4468.461426,4491.666504,4366.922852,4428.077148,2543.000000,2.000000,52.000000,,,,0.000000,4.000000,4.000000,4.000000,4.000000,4.000000,4.000000,4.000000,4.000000,4.000000,4.000000,4.000000,4.000000,4.000000,4.000000,100.000000,,,,,,,,,,,,,,,,,,,,,,,,,,,,,,,,,,,,,,,,,,,,,,,
1665772061.773425,1665772061.773828,12.000000,0.000000,4315.256348,4283.205078,4299.358887,4296.410156,4296.794922,4292.563965,4283.461426,4293.717773,4281.282227,4277.692383,4465.512695,4492.051270,4360.000000,4419.615234,2718.000000,2.000000,52.000000,,,,0.000000,4.000000,4.000000,4.000000,4.000000,4.000000,4.000000,4.000000,4.000000,4.000000,4.000000,4.000000,4.000000,4.000000,4.000000,100.000000,,,,,,,,,,,,,,,,,,,,,,,,,,,,,,,,,,,,,,,,,,,,,,,
1665772061.781233,1665772061.781537,13.000000,0.000000,4311.282227,4281.410156,4301.282227,4293.846191,4304.230957,4295.000000,4287.563965,4299.871582,4281.282227,4281.538574,4464.615234,4491.538574,4355.384766,4416.410156,3346.000000,2.000000,52.000000,,,,0.000000,4.000000,4.000000,4.000000,4.000000,4.000000,4.000000,4.000000,4.000000,4.000000,4.000000,4.000000,4.000000,4.000000,4.000000,100.000000,,,,,,,,,,,,,,,,,,,,,,,,,,,,,,,,,,,,,,,,,,,,,,,
1665772061.789042,1665772061.789445,14.000000,0.000000,4307.436035,4281.282227,4298.461426,4291.153809,4305.256348,4291.025879,4287.051270,4300.256348,4280.256348,4275.128418,4465.000000,4489.615234,4351.410156,4417.820313,2558.000000,2.000000,52.000000,,,,0.000000,4.000000,4.000000,4.000000,4.000000,4.000000,4.000000,4.000000,4.000000,4.000000,4.000000,4.000000,4.000000,4.000000,4.000000,100.000000,,,,,,,,,,,,,,,,,,,,,,,,,,,,,,,,,,,,,,,,,,,,,,,
1665772061.796850,1665772061.797253,15.000000,0.000000,4310.256348,4285.769043,4301.538574,4295.897461,4301.025879,4289.743652,4287.436035,4296.410156,4282.820313,4268.974121,4464.871582,4492.692383,4352.307617,4421.282227,2543.000000,2.000000,52.000000,,,,0.000000,4.000000,4.000000,4.000000,4.000000,4.000000,4.000000,4.000000,4.000000,4.000000,4.000000,4.000000,4.000000,4.000000,4.000000,100.000000,,,,,,,,,,,,,,,,,,,,,,,,,,,,,,,,,,,,,,,,,,,,,,,
1665772061.804659,1665772061.805162,16.000000,0.000000,4311.410156,4293.589844,4305.384766,4295.512695,4301.410156,4292.436035,4290.897461,4296.666504,4282.820313,4270.641113,4463.717773,4488.461426,4352.692383,4419.230957,0.000000,2.000000,52.000000,,,,0.000000,4.000000,4.000000,4.000000,4.000000,4.000000,4.000000,4.000000,4.000000,4.000000,4.000000,4.000000,4.000000,4.000000,4.000000,100.000000,,,,,,,,,,,,,,,,,,,,,,,,,,,,,,,,,,,,,,,,,,,,,,,
1665772061.812467,1665772061.812970,17.000000,0.000000,4305.000000,4290.000000,4299.230957,4282.948730,4302.692383,4290.000000,4283.077148,4293.205078,4279.871582,4268.589844,4458.974121,4474.358887,4348.205078,4415.128418,0.000000,2.000000,52.000000,,,,0.000000,4.000000,4.000000,4.000000,4.000000,4.000000,4.000000,4.000000,4.000000,4.000000,4.000000,4.000000,4.000000,4.000000,4.000000,100.000000,,,,,,,,,,,,,,,,,,,,,,,,,,,,,,,,,,,,,,,,,,,,,,,
1665772061.820275,1665772061.820879,18.000000,0.000000,4306.922852,4288.333496,4298.461426,4286.282227,4296.282227,4290.000000,4277.563965,4288.589844,4280.641113,4267.948730,4458.461426,4479.358887,4351.794922,4420.256348,0.000000,2.000000,52.000000,,,,0.000000,4.000000,4.000000,4.000000,4.000000,4.000000,4.000000,4.000000,4.000000,4.000000,4.000000,4.000000,4.000000,4.000000,4.000000,100.000000,,,,,,,,,,,,,,,,,,,,,,,,,,,,,,,,,,,,,,,,,,,,,,,
1665772061.828084,1665772061.828687,19.000000,0.000000,4319.615234,4302.436035,4307.051270,4298.077148,4292.820313,4296.025879,4287.307617,4291.922852,4282.563965,4275.256348,4469.102539,4495.897461,4360.897461,4435.897461,0.000000,2.000000,52.000000,,,,0.000000,4.000000,4.000000,4.000000,4.000000,4.000000,4.000000,4.000000,4.000000,4.000000,4.000000,4.000000,4.000000,4.000000,4.000000,100.000000,,,,,,,,,,,,,,,,,,,,,,,,,,,,,,,,,,,,,,,,,,,,,,,
1665772061.835892,1665772061.836595,20.000000,0.000000,4326.922852,4305.512695,4308.974121,4293.846191,4300.769043,4298.205078,4292.179688,4295.000000,4283.205078,4279.358887,4474.230957,4495.897461,4365.897461,4440.128418,0.000000,2.000000,52.000000,,,,0.000000,4.000000,4.000000,4.000000,4.000000,4.000000,4.000000,4.000000,4.000000,4.000000,4.000000,4.000000,4.000000,4.000000,4.000000,100.000000,,,,,,,,,,,,,,,,,,,,,,,,,,,,,,,,,,,,,,,,,,,,,,,
1665772061.843701,1665772061.844404,21.000000,0.000000,4327.051270,4295.128418,4306.538574,4286.922852,4303.846191,4296.794922,4292.179688,4294.487305,4287.051270,4280.000000,4469.102539,4496.666504,4371.153809,4432.051270,0.000000,2.000000,52.000000,,,,0.000000,4.000000,4.000000,4.000000,4.000000,4.000000,4.000000,4.000000,4.000000,4.000000,4.000000,4.000000,4.000000,4.000000,4.000000,100.000000,,,,,,,,,,,,,,,,,,,,,,,,,,,,,,,,,,,,,,,,,,,,,,,
1665772061.851509,1665772061.852112,22.000000,0.000000,4322.563965,4289.871582,4305.512695,4285.384766,4300.128418,4297.436035,4293.077148,4294.871582,4288.717773,4283.717773,4466.410156,4501.794922,4370.641113,4428.077148,0.000000,2.000000,52.000000,,,,0.000000,4.000000,4.000000,4.000000,4.000000,4.000000,4.000000,4.000000,4.000000,4.000000,4.000000,4.000000,4.000000,4.000000,4.000000,100.000000,,,,,,,,,,,,,,,,,,,,,,,,,,,,,,,,,,,,,,,,,,,,,,,
1665772061.859317,1665772061.859921,23.000000,0.000000,4312.692383,4282.948730,4296.922852,4279.102539,4304.102539,4295.641113,4288.717773,4295.512695,4281.794922,4280.897461,4460.000000,4494.230957,4360.128418,4421.025879,0.000000,2.000000,52.000000,,,,0.000000,4.000000,4.000000,4.000000,4.000000,4.000000,4.000000,4.000000,4.000000,4.000000,4.000000,4.000000,4.000000,4.000000,4.000000,100.000000,,,,,,,,,,,,,,,,,,,,,,,,,,,,,,,,,,,,,,,,,,,,,,,
1665772061.867126,1665772061.867629,24.000000,0.000000,4307.820313,4278.205078,4291.666504,4273.461426,4307.563965,4293.589844,4285.897461,4293.589844,4275.512695,4275.641113,4455.769043,4488.333496,4355.384766,4414.102539,0.000000,2.000000,52.000000,,,,0.000000,4.000000,4.000000,4.000000,4.000000,4.000000,4.000000,4.000000,4.000000,4.000000,4.000000,4.000000,4.000000,4.000000,4.000000,100.000000,,,,,,,,,,,,,,,,,,,,,,,,,,,,,,,,,,,,,,,,,,,,,,,
1665772061.874934,1665772061.875438,25.000000,0.000000,4307.820313,4281.794922,4293.461426,4275.000000,4303.077148,4291.794922,4283.717773,4290.000000,4277.051270,4280.769043,4462.436035,4486.538574,4361.282227,4416.666504,0.000000,2.000000,52.000000,,,,0.000000,4.000000,4.000000,4.000000,4.000000,4.000000,4.000000,4.000000,4.000000,4.000000,4.000000,4.000000,4.000000,4.000000,4.000000,100.000000,,,,,,,,,,,,,,,,,,,,,,,,,,,,,,,,,,,,,,,,,,,,,,,
1665772061.882743,1665772061.883146,26.000000,0.000000,4304.230957,4281.153809,4291.794922,4276.282227,4302.948730,4288.846191,4276.666504,4285.000000,4277.948730,4278.846191,4463.461426,4476.922852,4360.384766,4421.922852,0.000000,2.000000,52.000000,,,,0.000000,4.000000,4.000000,4.000000,4.000000,4.000000,4.000000,4.000000,4.000000,4.000000,4.000000,4.000000,4.000000,4.000000,4.000000,100.000000,,,,,,,,,,,,,,,,,,,,,,,,,,,,,,,,,,,,,,,,,,,,,,,
1665772061.890551,1665772061.890955,27.000000,0.000000,4305.641113,4278.974121,4293.461426,4275.512695,4302.563965,4287.692383,4276.666504,4285.897461,4272.436035,4268.717773,4456.666504,4474.487305,4351.794922,4418.589844,0.000000,2.000000,52.000000,,,,0.000000,4.000000,4.000000,4.000000,4.000000,4.000000,4.000000,4.000000,4.000000,4.000000,4.000000,4.000000,4.000000,4.000000,4.000000,100.000000,,,,,,,,,,,,,,,,,,,,,,,,,,,,,,,,,,,,,,,,,,,,,,,
1665772061.898359,1665772061.898663,28.000000,0.000000,4308.974121,4279.487305,4295.128418,4270.641113,4295.256348,4286.153809,4282.179688,4289.743652,4265.769043,4265.512695,4459.102539,4475.769043,4349.615234,4411.282227,0.000000,2.000000,52.000000,,,,0.000000,4.000000,4.000000,4.000000,4.000000,4.000000,4.000000,4.000000,4.000000,4.000000,4.000000,4.000000,4.000000,4.000000,4.000000,100.000000,,,,,,,,,,,,,,,,,,,,,,,,,,,,,,,,,,,,,,,,,,,,,,,
1665772061.906168,1665772061.906472,29.000000,0.000000,4301.922852,4276.666504,4287.563965,4263.205078,4293.846191,4280.384766,4276.282227,4284.487305,4263.077148,4266.025879,4457.051270,4462.307617,4349.230957,4406.025879,0.000000,2.000000,52.000000,,,,0.000000,4.000000,4.000000,4.000000,4.000000,4.000000,4.000000,4.000000,4.000000,4.000000,4.000000,4.000000,4.000000,4.000000,4.000000,100.000000,1.000000,91.666664,4.000000,4.000000,4.000000,3.000000,4.000000,4.000000,4.000000,4.000000,4.000000,4.000000,4.000000,4.000000,4.000000,4.000000,1.000000,0.438304,-0.500362,-1.475755,0.708645,1.000000,0.007184,2.816030,2.747465,12.291216,0.075353,1.000000,0.276934,37.058887,-83.821739,308.576599,1.000000,0.327548,0.109138,0.091750,0.251624,1.000000,0.309507,3.064805,-4.215183,17.709337,1.000000,0.225013,0.225013,0.000000,1.000000
1665772061.913976,1665772061.914180,30.000000,0.000000,4292.563965,4276.666504,4284.358887,4260.641113,4294.615234,4276.794922,4269.487305,4281.410156,4262.051270,4261.538574,4444.615234,4453.846191,4340.641113,4401.410156,0.000000,2.000000,52.000000,,,,0.000000,4.000000,4.000000,4.000000,4.000000,4.000000,4.000000,4.000000,4.000000,4.000000,4.000000,4.000000,4.000000,4.000000,4.000000,100.000000,,,,,,,,,,,,,,,,,,,,,,,,,,,,,,,,,,,,,,,,,,,,,,,
1665772061.921785,1665772061.921989,31.000000,0.000000,4295.512695,4281.794922,4289.358887,4263.589844,4294.743652,4285.000000,4277.948730,4290.128418,4266.794922,4260.256348,4446.025879,4465.641113,4336.922852,4402.820313,0.000000,2.000000,52.000000,,,,0.000000,4.000000,4.000000,4.000000,4.000000,4.000000,4.000000,4.000000,4.000000,4.000000,4.000000,4.000000,4.000000,4.000000,4.000000,100.000000,,,,,,,,,,,,,,,,,,,,,,,,,,,,,,,,,,,,,,,,,,,,,,,
1665772061.929593,1665772061.929697,32.000000,0.000000,4305.384766,4283.974121,4292.820313,4265.256348,4306.922852,4296.410156,4292.563965,4297.436035,4278.461426,4269.102539,4458.974121,4479.743652,4348.717773,4410.384766,0.000000,2.000000,52.000000,,,,0.000000,4.000000,4.000000,4.000000,4.000000,4.000000,4.000000,4.000000,4.000000,4.000000,4.000000,4.000000,4.000000,4.000000,4.000000,100.000000,,,,,,,,,,,,,,,,,,,,,,,,,,,,,,,,,,,,,,,,,,,,,,,
1665772061.937401,1665772061.937506,33.000000,0.000000,4306.153809,4281.282227,4290.897461,4259.358887,4312.692383,4296.153809,4292.820313,4295.769043,4284.615234,4275.897461,4461.282227,4480.512695,4352.051270,4415.000000,0.000000,2.000000,52.000000,,,,0.000000,4.000000,4.000000,4.000000,4.000000,4.000000,4.000000,4.000000,4.000000,4.000000,4.000000,4.000000,4.000000,4.000000,4.000000,100.000000,,,,,,,,,,,,,,,,,,,,,,,,,,,,,,,,,,,,,,,,,,,,,,,
1665772061.945210,1665772061.945214,34.000000,0.000000,4301.153809,4279.487305,4288.333496,4255.384766,4300.897461,4291.410156,4287.436035,4293.333496,4284.615234,4276.666504,4457.820313,4476.025879,4346.922852,4409.743652,0.000000,2.000000,52.000000,,,,0.000000,4.000000,4.000000,4.000000,4.000000,4.000000,4.000000,4.000000,4.000000,4.000000,4.000000,4.000000,4.000000,4.000000,4.000000,100.000000,,,,,,,,,,,,,,,,,,,,,,,,,,,,,,,,,,,,,,,,,,,,,,,
1665772061.953018,1665772061.953123,35.000000,0.000000,4302.563965,4284.615234,4292.307617,4263.077148,4297.948730,4294.487305,4291.922852,4296.282227,4291.666504,4285.256348,4461.153809,4484.743652,4355.512695,4410.256348,0.000000,2.000000,52.000000,,,,0.000000,4.000000,4.000000,4.000000,4.000000,4.000000,4.000000,4.000000,4.000000,4.000000,4.000000,4.000000,4.000000,4.000000,4.000000,100.000000,,,,,,,,,,,,,,,,,,,,,,,,,,,,,,,,,,,,,,,,,,,,,,,
1665772061.960827,1665772061.960931,36.000000,0.000000,4303.205078,4286.282227,4295.000000,4268.333496,4300.641113,4296.282227,4288.974121,4296.410156,4294.102539,4295.769043,4461.666504,4492.820313,4361.666504,4419.102539,0.000000,2.000000,52.000000,,,,0.000000,4.000000,4.000000,4.000000,4.000000,4.000000,4.000000,4.000000,4.000000,4.000000,4.000000,4.000000,4.000000,4.000000,4.000000,100.000000,,,,,,,,,,,,,,,,,,,,,,,,,,,,,,,,,,,,,,,,,,,,,,,
1665772061.968635,1665772061.968740,37.000000,0.000000,4299.230957,4280.512695,4287.820313,4261.922852,4295.897461,4291.538574,4277.692383,4292.307617,4289.102539,4296.282227,4463.333496,4490.128418,4361.410156,4420.769043,0.000000,2.000000,52.000000,,,,0.000000,4.000000,4.000000,4.000000,4.000000,4.000000,4.000000,4.000000,4.000000,4.000000,4.000000,4.000000,4.000000,4.000000,4.000000,100.000000,,,,,,,,,,,,,,,,,,,,,,,,,,,,,,,,,,,,,,,,,,,,,,,
1665772061.976443,1665772061.976448,38.000000,0.000000,4299.743652,4279.615234,4284.743652,4259.358887,4295.000000,4290.512695,4280.128418,4290.384766,4291.538574,4292.948730,4471.025879,4489.743652,4371.025879,4420.256348,0.000000,2.000000,52.000000,,,,0.000000,4.000000,4.000000,4.000000,4.000000,4.000000,4.000000,4.000000,4.000000,4.000000,4.000000,4.000000,4.000000,4.000000,4.000000,100.000000,,,,,,,,,,,,,,,,,,,,,,,,,,,,,,,,,,,,,,,,,,,,,,,
1665772061.984252,1665772061.984356,39.000000,0.000000,4303.589844,4281.025879,4290.512695,4261.538574,4299.487305,4293.205078,4285.641113,4291.410156,4289.230957,4293.461426,4472.563965,4490.256348,4374.487305,4423.461426,0.000000,2.000000,52.000000,,,,0.000000,4.000000,4.000000,4.000000,4.000000,4.000000,4.000000,4.000000,4.000000,4.000000,4.000000,4.000000,4.000000,4.000000,4.000000,100.000000,,,,,,,,,,,,,,,,,,,,,,,,,,,,,,,,,,,,,,,,,,,,,,,
1665772061.992060,1665772061.992165,40.000000,0.000000,4309.743652,4282.179688,4295.384766,4260.000000,4302.692383,4295.128418,4283.974121,4291.538574,4281.794922,4296.153809,4472.307617,4495.641113,4367.179688,4431.282227,0.000000,2.000000,52.000000,,,,0.000000,4.000000,4.000000,4.000000,4.000000,4.000000,4.000000,4.000000,4.000000,4.000000,4.000000,4.000000,4.000000,4.000000,4.000000,100.000000,,,,,,,,,,,,,,,,,,,,,,,,,,,,,,,,,,,,,,,,,,,,,,,
1665772061.999869,1665772062.000073,41.000000,0.000000,4316.666504,4285.512695,4298.589844,4261.025879,4301.794922,4290.769043,4283.846191,4293.461426,4284.487305,4298.333496,4477.051270,4504.487305,4371.153809,4438.846191,0.000000,2.000000,52.000000,,,,0.000000,4.000000,4.000000,4.000000,4.000000,4.000000,4.000000,4.000000,4.000000,4.000000,4.000000,4.000000,4.000000,4.000000,4.000000,100.000000,,,,,,,,,,,,,,,,,,,,,,,,,,,,,,,,,,,,,,,,,,,,,,,
1665772062.007677,1665772062.007882,42.000000,0.000000,4313.077148,4286.666504,4298.974121,4267.563965,4299.743652,4283.461426,4282.436035,4295.897461,4286.666504,4298.077148,4477.436035,4500.512695,4374.743652,4435.897461,0.000000,2.000000,52.000000,,,,0.000000,4.000000,4.000000,4.000000,4.000000,4.000000,4.000000,4.000000,4.000000,4.000000,4.000000,4.000000,4.000000,4.000000,4.000000,100.000000,,,,,,,,,,,,,,,,,,,,,,,,,,,,,,,,,,,,,,,,,,,,,,,
1665772062.015485,1665772062.015790,43.000000,0.000000,4307.051270,4286.666504,4294.487305,4263.974121,4303.846191,4285.769043,4281.410156,4294.871582,4278.974121,4295.000000,4473.461426,4489.230957,4365.641113,4426.282227,0.000000,2.000000,52.000000,,,,0.000000,4.000000,4.000000,4.000000,4.000000,4.000000,4.000000,4.000000,4.000000,4.000000,4.000000,4.000000,4.000000,4.000000,4.000000,100.000000,,,,,,,,,,,,,,,,,,,,,,,,,,,,,,,,,,,,,,,,,,,,,,,
1665772062.023294,1665772062.023598,44.000000,0.000000,4310.384766,4293.589844,4295.769043,4256.794922,4312.051270,4293.461426,4286.025879,4296.410156,4280.641113,4295.384766,4474.615234,4491.025879,4363.846191,4426.025879,0.000000,2.000000,52.000000,,,,0.000000,4.000000,4.000000,4.000000,4.000000,4.000000,4.000000,4.000000,4.000000,4.000000,4.000000,4.000000,4.000000,4.000000,4.000000,100.000000,,,,,,,,,,,,,,,,,,,,,,,,,,,,,,,,,,,,,,,,,,,,,,,
1665772062.031102,1665772062.031507,45.000000,0.000000,4315.256348,4298.589844,4301.025879,4255.256348,4311.410156,4294.230957,4290.000000,4301.025879,4292.948730,4298.717773,4476.025879,4495.128418,4368.717773,4430.384766,0.000000,2.000000,52.000000,,,,0.000000,4.000000,4.000000,4.000000,4.000000,4.000000,4.000000,4.000000,4.000000,4.000000,4.000000,4.000000,4.000000,4.000000,4.000000,100.000000,,,,,,,,,,,,,,,,,,,,,,,,,,,,,,,,,,,,,,,,,,,,,,,
1665772062.038911,1665772062.039315,46.000000,0.000000,4314.102539,4294.358887,4296.922852,4252.307617,4306.666504,4292.179688,4292.051270,4297.820313,4293.717773,4297.820313,4473.846191,4490.641113,4365.897461,4422.436035,0.000000,2.000000,52.000000,,,,0.000000,4.000000,4.000000,4.000000,4.000000,4.000000,4.000000,4.000000,4.000000,4.000000,4.000000,4.000000,4.000000,4.000000,4.000000,100.000000,,,,,,,,,,,,,,,,,,,,,,,,,,,,,,,,,,,,,,,,,,,,,,,
1665772062.046719,1665772062.047224,47.000000,0.000000,4313.846191,4293.333496,4293.333496,4252.820313,4307.051270,4292.820313,4294.487305,4292.820313,4290.897461,4297.307617,4473.333496,4489.102539,4363.461426,4418.846191,0.000000,2.000000,52.000000,,,,0.000000,4.000000,4.000000,4.000000,4.000000,4.000000,4.000000,4.000000,4.000000,4.000000,4.000000,4.000000,4.000000,4.000000,4.000000,100.000000,,,,,,,,,,,,,,,,,,,,,,,,,,,,,,,,,,,,,,,,,,,,,,,
1665772062.054527,1665772062.055032,48.000000,0.000000,4316.922852,4296.282227,4298.461426,4257.179688,4303.717773,4291.538574,4290.897461,4296.153809,4293.333496,4300.897461,4473.589844,4491.666504,4370.897461,4424.871582,0.000000,2.000000,52.000000,,,,0.000000,4.000000,4.000000,4.000000,4.000000,4.000000,4.000000,4.000000,4.000000,4.000000,4.000000,4.000000,4.000000,4.000000,4.000000,100.000000,,,,,,,,,,,,,,,,,,,,,,,,,,,,,,,,,,,,,,,,,,,,,,,
1665772062.062336,1665772062.062940,49.000000,0.000000,4326.666504,4297.820313,4306.794922,4259.871582,4298.589844,4293.461426,4289.871582,4300.128418,4296.666504,4307.820313,4474.871582,4500.000000,4381.282227,4429.487305,0.000000,2.000000,52.000000,,,,0.000000,4.000000,4.000000,4.000000,4.000000,4.000000,4.000000,4.000000,4.000000,4.000000,4.000000,4.000000,4.000000,4.000000,4.000000,100.000000,,,,,,,,,,,,,,,,,,,,,,,,,,,,,,,,,,,,,,,,,,,,,,,
1665772062.070144,1665772062.070749,50.000000,0.000000,4335.000000,4298.717773,4307.820313,4262.307617,4301.794922,4296.666504,4294.487305,4298.077148,4294.358887,4309.358887,4477.179688,4508.717773,4385.897461,4432.051270,0.000000,2.000000,52.000000,,,,0.000000,4.000000,4.000000,4.000000,4.000000,4.000000,4.000000,4.000000,4.000000,4.000000,4.000000,4.000000,4.000000,4.000000,4.000000,100.000000,,,,,,,,,,,,,,,,,,,,,,,,,,,,,,,,,,,,,,,,,,,,,,,
1665772062.077953,1665772062.078457,51.000000,0.000000,4330.384766,4297.307617,4302.948730,4256.794922,4307.692383,4295.384766,4291.538574,4294.230957,4286.922852,4301.025879,4476.794922,4504.102539,4382.051270,4431.282227,0.000000,2.000000,52.000000,,,,0.000000,4.000000,4.000000,4.000000,4.000000,4.000000,4.000000,4.000000,4.000000,4.000000,4.000000,4.000000,4.000000,4.000000,4.000000,100.000000,,,,,,,,,,,,,,,,,,,,,,,,,,,,,,,,,,,,,,,,,,,,,,,
1665772062.085761,1665772062.086266,52.000000,0.000000,4321.538574,4296.794922,4298.846191,4246.666504,4306.410156,4294.871582,4287.692383,4289.615234,4280.641113,4294.230957,4473.461426,4494.743652,4376.538574,4430.384766,0.000000,2.000000,52.000000,,,,0.000000,4.000000,4.000000,4.000000,4.000000,4.000000,4.000000,4.000000,4.000000,4.000000,4.000000,4.000000,4.000000,4.000000,4.000000,100.000000,,,,,,,,,,,,,,,,,,,,,,,,,,,,,,,,,,,,,,,,,,,,,,,
1665772062.093570,1665772062.093974,53.000000,0.000000,4316.666504,4292.051270,4294.358887,4251.538574,4303.717773,4296.282227,4290.512695,4287.692383,4277.820313,4293.974121,4467.948730,4490.897461,4374.615234,4427.307617,0.000000,2.000000,52.000000,,,,0.000000,4.000000,4.000000,4.000000,4.000000,4.000000,4.000000,4.000000,4.000000,4.000000,4.000000,4.000000,4.000000,4.000000,4.000000,100.000000,,,,,,,,,,,,,,,,,,,,,,,,,,,,,,,,,,,,,,,,,,,,,,,
1665772062.101378,1665772062.101883,54.000000,0.000000,4308.974121,4283.717773,4291.666504,4264.102539,4312.948730,4295.128418,4289.102539,4292.948730,4280.641113,4295.256348,4461.666504,4490.897461,4367.948730,4422.051270,0.000000,2.000000,52.000000,,,,0.000000,4.000000,4.000000,4.000000,4.000000,4.000000,4.000000,4.000000,4.000000,4.000000,4.000000,4.000000,4.000000,4.000000,4.000000,100.000000,,,,,,,,,,,,,,,,,,,,,,,,,,,,,,,,,,,,,,,,,,,,,,,
1665772062.109186,1665772062.109691,55.000000,0.000000,4297.563965,4280.000000,4290.769043,4267.563965,4314.487305,4293.846191,4283.589844,4298.077148,4283.333496,4293.333496,4459.743652,4489.871582,4357.307617,4415.769043,0.000000,2.000000,52.000000,,,,0.000000,4.000000,4.000000,4.000000,4.000000,4.000000,4.000000,4.000000,4.000000,4.000000,4.000000,4.000000,4.000000,4.000000,4.000000,100.000000,,,,,,,,,,,,,,,,,,,,,,,,,,,,,,,,,,,,,,,,,,,,,,,
1665772062.116995,1665772062.117600,56.000000,0.000000,4293.205078,4280.769043,4291.538574,4273.333496,4301.282227,4297.179688,4286.794922,4295.384766,4282.179688,4288.077148,4462.948730,4484.871582,4357.051270,4412.948730,0.000000,2.000000,52.000000,,,,0.000000,4.000000,4.000000,4.000000,4.000000,4.000000,4.000000,4.000000,4.000000,4.000000,4.000000,4.000000,4.000000,4.000000,4.000000,100.000000,,,,,,,,,,,,,,,,,,,,,,,,,,,,,,,,,,,,,,,,,,,,,,,
1665772062.124803,1665772062.125408,57.000000,0.000000,4295.384766,4281.153809,4293.205078,4281.794922,4298.461426,4294.230957,4290.512695,4295.641113,4281.153809,4280.897461,4464.871582,4476.538574,4362.563965,4412.179688,0.000000,2.000000,52.000000,,,,0.000000,4.000000,4.000000,4.000000,4.000000,4.000000,4.000000,4.000000,4.000000,4.000000,4.000000,4.000000,4.000000,4.000000,4.000000,100.000000,,,,,,,,,,,,,,,,,,,,,,,,,,,,,,,,,,,,,,,,,,,,,,,
1665772062.132612,1665772062.133316,58.000000,0.000000,4295.384766,4283.077148,4296.282227,4289.102539,4302.436035,4285.000000,4283.333496,4296.794922,4280.128418,4278.589844,4460.256348,4473.461426,4357.307617,4411.282227,0.000000,2.000000,52.000000,,,,0.000000,4.000000,4.000000,4.000000,4.000000,4.000000,4.000000,4.000000,4.000000,4.000000,4.000000,4.000000,4.000000,4.000000,4.000000,100.000000,,,,,,,,,,,,,,,,,,,,,,,,,,,,,,,,,,,,,,,,,,,,,,,
1665772062.140420,1665772062.141125,59.000000,0.000000,4292.051270,4290.384766,4299.871582,4300.897461,4297.820313,4283.461426,4281.794922,4289.230957,4272.948730,4276.410156,4454.615234,4474.743652,4349.871582,4415.000000,0.000000,2.000000,52.000000,,,,0.000000,4.000000,4.000000,4.000000,4.000000,4.000000,4.000000,4.000000,4.000000,4.000000,4.000000,4.000000,4.000000,4.000000,4.000000,100.000000,,,,,,,,,,,,,,,,,,,,,,,,,,,,,,,,,,,,,,,,,,,,,,,
1665772062.148229,1665772062.148933,60.000000,0.000000,4287.179688,4293.077148,4301.538574,4309.615234,4292.179688,4283.461426,4286.538574,4282.948730,4262.179688,4267.307617,4456.794922,4473.333496,4355.128418,4415.641113,0.000000,2.000000,52.000000,,,,0.000000,4.000000,4.000000,4.000000,4.000000,4.000000,4.000000,4.000000,4.000000,4.000000,4.000000,4.000000,4.000000,4.000000,4.000000,100.000000,,,,,,,,,,,,,,,,,,,,,,,,,,,,,,,,,,,,,,,,,,,,,,,
1665772062.156037,1665772062.156642,61.000000,0.000000,4284.230957,4286.410156,4301.794922,4311.666504,4290.384766,4282.307617,4286.025879,4286.922852,4263.846191,4268.205078,4460.384766,4478.717773,4366.153809,4414.871582,0.000000,2.000000,52.000000,,,,0.000000,4.000000,4.000000,4.000000,4.000000,4.000000,4.000000,4.000000,4.000000,4.000000,4.000000,4.000000,4.000000,4.000000,4.000000,100.000000,,,,,,,,,,,,,,,,,,,,,,,,,,,,,,,,,,,,,,,,,,,,,,,
1665772062.163845,1665772062.164550,62.000000,0.000000,4281.922852,4281.922852,4303.974121,4317.692383,4284.871582,4288.333496,4288.205078,4291.666504,4276.410156,4278.461426,4462.820313,4490.128418,4368.077148,4423.974121,0.000000,2.000000,52.000000,,,,0.000000,4.000000,4.000000,4.000000,4.000000,4.000000,4.000000,4.000000,4.000000,4.000000,4.000000,4.000000,4.000000,4.000000,4.000000,100.000000,,,,,,,,,,,,,,,,,,,,,,,,,,,,,,,,,,,,,,,,,,,,,,,
1665772062.171654,1665772062.172359,63.000000,0.000000,4273.717773,4283.205078,4307.307617,4325.897461,4277.692383,4293.333496,4291.922852,4289.230957,4283.077148,4281.153809,4467.179688,4493.717773,4365.256348,4427.436035,0.000000,2.000000,52.000000,,,,0.000000,4.000000,4.000000,4.000000,4.000000,4.000000,4.000000,4.000000,4.000000,4.000000,4.000000,4.000000,4.000000,4.000000,4.000000,100.000000,,,,,,,,,,,,,,,,,,,,,,,,,,,,,,,,,,,,,,,,,,,,,,,
1665772062.179462,1665772062.180267,64.000000,0.000000,4264.487305,4280.897461,4306.282227,4330.897461,4276.794922,4290.641113,4287.948730,4289.230957,4280.512695,4280.512695,4466.282227,4491.922852,4366.794922,4417.051270,2039.000000,2.000000,52.000000,,,,0.000000,4.000000,4.000000,4.000000,4.000000,4.000000,4.000000,4.000000,4.000000,4.000000,4.000000,4.000000,4.000000,4.000000,4.000000,100.000000,,,,,,,,,,,,,,,,,,,,,,,,,,,,,,,,,,,,,,,,,,,,,,,
1665772062.187271,1665772062.188075,65.000000,0.000000,4261.025879,4272.436035,4299.102539,4330.769043,4277.179688,4288.974121,4281.922852,4289.743652,4279.102539,4282.051270,4458.077148,4485.384766,4365.512695,4410.128418,2134.000000,2.000000,52.000000,,,,0.000000,4.000000,4.000000,4.000000,4.000000,4.000000,4.000000,4.000000,4.000000,4.000000,4.000000,4.000000,4.000000,4.000000,4.000000,100.000000,,,,,,,,,,,,,,,,,,,,,,,,,,,,,,,,,,,,,,,,,,,,,,,
1665772062.195079,1665772062.195984,66.000000,0.000000,4263.461426,4272.948730,4296.153809,4327.179688,4277.692383,4293.333496,4287.948730,4290.897461,4282.692383,4281.282227,4454.743652,4482.692383,4358.846191,4411.922852,2281.000000,2.000000,52.000000,,,,0.000000,4.000000,4.000000,4.000000,4.000000,4.000000,4.000000,4.000000,4.000000,4.000000,4.000000,4.000000,4.000000,4.000000,4.000000,100.000000,,,,,,,,,,,,,,,,,,,,,,,,,,,,,,,,,,,,,,,,,,,,,,,
1665772062.202887,1665772062.203792,67.000000,0.000000,4263.077148,4278.333496,4296.922852,4325.512695,4281.538574,4294.102539,4290.897461,4293.974121,4284.102539,4281.666504,4458.974121,4485.897461,4356.025879,4414.487305,2304.000000,2.000000,52.000000,,,,0.000000,4.000000,4.000000,4.000000,4.000000,4.000000,4.000000,4.000000,4.000000,4.000000,4.000000,4.000000,4.000000,4.000000,4.000000,100.000000,,,,,,,,,,,,,,,,,,,,,,,,,,,,,,,,,,,,,,,,,,,,,,,
1665772062.210696,1665772062.211700,68.000000,0.000000,4264.743652,4277.820313,4297.436035,4332.179688,4280.128418,4286.922852,4282.307617,4288.974121,4279.487305,4283.461426,4458.333496,4483.461426,4358.461426,4420.256348,2376.000000,2.000000,52.000000,,,,0.000000,4.000000,4.000000,4.000000,4.000000,4.000000,4.000000,4.000000,4.000000,4.000000,4.000000,4.000000,4.000000,4.000000,4.000000,100.000000,,,,,,,,,,,,,,,,,,,,,,,,,,,,,,,,,,,,,,,,,,,,,,,
1665772062.218504,1665772062.219509,69.000000,0.000000,4274.743652,4280.384766,4304.230957,4346.282227,4276.410156,4283.205078,4278.205078,4284.615234,4276.410156,4279.743652,4456.922852,4481.153809,4365.384766,4425.128418,2302.000000,2.000000,52.000000,,,,0.000000,4.000000,4.000000,4.000000,4.000000,4.000000,4.000000,4.000000,4.000000,4.000000,4.000000,4.000000,4.000000,4.000000,4.000000,100.000000,,,,,,,,,,,,,,,,,,,,,,,,,,,,,,,,,,,,,,,,,,,,,,,
1665772062.226313,1665772062.227217,70.000000,0.000000,4281.666504,4291.538574,4313.846191,4357.051270,4285.000000,4290.897461,4285.128418,4291.666504,4279.487305,4280.256348,4465.256348,4488.077148,4372.692383,4430.769043,2135.000000,2.000000,52.000000,,,,0.000000,4.000000,4.000000,4.000000,4.000000,4.000000,4.000000,4.000000,4.000000,4.000000,4.000000,4.000000,4.000000,4.000000,4.000000,100.000000,,,,,,,,,,,,,,,,,,,,,,,,,,,,,,,,,,,,,,,,,,,,,,,
1665772062.234121,1665772062.235026,71.000000,0.000000,4280.897461,4294.102539,4315.384766,4358.077148,4293.846191,4298.205078,4290.512695,4297.820313,4281.538574,4287.307617,4474.358887,4492.307617,4372.563965,4439.487305,2181.000000,2.000000,52.000000,,,,0.000000,4.000000,4.000000,4.000000,4.000000,4.000000,4.000000,4.000000,4.000000,4.000000,4.000000,4.000000,4.000000,4.000000,4.000000,100.000000,,,,,,,,,,,,,,,,,,,,,,,,,,,,,,,,,,,,,,,,,,,,,,,
1665772062.241929,1665772062.242734,72.000000,0.000000,4279.102539,4285.512695,4314.358887,4353.717773,4288.077148,4293.333496,4287.051270,4293.205078,4278.333496,4289.230957,4475.128418,4496.025879,4374.487305,4440.384766,2314.000000,2.000000,52.000000,,,,0.000000,4.000000,4.000000,4.000000,4.000000,4.000000,4.000000,4.000000,4.000000,4.000000,4.000000,4.000000,4.000000,4.000000,4.000000,100.000000,,,,,,,,,,,,,,,,,,,,,,,,,,,,,,,,,,,,,,,,,,,,,,,
1665772062.249738,1665772062.250643,73.000000,0.000000,4280.641113,4285.384766,4317.820313,4352.563965,4281.025879,4286.153809,4288.974121,4291.282227,4276.153809,4284.358887,4472.179688,4503.589844,4380.641113,4437.820313,2428.000000,2.000000,52.000000,,,,0.000000,4.000000,4.000000,4.000000,4.000000,4.000000,4.000000,4.000000,4.000000,4.000000,4.000000,4.000000,4.000000,4.000000,4.000000,100.000000,,,,,,,,,,,,,,,,,,,,,,,,,,,,,,,,,,,,,,,,,,,,,,,
1665772062.257546,1665772062.258451,74.000000,0.000000,4282.820313,4292.820313,4319.615234,4356.666504,4284.615234,4288.461426,4295.641113,4297.948730,4283.974121,4284.358887,4478.077148,4508.333496,4381.282227,4443.717773,2578.000000,2.000000,52.000000,,,,0.000000,4.000000,4.000000,4.000000,4.000000,4.000000,4.000000,4.000000,4.000000,4.000000,4.000000,4.000000,4.000000,4.000000,4.000000,100.000000,,,,,,,,,,,,,,,,,,,,,,,,,,,,,,,,,,,,,,,,,,,,,,,
1665772062.265355,1665772062.266260,75.000000,0.000000,4288.589844,4294.743652,4322.436035,4362.179688,4287.692383,4296.025879,4301.794922,4307.307617,4295.256348,4294.743652,4487.948730,4516.922852,4386.282227,4452.692383,2530.000000,2.000000,52.000000,,,,0.000000,4.000000,4.000000,4.000000,4.000000,4.000000,4.000000,4.000000,4.000000,4.000000,4.000000,4.000000,4.000000,4.000000,4.000000,100.000000,,,,,,,,,,,,,,,,,,,,,,,,,,,,,,,,,,,,,,,,,,,,,,,
1665772062.273163,1665772062.273968,76.000000,0.000000,4296.922852,4297.051270,4332.436035,4365.384766,4288.589844,4298.077148,4304.358887,4312.051270,4297.948730,4307.179688,4494.487305,4528.077148,4396.153809,4458.205078,2725.000000,2.000000,52.000000,,,,0.000000,4.000000,4.000000,4.000000,4.000000,4.000000,4.000000,4.000000,4.000000,4.000000,4.000000,4.000000,4.000000,4.000000,4.000000,100.000000,,,,,,,,,,,,,,,,,,,,,,,,,,,,,,,,,,,,,,,,,,,,,,,
1665772062.280971,1665772062.281777,77.000000,0.000000,4298.205078,4300.769043,4335.769043,4367.307617,4293.333496,4297.051270,4305.897461,4308.846191,4300.384766,4308.461426,4494.230957,4528.589844,4400.641113,4457.948730,3365.000000,2.000000,52.000000,,,,0.000000,4.000000,4.000000,4.000000,4.000000,4.000000,4.000000,4.000000,4.000000,4.000000,4.000000,4.000000,4.000000,4.000000,4.000000,100.000000,,,,,,,,,,,,,,,,,,,,,,,,,,,,,,,,,,,,,,,,,,,,,,,
1665772062.288780,1665772062.289485,78.000000,0.000000,4295.256348,4299.487305,4324.487305,4365.897461,4298.589844,4301.794922,4305.256348,4305.000000,4306.153809,4299.487305,4484.230957,4519.615234,4398.589844,4448.461426,2578.000000,2.000000,52.000000,,,,0.000000,4.000000,4.000000,4.000000,4.000000,4.000000,4.000000,4.000000,4.000000,4.000000,4.000000,4.000000,4.000000,4.000000,4.000000,100.000000,,,,,,,,,,,,,,,,,,,,,,,,,,,,,,,,,,,,,,,,,,,,,,,
1665772062.296588,1665772062.297294,79.000000,0.000000,4293.589844,4296.922852,4317.179688,4359.743652,4297.563965,4301.538574,4296.538574,4303.717773,4302.948730,4294.102539,4476.666504,4511.153809,4392.820313,4441.538574,2530.000000,2.000000,52.000000,,,,0.000000,4.000000,4.000000,4.000000,4.000000,4.000000,4.000000,4.000000,4.000000,4.000000,4.000000,4.000000,4.000000,4.000000,4.000000,100.000000,,,,,,,,,,,,,,,,,,,,,,,,,,,,,,,,,,,,,,,,,,,,,,,
1665772062.304397,1665772062.305002,80.000000,0.000000,4290.897461,4297.307617,4316.794922,4356.282227,4291.410156,4293.077148,4284.871582,4298.589844,4290.641113,4293.846191,4474.615234,4505.512695,4387.948730,4440.897461,2725.000000,2.000000,52.000000,,,,0.000000,4.000000,4.000000,4.000000,4.000000,4.000000,4.000000,4.000000,4.000000,4.000000,4.000000,4.000000,4.000000,4.000000,4.000000,100.000000,,,,,,,,,,,,,,,,,,,,,,,,,,,,,,,,,,,,,,,,,,,,,,,
1665772062.312205,1665772062.312811,81.000000,0.000000,4291.025879,4299.743652,4317.820313,4364.102539,4293.717773,4295.384766,4286.666504,4293.589844,4287.307617,4293.205078,4476.153809,4508.974121,4391.922852,4439.743652,3365.000000,2.000000,52.000000,,,,0.000000,4.000000,4.000000,4.000000,4.000000,4.000000,4.000000,4.000000,4.000000,4.000000,4.000000,4.000000,4.000000,4.000000,4.000000,100.000000,,,,,,,,,,,,,,,,,,,,,,,,,,,,,,,,,,,,,,,,,,,,,,,
1665772062.320013,1665772062.320519,82.000000,0.000000,4299.871582,4306.922852,4322.692383,4375.384766,4301.666504,4305.256348,4298.717773,4298.077148,4294.487305,4295.000000,4486.025879,4518.205078,4400.641113,4447.820313,2578.000000,2.000000,52.000000,,,,0.000000,4.000000,4.000000,4.000000,4.000000,4.000000,4.000000,4.000000,4.000000,4.000000,4.000000,4.000000,4.000000,4.000000,4.000000,100.000000,,,,,,,,,,,,,,,,,,,,,,,,,,,,,,,,,,,,,,,,,,,,,,,
1665772062.327822,1665772062.328328,83.000000,0.000000,4309.102539,4313.717773,4330.256348,4382.307617,4301.922852,4306.410156,4299.230957,4306.666504,4298.077148,4304.102539,4497.307617,4525.512695,4404.743652,4459.871582,2530.000000,2.000000,52.000000,,,,0.000000,4.000000,4.000000,4.000000,4.000000,4.000000,4.000000,4.000000,4.000000,4.000000,4.000000,4.000000,4.000000,4.000000,4.000000,100.000000,,,,,,,,,,,,,,,,,,,,,,,,,,,,,,,,,,,,,,,,,,,,,,,
1665772062.335630,1665772062.336036,84.000000,0.000000,4308.333496,4313.077148,4330.512695,4382.692383,4300.128418,4299.743652,4293.205078,4302.692383,4296.153809,4310.897461,4489.743652,4524.487305,4405.384766,4459.871582,2725.000000,2.000000,52.000000,,,,0.000000,4.000000,4.000000,4.000000,4.000000,4.000000,4.000000,4.000000,4.000000,4.000000,4.000000,4.000000,4.000000,4.000000,4.000000,100.000000,,,,,,,,,,,,,,,,,,,,,,,,,,,,,,,,,,,,,,,,,,,,,,,
1665772062.343439,1665772062.343845,85.000000,0.000000,4299.230957,4305.128418,4322.051270,4371.922852,4302.692383,4295.000000,4292.948730,4295.384766,4294.102539,4306.025879,4478.974121,4512.948730,4402.820313,4447.820313,3365.000000,2.000000,52.000000,,,,0.000000,4.000000,4.000000,4.000000,4.000000,4.000000,4.000000,4.000000,4.000000,4.000000,4.000000,4.000000,4.000000,4.000000,4.000000,100.000000,,,,,,,,,,,,,,,,,,,,,,,,,,,,,,,,,,,,,,,,,,,,,,,
1665772062.351247,1665772062.351553,86.000000,0.000000,4288.717773,4296.410156,4315.641113,4360.512695,4302.051270,4294.487305,4295.769043,4300.897461,4294.487305,4295.512695,4489.487305,4506.282227,4394.871582,4436.153809,2578.000000,2.000000,52.000000,,,,0.000000,4.000000,4.000000,4.000000,4.000000,4.000000,4.000000,4.000000,4.000000,4.000000,4.000000,4.000000,4.000000,4.000000,4.000000,100.000000,,,,,,,,,,,,,,,,,,,,,,,,,,,,,,,,,,,,,,,,,,,,,,,
1665772062.359055,1665772062.359462,87.000000,0.000000,4280.769043,4292.307617,4309.871582,4352.563965,4296.922852,4291.666504,4293.589844,4306.922852,4295.384766,4290.256348,4492.820313,4501.410156,4384.230957,4430.512695,2530.000000,2.000000,52.000000,,,,0.000000,4.000000,4.000000,4.000000,4.000000,4.000000,4.000000,4.000000,4.000000,4.000000,4.000000,4.000000,4.000000,4.000000,4.000000,100.000000,,,,,,,,,,,,,,,,,,,,,,,,,,,,,,,,,,,,,,,,,,,,,,,
1665772062.366864,1665772062.367270,88.000000,0.000000,4277.436035,4294.358887,4306.282227,4347.692383,4296.538574,4288.589844,4291.666504,4304.487305,4296.410156,4293.974121,4477.692383,4493.077148,4379.871582,4426.025879,2725.000000,2.000000,52.000000,,,,0.000000,4.000000,4.000000,4.000000,4.000000,4.000000,4.000000,4.000000,4.000000,4.000000,4.000000,4.000000,4.000000,4.000000,4.000000,100.000000,,,,,,,,,,,,,,,,,,,,,,,,,,,,,,,,,,,,,,,,,,,,,,,
1665772062.374672,1665772062.375178,89.000000,0.000000,4282.436035,4300.641113,4310.128418,4357.307617,4298.077148,4291.666504,4296.282227,4299.358887,4297.307617,4295.512695,4470.769043,4490.384766,4383.077148,4422.179688,3365.000000,2.000000,52.000000,,,,0.000000,4.000000,4.000000,4.000000,4.000000,4.000000,4.000000,4.000000,4.000000,4.000000,4.000000,4.000000,4.000000,4.000000,4.000000,100.000000,,,,,,,,,,,,,,,,,,,,,,,,,,,,,,,,,,,,,,,,,,,,,,,
1665772062.382481,1665772062.382987,90.000000,0.000000,4286.282227,4301.666504,4312.563965,4367.820313,4292.436035,4289.230957,4295.000000,4296.794922,4295.256348,4287.307617,4473.589844,4489.487305,4381.025879,4421.025879,2578.000000,2.000000,52.000000,,,,0.000000,4.000000,4.000000,4.000000,4.000000,4.000000,4.000000,4.000000,4.000000,4.000000,4.000000,4.000000,4.000000,4.000000,4.000000,100.000000,,,,,,,,,,,,,,,,,,,,,,,,,,,,,,,,,,,,,,,,,,,,,,,
1665772062.390289,1665772062.390895,91.000000,0.000000,4285.128418,4296.282227,4309.358887,4361.025879,4288.461426,4283.461426,4289.743652,4295.256348,4293.974121,4285.128418,4473.846191,4488.717773,4377.948730,4423.333496,2530.000000,2.000000,52.000000,,,,0.000000,4.000000,4.000000,4.000000,4.000000,4.000000,4.000000,4.000000,4.000000,4.000000,4.000000,4.000000,4.000000,4.000000,4.000000,100.000000,,,,,,,,,,,,,,,,,,,,,,,,,,,,,,,,,,,,,,,,,,,,,,,
1665772062.398097,1665772062.398704,92.000000,0.000000,4288.846191,4293.846191,4307.436035,4355.000000,4295.256348,4287.692383,4291.282227,4293.974121,4292.948730,4287.436035,4475.512695,4496.153809,4384.487305,4425.128418,2725.000000,2.000000,52.000000,,,,0.000000,4.000000,4.000000,4.000000,4.000000,4.000000,4.000000,4.000000,4.000000,4.000000,4.000000,4.000000,4.000000,4.000000,4.000000,100.000000,,,,,,,,,,,,,,,,,,,,,,,,,,,,,,,,,,,,,,,,,,,,,,,
1665772062.405906,1665772062.406612,93.000000,0.000000,4292.692383,4295.512695,4308.974121,4358.717773,4293.077148,4293.717773,4290.256348,4293.205078,4291.282227,4283.205078,4478.205078,4506.410156,4388.333496,4428.333496,3365.000000,2.000000,52.000000,,,,0.000000,4.000000,4.000000,4.000000,4.000000,4.000000,4.000000,4.000000,4.000000,4.000000,4.000000,4.000000,4.000000,4.000000,4.000000,100.000000,1.000000,91.666664,4.000000,4.000000,4.000000,3.000000,4.000000,4.000000,4.000000,4.000000,4.000000,4.000000,4.000000,4.000000,4.000000,4.000000,1.000000,0.442388,-0.307059,-1.475733,0.708560,1.000000,0.000000,2.747465,2.747465,12.291216,0.073712,1.000000,0.274735,36.183064,-83.828880,308.554535,1.000000,0.302893,0.115168,0.091758,0.251609,1.000000,0.306573,3.023961,-4.216400,17.708775,1.000000,0.235027,0.235027,0.000000,1.000000
1665772062.413714,1665772062.414420,94.000000,0.000000,4291.666504,4294.102539,4310.128418,4354.615234,4281.538574,4293.461426,4287.179688,4293.974121,4291.538574,4285.128418,4474.615234,4505.256348,4382.948730,4433.589844,2578.000000,2.000000,52.000000,,,,0.000000,4.000000,4.000000,4.000000,4.000000,4.000000,4.000000,4.000000,4.000000,4.000000,4.000000,4.000000,4.000000,4.000000,4.000000,100.000000,,,,,,,,,,,,,,,,,,,,,,,,,,,,,,,,,,,,,,,,,,,,,,,
1665772062.421523,1665772062.422329,95.000000,0.000000,4292.307617,4293.205078,4312.307617,4356.922852,4286.025879,4295.897461,4292.563965,4296.025879,4292.820313,4295.384766,4472.820313,4503.589844,4380.897461,4430.769043,2530.000000,2.000000,52.000000,,,,0.000000,4.000000,4.000000,4.000000,4.000000,4.000000,4.000000,4.000000,4.000000,4.000000,4.000000,4.000000,4.000000,4.000000,4.000000,100.000000,,,,,,,,,,,,,,,,,,,,,,,,,,,,,,,,,,,,,,,,,,,,,,,
1665772062.429331,1665772062.430137,96.000000,0.000000,4296.282227,4296.538574,4319.871582,4371.666504,4297.436035,4299.102539,4297.692383,4298.205078,4293.974121,4294.743652,4475.256348,4508.333496,4383.333496,4433.333496,2725.000000,2.000000,52.000000,,,,0.000000,4.000000,4.000000,4.000000,4.000000,4.000000,4.000000,4.000000,4.000000,4.000000,4.000000,4.000000,4.000000,4.000000,4.000000,100.000000,,,,,,,,,,,,,,,,,,,,,,,,,,,,,,,,,,,,,,,,,,,,,,,
1665772062.437140,1665772062.437846,97.000000,0.000000,4295.641113,4296.025879,4321.538574,4368.333496,4294.743652,4294.743652,4294.102539,4299.102539,4294.102539,4288.717773,4474.743652,4511.025879,4382.307617,4444.102539,3365.000000,2.000000,52.000000,,,,0.000000,4.000000,4.000000,4.000000,4.000000,4.000000,4.000000,4.000000,4.000000,4.000000,4.000000,4.000000,4.000000,4.000000,4.000000,100.000000,,,,,,,,,,,,,,,,,,,,,,,,,,,,,,,,,,,,,,,,,,,,,,,
1665772062.444948,1665772062.445654,98.000000,0.000000,4293.461426,4293.846191,4315.128418,4358.589844,4296.538574,4294.487305,4294.743652,4301.153809,4293.461426,4291.922852,4479.358887,4508.461426,4383.077148,4445.897461,2578.000000,2.000000,52.000000,,,,0.000000,4.000000,4.000000,4.000000,4.000000,4.000000,4.000000,4.000000,4.000000,4.000000,4.000000,4.000000,4.000000,4.000000,4.000000,100.000000,,,,,,,,,,,,,,,,,,,,,,,,,,,,,,,,,,,,,,,,,,,,,,,
1665772062.452756,1665772062.453363,99.000000,0.000000,4290.128418,4294.102539,4309.358887,4365.128418,4308.461426,4298.589844,4297.179688,4307.051270,4295.641113,4295.256348,4487.692383,4508.461426,4387.179688,4443.077148,2530.000000,2.000000,52.000000,,,,0.000000,4.000000,4.000000,4.000000,4.000000,4.000000,4.000000,4.000000,4.000000,4.000000,4.000000,4.000000,4.000000,4.000000,4.000000,100.000000,,,,,,,,,,,,,,,,,,,,,,,,,,,,,,,,,,,,,,,,,,,,,,,
1665772062.460565,1665772062.461171,100.000000,0.000000,4286.153809,4296.025879,4309.358887,4371.282227,4305.512695,4296.153809,4294.230957,4303.846191,4296.666504,4294.615234,4485.128418,4507.692383,4383.846191,4443.333496,2725.000000,2.000000,52.000000,,,,0.000000,4.000000,4.000000,4.000000,4.000000,4.000000,4.000000,4.000000,4.000000,4.000000,4.000000,4.000000,4.000000,4.000000,4.000000,100.000000,,,,,,,,,,,,,,,,,,,,,,,,,,,,,,,,,,,,,,,,,,,,,,,
1665772062.468373,1665772062.468880,101.000000,0.000000,4285.512695,4297.948730,4311.282227,4364.871582,4298.077148,4293.461426,4293.205078,4296.538574,4293.974121,4291.538574,4475.897461,4500.897461,4379.871582,4441.538574,3365.000000,2.000000,52.000000,,,,0.000000,4.000000,4.000000,4.000000,4.000000,4.000000,4.000000,4.000000,4.000000,4.000000,4.000000,4.000000,4.000000,4.000000,4.000000,100.000000,,,,,,,,,,,,,,,,,,,,,,,,,,,,,,,,,,,,,,,,,,,,,,,
1665772062.476182,1665772062.476688,102.000000,0.000000,4282.179688,4296.410156,4310.000000,4359.487305,4297.436035,4292.179688,4290.512695,4298.333496,4289.487305,4292.436035,4478.333496,4498.846191,4383.717773,4438.717773,2578.000000,2.000000,52.000000,,,,0.000000,4.000000,4.000000,4.000000,4.000000,4.000000,4.000000,4.000000,4.000000,4.000000,4.000000,4.000000,4.000000,4.000000,4.000000,100.000000,,,,,,,,,,,,,,,,,,,,,,,,,,,,,,,,,,,,,,,,,,,,,,,
1665772062.483990,1665772062.484397,103.000000,0.000000,4279.102539,4294.871582,4311.410156,4359.102539,4290.128418,4288.717773,4286.922852,4299.102539,4285.512695,4294.487305,4483.974121,4501.666504,4386.538574,4436.538574,2530.000000,2.000000,52.000000,,,,0.000000,4.000000,4.000000,4.000000,4.000000,4.000000,4.000000,4.000000,4.000000,4.000000,4.000000,4.000000,4.000000,4.000000,4.000000,100.000000,,,,,,,,,,,,,,,,,,,,,,,,,,,,,,,,,,,,,,,,,,,,,,,
1665772062.491798,1665772062.492205,104.000000,0.000000,4282.307617,4295.897461,4314.487305,4353.846191,4282.820313,4288.589844,4291.538574,4298.461426,4284.358887,4286.282227,4481.666504,4502.563965,4382.820313,4435.128418,2725.000000,2.000000,52.000000,,,,0.000000,4.000000,4.000000,4.000000,4.000000,4.000000,4.000000,4.000000,4.000000,4.000000,4.000000,4.000000,4.000000,4.000000,4.000000,100.000000,,,,,,,,,,,,,,,,,,,,,,,,,,,,,,,,,,,,,,,,,,,,,,,
1665772062.499607,1665772062.499914,105.000000,0.000000,4285.256348,4297.179688,4316.410156,4348.589844,4287.692383,4293.589844,4297.692383,4303.717773,4289.487305,4282.692383,4483.589844,4505.897461,4380.384766,4440.128418,3365.000000,2.000000,52.000000,,,,0.000000,4.000000,4.000000,4.000000,4.000000,4.000000,4.000000,4.000000,4.000000,4.000000,4.000000,4.000000,4.000000,4.000000,4.000000,100.000000,,,,,,,,,,,,,,,,,,,,,,,,,,,,,,,,,,,,,,,,,,,,,,,
1665772062.507415,1665772062.507722,106.000000,0.000000,4284.102539,4295.641113,4318.717773,4350.641113,4299.871582,4296.153809,4298.717773,4310.000000,4296.153809,4292.948730,4492.051270,4512.436035,4385.641113,4443.461426,2578.000000,2.000000,52.000000,,,,0.000000,4.000000,4.000000,4.000000,4.000000,4.000000,4.000000,4.000000,4.000000,4.000000,4.000000,4.000000,4.000000,4.000000,4.000000,100.000000,,,,,,,,,,,,,,,,,,,,,,,,,,,,,,,,,,,,,,,,,,,,,,,
1665772062.515224,1665772062.515431,107.000000,0.000000,4282.948730,4293.205078,4317.820313,4352.179688,4302.948730,4297.436035,4301.025879,4309.615234,4298.717773,4298.846191,4492.307617,4511.922852,4389.487305,4435.256348,2530.000000,2.000000,52.000000,,,,0.000000,4.000000,4.000000,4.000000,4.000000,4.000000,4.000000,4.000000,4.000000,4.000000,4.000000,4.000000,4.000000,4.000000,4.000000,100.000000,,,,,,,,,,,,,,,,,,,,,,,,,,,,,,,,,,,,,,,,,,,,,,,
1665772062.523032,1665772062.523339,108.000000,0.000000,4283.077148,4292.307617,4310.897461,4347.436035,4296.025879,4300.000000,4301.410156,4303.589844,4298.846191,4295.384766,4480.641113,4506.025879,4382.307617,4429.358887,2725.000000,2.000000,52.000000,,,,0.000000,4.000000,4.000000,4.000000,4.000000,4.000000,4.000000,4.000000,4.000000,4.000000,4.000000,4.000000,4.000000,4.000000,4.000000,100.000000,,,,,,,,,,,,,,,,,,,,,,,,,,,,,,,,,,,,,,,,,,,,,,,
1665772062.530841,1665772062.531148,109.000000,0.000000,4284.230957,4291.666504,4309.487305,4344.102539,4291.922852,4298.205078,4296.410156,4301.410156,4298.333496,4292.820313,4474.615234,4504.743652,4376.794922,4433.077148,3365.000000,2.000000,52.000000,,,,0.000000,4.000000,4.000000,4.000000,4.000000,4.000000,4.000000,4.000000,4.000000,4.000000,4.000000,4.000000,4.000000,4.000000,4.000000,100.000000,,,,,,,,,,,,,,,,,,,,,,,,,,,,,,,,,,,,,,,,,,,,,,,
1665772062.538649,1665772062.539056,110.000000,0.000000,4289.230957,4293.846191,4313.846191,4346.025879,4295.512695,4296.922852,4298.589844,4303.333496,4298.717773,4296.282227,4477.179688,4507.051270,4381.666504,4435.384766,2578.000000,2.000000,52.000000,,,,0.000000,4.000000,4.000000,4.000000,4.000000,4.000000,4.000000,4.000000,4.000000,4.000000,4.000000,4.000000,4.000000,4.000000,4.000000,100.000000,,,,,,,,,,,,,,,,,,,,,,,,,,,,,,,,,,,,,,,,,,,,,,,
1665772062.546457,1665772062.546864,111.000000,0.000000,4291.282227,4294.487305,4308.589844,4344.230957,4300.000000,4298.461426,4297.820313,4297.820313,4294.615234,4296.922852,4476.153809,4502.436035,4385.256348,4429.871582,2530.000000,2.000000,52.000000,,,,0.000000,4.000000,4.000000,4.000000,4.000000,4.000000,4.000000,4.000000,4.000000,4.000000,4.000000,4.000000,4.000000,4.000000,4.000000,100.000000,,,,,,,,,,,,,,,,,,,,,,,,,,,,,,,,,,,,,,,,,,,,,,,
1665772062.554266,1665772062.554773,112.000000,0.000000,4285.512695,4291.666504,4302.436035,4341.410156,4297.436035,4295.128418,4286.538574,4290.384766,4285.000000,4288.717773,4475.512695,4491.794922,4381.922852,4426.794922,2725.000000,2.000000,52.000000,,,,0.000000,4.000000,4.000000,4.000000,4.000000,4.000000,4.000000,4.000000,4.000000,4.000000,4.000000,4.000000,4.000000,4.000000,4.000000,100.000000,,,,,,,,,,,,,,,,,,,,,,,,,,,,,,,,,,,,,,,,,,,,,,,
1665772062.562074,1665772062.562581,113.000000,0.000000,4288.333496,4295.512695,4311.282227,4345.897461,4296.794922,4292.051270,4287.692383,4296.282227,4279.615234,4281.282227,4480.384766,4498.205078,4379.871582,4437.948730,3365.000000,2.000000,52.000000,,,,0.000000,4.000000,4.000000,4.000000,4.000000,4.000000,4.000000,4.000000,4.000000,4.000000,4.000000,4.000000,4.000000,4.000000,4.000000,100.000000,,,,,,,,,,,,,,,,,,,,,,,,,,,,,,,,,,,,,,,,,,,,,,,
1665772062.569883,1665772062.570489,114.000000,0.000000,4300.769043,4304.230957,4318.974121,4351.282227,4304.230957,4294.230957,4294.102539,4300.256348,4280.256348,4289.871582,4482.179688,4509.230957,4381.922852,4443.717773,2578.000000,2.000000,52.000000,,,,0.000000,4.000000,4.000000,4.000000,4.000000,4.000000,4.000000,4.000000,4.000000,4.000000,4.000000,4.000000,4.000000,4.000000,4.000000,100.000000,,,,,,,,,,,,,,,,,,,,,,,,,,,,,,,,,,,,,,,,,,,,,,,
1665772062.577691,1665772062.578298,115.000000,0.000000,4304.230957,4305.641113,4320.128418,4351.666504,4308.205078,4295.512695,4288.717773,4298.333496,4284.102539,4295.384766,4478.589844,4506.538574,4381.794922,4438.974121,2530.000000,2.000000,52.000000,,,,0.000000,4.000000,4.000000,4.000000,4.000000,4.000000,4.000000,4.000000,4.000000,4.000000,4.000000,4.000000,4.000000,4.000000,4.000000,100.000000,,,,,,,,,,,,,,,,,,,,,,,,,,,,,,,,,,,,,,,,,,,,,,,
1665772062.585499,1665772062.586206,116.000000,0.000000,4298.333496,4301.666504,4321.153809,4349.615234,4299.358887,4293.974121,4290.000000,4300.512695,4285.384766,4284.358887,4475.897461,4504.871582,4374.615234,4436.153809,2725.000000,2.000000,52.000000,,,,0.000000,4.000000,4.000000,4.000000,4.000000,4.000000,4.000000,4.000000,4.000000,4.000000,4.000000,4.000000,4.000000,4.000000,4.000000,100.000000,,,,,,,,,,,,,,,,,,,,,,,,,,,,,,,,,,,,,,,,,,,,,,,
1665772062.593308,1665772062.594015,117.000000,0.000000,4296.282227,4303.333496,4317.307617,4343.333496,4295.897461,4295.256348,4298.974121,4299.487305,4281.025879,4278.461426,4476.666504,4507.948730,4369.230957,4436.410156,3365.000000,2.000000,52.000000,,,,0.000000,4.000000,4.000000,4.000000,4.000000,4.000000,4.000000,4.000000,4.000000,4.000000,4.000000,4.000000,4.000000,4.000000,4.000000,100.000000,,,,,,,,,,,,,,,,,,,,,,,,,,,,,,,,,,,,,,,,,,,,,,,
1665772062.601116,1665772062.601923,118.000000,0.000000,4296.666504,4304.102539,4314.230957,4333.461426,4308.205078,4294.487305,4297.692383,4300.512695,4282.179688,4282.563965,4480.769043,4507.563965,4373.461426,4435.128418,2578.000000,2.000000,52.000000,,,,0.000000,4.000000,4.000000,4.000000,4.000000,4.000000,4.000000,4.000000,4.000000,4.000000,4.000000,4.000000,4.000000,4.000000,4.000000,100.000000,,,,,,,,,,,,,,,,,,,,,,,,,,,,,,,,,,,,,,,,,,,,,,,
1665772062.608925,1665772062.609731,119.000000,0.000000,4295.641113,4297.692383,4314.230957,4333.589844,4310.769043,4294.102539,4299.871582,4306.538574,4292.436035,4281.282227,4480.897461,4506.410156,4374.487305,4432.179688,2530.000000,2.000000,52.000000,,,,0.000000,4.000000,4.000000,4.000000,4.000000,4.000000,4.000000,4.000000,4.000000,4.000000,4.000000,4.000000,4.000000,4.000000,4.000000,100.000000,,,,,,,,,,,,,,,,,,,,,,,,,,,,,,,,,,,,,,,,,,,,,,,
1665772062.616733,1665772062.617440,120.000000,0.000000,4298.717773,4295.512695,4314.743652,4343.846191,4304.743652,4301.410156,4308.077148,4307.563965,4296.538574,4278.205078,4475.000000,4503.077148,4367.948730,4429.230957,2725.000000,2.000000,52.000000,,,,0.000000,4.000000,4.000000,4.000000,4.000000,4.000000,4.000000,4.000000,4.000000,4.000000,4.000000,4.000000,4.000000,4.000000,4.000000,100.000000,,,,,,,,,,,,,,,,,,,,,,,,,,,,,,,,,,,,,,,,,,,,,,,
1665772062.624541,1665772062.625248,121.000000,0.000000,4300.128418,4298.461426,4314.615234,4347.179688,4304.871582,4304.743652,4301.153809,4301.025879,4293.461426,4280.128418,4470.384766,4494.102539,4369.102539,4427.436035,3365.000000,2.000000,52.000000,,,,0.000000,4.000000,4.000000,4.000000,4.000000,4.000000,4.000000,4.000000,4.000000,4.000000,4.000000,4.000000,4.000000,4.000000,4.000000,100.000000,,,,,,,,,,,,,,,,,,,,,,,,,,,,,,,,,,,,,,,,,,,,,,,
1665772062.632350,1665772062.632957,122.000000,0.000000,4296.410156,4297.820313,4310.128418,4341.794922,4304.487305,4298.846191,4292.948730,4295.256348,4292.948730,4280.641113,4471.282227,4489.487305,4374.871582,4428.846191,2578.000000,2.000000,52.000000,,,,0.000000,4.000000,4.000000,4.000000,4.000000,4.000000,4.000000,4.000000,4.000000,4.000000,4.000000,4.000000,4.000000,4.000000,4.000000,100.000000,,,,,,,,,,,,,,,,,,,,,,,,,,,,,,,,,,,,,,,,,,,,,,,
1665772062.640158,1665772062.640765,123.000000,0.000000,4297.179688,4296.538574,4305.641113,4334.615234,4302.948730,4295.897461,4296.282227,4296.410156,4293.077148,4278.589844,4474.871582,4496.153809,4374.487305,4430.512695,2530.000000,2.000000,52.000000,,,,0.000000,4.000000,4.000000,4.000000,4.000000,4.000000,4.000000,4.000000,4.000000,4.000000,4.000000,4.000000,4.000000,4.000000,4.000000,100.000000,,,,,,,,,,,,,,,,,,,,,,,,,,,,,,,,,,,,,,,,,,,,,,,
1665772062.647967,1665772062.648474,124.000000,0.000000,4305.128418,4298.205078,4309.615234,4333.205078,4301.666504,4298.205078,4296.025879,4300.000000,4294.615234,4283.589844,4478.333496,4505.000000,4374.102539,4432.436035,2725.000000,2.000000,52.000000,,,,0.000000,4.000000,4.000000,4.000000,4.000000,4.000000,4.000000,4.000000,4.000000,4.000000,4.000000,4.000000,4.000000,4.000000,4.000000,100.000000,,,,,,,,,,,,,,,,,,,,,,,,,,,,,,,,,,,,,,,,,,,,,,,
1665772062.655775,1665772062.656282,125.000000,0.000000,4306.794922,4297.692383,4316.025879,4339.487305,4296.666504,4296.410156,4290.384766,4299.615234,4293.077148,4292.179688,4483.077148,4508.205078,4378.205078,4432.948730,3365.000000,2.000000,52.000000,,,,0.000000,4.000000,4.000000,4.000000,4.000000,4.000000,4.000000,4.000000,4.000000,4.000000,4.000000,4.000000,4.000000,4.000000,4.000000,100.000000,,,,,,,,,,,,,,,,,,,,,,,,,,,,,,,,,,,,,,,,,,,,,,,
1665772062.663583,1665772062.663991,126.000000,0.000000,4304.102539,4298.717773,4318.846191,4341.538574,4293.077148,4293.461426,4294.743652,4299.230957,4288.846191,4295.641113,4490.000000,4512.179688,4389.615234,4436.410156,2578.000000,2.000000,52.000000,,,,0.000000,4.000000,4.000000,4.000000,4.000000,4.000000,4.000000,4.000000,4.000000,4.000000,4.000000,4.000000,4.000000,4.000000,4.000000,100.000000,,,,,,,,,,,,,,,,,,,,,,,,,,,,,,,,,,,,,,,,,,,,,,,
1665772062.671392,1665772062.671899,127.000000,0.000000,4310.128418,4305.000000,4323.333496,4340.897461,4300.769043,4299.615234,4306.410156,4304.871582,4292.436035,4297.948730,4495.512695,4524.615234,4399.102539,4446.153809,52.000000,2.000000,52.000000,,,,0.000000,4.000000,4.000000,4.000000,4.000000,4.000000,4.000000,4.000000,4.000000,4.000000,4.000000,4.000000,4.000000,4.000000,4.000000,100.000000,,,,,,,,,,,,,,,,,,,,,,,,,,,,,,,,,,,,,,,,,,,,,,,
1665772062.679200,1665772062.679708,0.000000,0.000000,4313.077148,4305.384766,4325.512695,4345.128418,4310.512695,4306.282227,4309.102539,4310.000000,4298.077148,4297.948730,4494.615234,4527.436035,4391.922852,4448.461426,2030.000000,2.000000,52.000000,,,,0.000000,4.000000,4.000000,4.000000,4.000000,4.000000,4.000000,4.000000,4.000000,4.000000,4.000000,4.000000,4.000000,4.000000,4.000000,100.000000,,,,,,,,,,,,,,,,,,,,,,,,,,,,,,,,,,,,,,,,,,,,,,,
1665772062.687009,1665772062.687616,1.000000,0.000000,4305.000000,4296.538574,4318.974121,4340.000000,4312.563965,4300.897461,4298.846191,4307.948730,4293.974121,4288.333496,4493.333496,4515.128418,4380.769043,4438.589844,2137.000000,2.000000,52.000000,,,,0.000000,4.000000,4.000000,4.000000,4.000000,4.000000,4.000000,4.000000,4.000000,4.000000,4.000000,4.000000,4.000000,4.000000,4.000000,100.000000,,,,,,,,,,,,,,,,,,,,,,,,,,,,,,,,,,,,,,,,,,,,,,,
1665772062.694817,1665772062.695425,2.000000,0.000000,4303.717773,4294.230957,4317.179688,4329.487305,4308.846191,4294.230957,4292.820313,4302.820313,4288.077148,4278.205078,4492.820313,4503.974121,4382.563965,4434.358887,2279.000000,2.000000,52.000000,,,,0.000000,4.000000,4.000000,4.000000,4.000000,4.000000,4.000000,4.000000,4.000000,4.000000,4.000000,4.000000,4.000000,4.000000,4.000000,100.000000,,,,,,,,,,,,,,,,,,,,,,,,,,,,,,,,,,,,,,,,,,,,,,,
1665772062.702625,1665772062.703333,3.000000,0.000000,4306.410156,4298.974121,4318.333496,4322.563965,4302.307617,4295.897461,4297.563965,4299.743652,4285.897461,4279.615234,4485.384766,4496.538574,4385.769043,4435.128418,2301.000000,2.000000,52.000000,,,,0.000000,4.000000,4.000000,4.000000,4.000000,4.000000,4.000000,4.000000,4.000000,4.000000,4.000000,4.000000,4.000000,4.000000,4.000000,100.000000,,,,,,,,,,,,,,,,,,,,,,,,,,,,,,,,,,,,,,,,,,,,,,,
1665772062.710434,1665772062.711141,4.000000,0.000000,4296.153809,4293.589844,4312.948730,4312.563965,4297.307617,4295.897461,4297.820313,4299.358887,4281.794922,4283.461426,4477.820313,4489.358887,4382.179688,4429.871582,2388.000000,2.000000,52.000000,,,,0.000000,4.000000,4.000000,4.000000,4.000000,4.000000,4.000000,4.000000,4.000000,4.000000,4.000000,4.000000,4.000000,4.000000,4.000000,100.000000,,,,,,,,,,,,,,,,,,,,,,,,,,,,,,,,,,,,,,,,,,,,,,,
1665772062.718242,1665772062.718950,5.000000,0.000000,4290.897461,4286.410156,4307.307617,4310.128418,4293.333496,4291.666504,4290.769043,4297.563965,4280.384766,4278.333496,4478.589844,4487.436035,4378.333496,4430.769043,2312.000000,2.000000,52.000000,,,,0.000000,4.000000,4.000000,4.000000,4.000000,4.000000,4.000000,4.000000,4.000000,4.000000,4.000000,4.000000,4.000000,4.000000,4.000000,100.000000,,,,,,,,,,,,,,,,,,,,,,,,,,,,,,,,,,,,,,,,,,,,,,,
1665772062.726051,1665772062.726658,6.000000,0.000000,4306.794922,4293.717773,4314.743652,4318.846191,4295.256348,4292.051270,4291.666504,4296.410156,4286.794922,4280.128418,4486.025879,4496.538574,4380.128418,4443.461426,2134.000000,2.000000,52.000000,,,,0.000000,4.000000,4.000000,4.000000,4.000000,4.000000,4.000000,4.000000,4.000000,4.000000,4.000000,4.000000,4.000000,4.000000,4.000000,100.000000,,,,,,,,,,,,,,,,,,,,,,,,,,,,,,,,,,,,,,,,,,,,,,,
1665772062.733859,1665772062.734567,7.000000,0.000000,4318.461426,4300.256348,4323.461426,4320.384766,4296.025879,4295.897461,4298.589844,4300.384766,4292.051270,4290.769043,4492.563965,4509.487305,4391.410156,4446.153809,2169.000000,2.000000,52.000000,,,,0.000000,4.000000,4.000000,4.000000,4.000000,4.000000,4.000000,4.000000,4.000000,4.000000,4.000000,4.000000,4.000000,4.000000,4.000000,100.000000,,,,,,,,,,,,,,,,,,,,,,,,,,,,,,,,,,,,,,,,,,,,,,,
1665772062.741667,1665772062.742375,8.000000,0.000000,4311.922852,4294.358887,4319.871582,4315.641113,4291.794922,4296.666504,4297.820313,4298.846191,4287.948730,4288.205078,4491.025879,4510.512695,4394.743652,4434.871582,2312.000000,2.000000,52.000000,,,,0.000000,4.000000,4.000000,4.000000,4.000000,4.000000,4.000000,4.000000,4.000000,4.000000,4.000000,4.000000,4.000000,4.000000,4.000000,100.000000,,,,,,,,,,,,,,,,,,,,,,,,,,,,,,,,,,,,,,,,,,,,,,,
