title:Psychopy_Andrew_Speakers_Closed, start timestamp:1665770083.374276, stop timestamp:1665770144.381219, headset type:EPOCX, headset serial:E2020A42, headset firmware:720, channels:86, sampling rate:eeg_128;pm_2, samples:7814      , version:2.1, 
Timestamp,OriginalTimestamp,EEG.Counter,EEG.Interpolated,EEG.AF3,EEG.F7,EEG.F3,EEG.FC5,EEG.T7,EEG.P7,EEG.O1,EEG.O2,EEG.P8,EEG.T8,EEG.FC6,EEG.F4,EEG.F8,EEG.AF4,EEG.RawCq,EEG.Battery,EEG.BatteryPercent,MarkerIndex,MarkerType,MarkerValueInt,EEG.MarkerHardware,CQ.AF3,CQ.F7,CQ.F3,CQ.FC5,CQ.T7,CQ.P7,CQ.O1,CQ.O2,CQ.P8,CQ.T8,CQ.FC6,CQ.F4,CQ.F8,CQ.AF4,CQ.Overall,EQ.SampleRateQuality,EQ.OVERALL,EQ.AF3,EQ.F7,EQ.F3,EQ.FC5,EQ.T7,EQ.P7,EQ.O1,EQ.O2,EQ.P8,EQ.T8,EQ.FC6,EQ.F4,EQ.F8,EQ.AF4,PM.Engagement.IsActive,PM.Engagement.Scaled,PM.Engagement.Raw,PM.Engagement.Min,PM.Engagement.Max,PM.Excitement.IsActive,PM.Excitement.Scaled,PM.Excitement.Raw,PM.Excitement.Min,PM.Excitement.Max,PM.LongTermExcitement,PM.Stress.IsActive,PM.Stress.Scaled,PM.Stress.Raw,PM.Stress.Min,PM.Stress.Max,PM.Relaxation.IsActive,PM.Relaxation.Scaled,PM.Relaxation.Raw,PM.Relaxation.Min,PM.Relaxation.Max,PM.Interest.IsActive,PM.Interest.Scaled,PM.Interest.Raw,PM.Interest.Min,PM.Interest.Max,PM.Focus.IsActive,PM.Focus.Scaled,PM.Focus.Raw,PM.Focus.Min,PM.Focus.Max
1665770083.374276,1665770083.375146,84.000000,0.000000,4291.282227,4302.436035,4289.358887,4307.563965,4293.846191,4289.871582,4294.871582,4287.051270,4269.358887,4251.922852,4420.641113,4423.333496,4322.692383,4379.487305,3066.000000,3.000000,55.000000,,,,0.000000,4.000000,4.000000,4.000000,4.000000,4.000000,4.000000,4.000000,4.000000,4.000000,4.000000,4.000000,4.000000,4.000000,4.000000,100.000000,,,,,,,,,,,,,,,,,,,,,,,,,,,,,,,,,,,,,,,,,,,,,,,
1665770083.382084,1665770083.382854,85.000000,0.000000,4285.256348,4298.333496,4284.230957,4305.256348,4298.077148,4295.769043,4297.051270,4281.922852,4260.641113,4247.820313,4412.563965,4420.384766,4316.538574,4374.358887,1336.000000,3.000000,55.000000,,,,0.000000,4.000000,4.000000,4.000000,4.000000,4.000000,4.000000,4.000000,4.000000,4.000000,4.000000,4.000000,4.000000,4.000000,4.000000,100.000000,,,,,,,,,,,,,,,,,,,,,,,,,,,,,,,,,,,,,,,,,,,,,,,
1665770083.389893,1665770083.390663,86.000000,0.000000,4280.384766,4301.538574,4290.000000,4304.743652,4298.589844,4297.948730,4295.384766,4275.769043,4261.282227,4247.436035,4411.794922,4419.615234,4318.077148,4374.871582,2712.000000,3.000000,55.000000,,,,0.000000,4.000000,4.000000,4.000000,4.000000,4.000000,4.000000,4.000000,4.000000,4.000000,4.000000,4.000000,4.000000,4.000000,4.000000,100.000000,,,,,,,,,,,,,,,,,,,,,,,,,,,,,,,,,,,,,,,,,,,,,,,
1665770083.397701,1665770083.398371,87.000000,0.000000,4287.563965,4306.666504,4294.230957,4312.563965,4296.666504,4302.179688,4293.846191,4266.922852,4261.794922,4247.051270,4419.487305,4420.000000,4323.461426,4377.179688,2419.000000,3.000000,55.000000,,,,0.000000,4.000000,4.000000,4.000000,4.000000,4.000000,4.000000,4.000000,4.000000,4.000000,4.000000,4.000000,4.000000,4.000000,4.000000,100.000000,,,,,,,,,,,,,,,,,,,,,,,,,,,,,,,,,,,,,,,,,,,,,,,
1665770083.405510,1665770083.406180,88.000000,0.000000,4295.897461,4305.512695,4294.743652,4314.615234,4297.179688,4300.000000,4291.282227,4264.743652,4265.256348,4257.820313,4427.948730,4421.538574,4336.538574,4382.307617,3066.000000,3.000000,55.000000,,,,0.000000,4.000000,4.000000,4.000000,4.000000,4.000000,4.000000,4.000000,4.000000,4.000000,4.000000,4.000000,4.000000,4.000000,4.000000,100.000000,,,,,,,,,,,,,,,,,,,,,,,,,,,,,,,,,,,,,,,,,,,,,,,
1665770083.413318,1665770083.413888,89.000000,0.000000,4295.641113,4300.384766,4294.230957,4302.563965,4297.307617,4287.563965,4282.436035,4264.871582,4274.230957,4266.410156,4432.563965,4421.025879,4342.179688,4388.333496,1336.000000,3.000000,55.000000,,,,0.000000,4.000000,4.000000,4.000000,4.000000,4.000000,4.000000,4.000000,4.000000,4.000000,4.000000,4.000000,4.000000,4.000000,4.000000,100.000000,,,,,,,,,,,,,,,,,,,,,,,,,,,,,,,,,,,,,,,,,,,,,,,
1665770083.421126,1665770083.421697,90.000000,0.000000,4296.025879,4297.948730,4294.615234,4294.230957,4292.948730,4278.333496,4267.436035,4267.948730,4281.025879,4265.769043,4441.538574,4420.256348,4340.000000,4392.948730,2712.000000,3.000000,55.000000,,,,0.000000,4.000000,4.000000,4.000000,4.000000,4.000000,4.000000,4.000000,4.000000,4.000000,4.000000,4.000000,4.000000,4.000000,4.000000,100.000000,,,,,,,,,,,,,,,,,,,,,,,,,,,,,,,,,,,,,,,,,,,,,,,
1665770083.428935,1665770083.429405,91.000000,0.000000,4303.205078,4298.589844,4295.512695,4298.333496,4281.538574,4268.461426,4250.897461,4277.307617,4282.436035,4274.871582,4446.922852,4424.102539,4347.436035,4398.333496,2419.000000,3.000000,55.000000,,,,0.000000,4.000000,4.000000,4.000000,4.000000,4.000000,4.000000,4.000000,4.000000,4.000000,4.000000,4.000000,4.000000,4.000000,4.000000,100.000000,,,,,,,,,,,,,,,,,,,,,,,,,,,,,,,,,,,,,,,,,,,,,,,
1665770083.436743,1665770083.437214,92.000000,0.000000,4307.051270,4298.077148,4295.128418,4297.563965,4273.974121,4257.051270,4244.615234,4284.615234,4281.410156,4280.256348,4438.333496,4427.051270,4353.717773,4399.230957,3066.000000,3.000000,55.000000,,,,0.000000,4.000000,4.000000,4.000000,4.000000,4.000000,4.000000,4.000000,4.000000,4.000000,4.000000,4.000000,4.000000,4.000000,4.000000,100.000000,,,,,,,,,,,,,,,,,,,,,,,,,,,,,,,,,,,,,,,,,,,,,,,
1665770083.444552,1665770083.444922,93.000000,0.000000,4305.769043,4297.948730,4295.897461,4297.051270,4276.922852,4265.128418,4260.128418,4290.384766,4280.897461,4270.000000,4433.461426,4423.333496,4347.948730,4394.743652,1336.000000,3.000000,55.000000,,,,0.000000,4.000000,4.000000,4.000000,4.000000,4.000000,4.000000,4.000000,4.000000,4.000000,4.000000,4.000000,4.000000,4.000000,4.000000,100.000000,1.000000,58.333332,4.000000,3.000000,1.000000,4.000000,3.000000,3.000000,4.000000,3.000000,4.000000,3.000000,4.000000,4.000000,4.000000,4.000000,1.000000,0.136075,-1.381317,-1.305666,0.651167,1.000000,0.000000,2.889843,2.889843,12.163130,0.313692,1.000000,0.570843,127.417351,-88.502045,299.104706,1.000000,0.697059,0.407507,0.078247,0.268688,1.000000,0.534552,8.747842,-4.657058,19.225458,1.000000,0.299581,0.299581,0.000000,1.000000
1665770083.452360,1665770083.452731,94.000000,0.000000,4299.743652,4298.333496,4294.487305,4306.922852,4281.922852,4287.563965,4284.358887,4298.461426,4284.102539,4261.794922,4435.256348,4422.051270,4339.230957,4389.102539,2712.000000,3.000000,55.000000,,,,0.000000,4.000000,4.000000,4.000000,4.000000,4.000000,4.000000,4.000000,4.000000,4.000000,4.000000,4.000000,4.000000,4.000000,4.000000,100.000000,,,,,,,,,,,,,,,,,,,,,,,,,,,,,,,,,,,,,,,,,,,,,,,
1665770083.460168,1665770083.460439,95.000000,0.000000,4286.666504,4287.563965,4285.000000,4305.897461,4286.922852,4297.051270,4300.384766,4298.461426,4279.743652,4255.512695,4426.794922,4421.922852,4328.461426,4380.641113,2419.000000,3.000000,55.000000,,,,0.000000,4.000000,4.000000,4.000000,4.000000,4.000000,4.000000,4.000000,4.000000,4.000000,4.000000,4.000000,4.000000,4.000000,4.000000,100.000000,,,,,,,,,,,,,,,,,,,,,,,,,,,,,,,,,,,,,,,,,,,,,,,
1665770083.467977,1665770083.468248,96.000000,0.000000,4275.000000,4275.897461,4276.538574,4294.743652,4297.820313,4300.641113,4306.666504,4291.410156,4269.102539,4246.666504,4417.820313,4417.692383,4315.128418,4371.282227,3066.000000,3.000000,55.000000,,,,0.000000,4.000000,4.000000,4.000000,4.000000,4.000000,4.000000,4.000000,4.000000,4.000000,4.000000,4.000000,4.000000,4.000000,4.000000,100.000000,,,,,,,,,,,,,,,,,,,,,,,,,,,,,,,,,,,,,,,,,,,,,,,
1665770083.475785,1665770083.475956,97.000000,0.000000,4274.743652,4279.487305,4277.307617,4295.897461,4308.461426,4309.615234,4304.230957,4287.436035,4269.358887,4249.102539,4422.051270,4422.179688,4318.205078,4369.487305,1336.000000,3.000000,55.000000,,,,0.000000,4.000000,4.000000,4.000000,4.000000,4.000000,4.000000,4.000000,4.000000,4.000000,4.000000,4.000000,4.000000,4.000000,4.000000,100.000000,,,,,,,,,,,,,,,,,,,,,,,,,,,,,,,,,,,,,,,,,,,,,,,
1665770083.483594,1665770083.483765,98.000000,0.000000,4280.256348,4285.512695,4281.153809,4300.000000,4311.794922,4308.333496,4295.384766,4283.077148,4271.922852,4252.948730,4428.333496,4428.846191,4328.974121,4372.692383,2712.000000,3.000000,55.000000,,,,0.000000,4.000000,4.000000,4.000000,4.000000,4.000000,4.000000,4.000000,4.000000,4.000000,4.000000,4.000000,4.000000,4.000000,4.000000,100.000000,,,,,,,,,,,,,,,,,,,,,,,,,,,,,,,,,,,,,,,,,,,,,,,
1665770083.491402,1665770083.491473,99.000000,0.000000,4280.641113,4280.897461,4280.641113,4297.179688,4307.051270,4299.487305,4288.205078,4280.769043,4266.794922,4248.846191,4428.333496,4426.666504,4330.256348,4374.871582,2419.000000,3.000000,55.000000,,,,0.000000,4.000000,4.000000,4.000000,4.000000,4.000000,4.000000,4.000000,4.000000,4.000000,4.000000,4.000000,4.000000,4.000000,4.000000,100.000000,,,,,,,,,,,,,,,,,,,,,,,,,,,,,,,,,,,,,,,,,,,,,,,
1665770083.499210,1665770083.499382,100.000000,0.000000,4278.205078,4283.077148,4279.743652,4298.589844,4300.384766,4294.358887,4282.051270,4276.922852,4263.974121,4255.641113,4427.948730,4425.128418,4333.717773,4377.307617,3066.000000,3.000000,55.000000,,,,0.000000,4.000000,4.000000,4.000000,4.000000,4.000000,4.000000,4.000000,4.000000,4.000000,4.000000,4.000000,4.000000,4.000000,4.000000,100.000000,,,,,,,,,,,,,,,,,,,,,,,,,,,,,,,,,,,,,,,,,,,,,,,
1665770083.507019,1665770083.507190,101.000000,0.000000,4282.307617,4292.051270,4283.846191,4299.743652,4296.282227,4287.307617,4269.871582,4265.512695,4264.102539,4264.871582,4427.563965,4429.230957,4337.820313,4383.461426,1336.000000,3.000000,55.000000,,,,0.000000,4.000000,4.000000,4.000000,4.000000,4.000000,4.000000,4.000000,4.000000,4.000000,4.000000,4.000000,4.000000,4.000000,4.000000,100.000000,,,,,,,,,,,,,,,,,,,,,,,,,,,,,,,,,,,,,,,,,,,,,,,
1665770083.514827,1665770083.515098,102.000000,0.000000,4288.717773,4287.820313,4292.948730,4294.615234,4287.563965,4273.461426,4258.974121,4261.666504,4265.897461,4263.205078,4429.102539,4429.102539,4335.000000,4390.384766,2712.000000,3.000000,55.000000,,,,0.000000,4.000000,4.000000,4.000000,4.000000,4.000000,4.000000,4.000000,4.000000,4.000000,4.000000,4.000000,4.000000,4.000000,4.000000,100.000000,,,,,,,,,,,,,,,,,,,,,,,,,,,,,,,,,,,,,,,,,,,,,,,
1665770083.522636,1665770083.522907,103.000000,0.000000,4289.487305,4282.692383,4294.230957,4292.436035,4277.692383,4261.922852,4255.128418,4272.436035,4269.615234,4258.974121,4434.230957,4427.948730,4338.974121,4394.358887,2419.000000,3.000000,55.000000,,,,0.000000,4.000000,4.000000,4.000000,4.000000,4.000000,4.000000,4.000000,4.000000,4.000000,4.000000,4.000000,4.000000,4.000000,4.000000,100.000000,,,,,,,,,,,,,,,,,,,,,,,,,,,,,,,,,,,,,,,,,,,,,,,
1665770083.530444,1665770083.530815,104.000000,0.000000,4284.487305,4285.128418,4286.025879,4292.692383,4279.871582,4261.282227,4258.846191,4282.820313,4269.358887,4254.230957,4433.205078,4427.563965,4342.307617,4393.589844,3066.000000,3.000000,55.000000,,,,0.000000,4.000000,4.000000,4.000000,4.000000,4.000000,4.000000,4.000000,4.000000,4.000000,4.000000,4.000000,4.000000,4.000000,4.000000,100.000000,,,,,,,,,,,,,,,,,,,,,,,,,,,,,,,,,,,,,,,,,,,,,,,
1665770083.538252,1665770083.538624,105.000000,0.000000,4280.000000,4282.563965,4284.230957,4289.871582,4291.153809,4273.461426,4276.153809,4288.461426,4270.897461,4247.692383,4426.538574,4423.205078,4332.692383,4390.769043,1336.000000,3.000000,55.000000,,,,0.000000,4.000000,4.000000,4.000000,4.000000,4.000000,4.000000,4.000000,4.000000,4.000000,4.000000,4.000000,4.000000,4.000000,4.000000,100.000000,,,,,,,,,,,,,,,,,,,,,,,,,,,,,,,,,,,,,,,,,,,,,,,
1665770083.546061,1665770083.546532,106.000000,0.000000,4280.384766,4285.512695,4292.179688,4294.871582,4299.871582,4292.692383,4300.769043,4296.538574,4281.153809,4247.307617,4429.487305,4424.487305,4336.025879,4390.128418,2712.000000,3.000000,55.000000,,,,0.000000,4.000000,4.000000,4.000000,4.000000,4.000000,4.000000,4.000000,4.000000,4.000000,4.000000,4.000000,4.000000,4.000000,4.000000,100.000000,,,,,,,,,,,,,,,,,,,,,,,,,,,,,,,,,,,,,,,,,,,,,,,
1665770083.553869,1665770083.554340,107.000000,0.000000,4282.051270,4296.666504,4294.102539,4306.794922,4306.410156,4308.205078,4314.871582,4301.025879,4285.512695,4255.769043,4432.563965,4428.846191,4344.487305,4386.922852,2419.000000,3.000000,55.000000,,,,0.000000,4.000000,4.000000,4.000000,4.000000,4.000000,4.000000,4.000000,4.000000,4.000000,4.000000,4.000000,4.000000,4.000000,4.000000,100.000000,,,,,,,,,,,,,,,,,,,,,,,,,,,,,,,,,,,,,,,,,,,,,,,
1665770083.561678,1665770083.562049,108.000000,0.000000,4277.179688,4288.205078,4282.692383,4303.333496,4306.410156,4314.615234,4314.230957,4295.384766,4283.717773,4261.922852,4426.025879,4425.000000,4331.410156,4376.025879,3066.000000,3.000000,55.000000,,,,0.000000,4.000000,4.000000,4.000000,4.000000,4.000000,4.000000,4.000000,4.000000,4.000000,4.000000,4.000000,4.000000,4.000000,4.000000,100.000000,,,,,,,,,,,,,,,,,,,,,,,,,,,,,,,,,,,,,,,,,,,,,,,
1665770083.569486,1665770083.569857,109.000000,0.000000,4272.179688,4273.717773,4275.256348,4291.282227,4299.358887,4314.743652,4310.512695,4291.666504,4288.846191,4263.333496,4423.974121,4418.589844,4326.666504,4372.692383,1336.000000,3.000000,55.000000,,,,0.000000,4.000000,4.000000,4.000000,4.000000,4.000000,4.000000,4.000000,4.000000,4.000000,4.000000,4.000000,4.000000,4.000000,4.000000,100.000000,,,,,,,,,,,,,,,,,,,,,,,,,,,,,,,,,,,,,,,,,,,,,,,
1665770083.577294,1665770083.577566,110.000000,0.000000,4280.384766,4279.230957,4285.897461,4296.538574,4297.563965,4316.922852,4305.000000,4292.948730,4293.461426,4266.794922,4429.871582,4423.461426,4344.615234,4384.743652,2712.000000,3.000000,55.000000,,,,0.000000,4.000000,4.000000,4.000000,4.000000,4.000000,4.000000,4.000000,4.000000,4.000000,4.000000,4.000000,4.000000,4.000000,4.000000,100.000000,,,,,,,,,,,,,,,,,,,,,,,,,,,,,,,,,,,,,,,,,,,,,,,
1665770083.585103,1665770083.585374,111.000000,0.000000,4286.666504,4278.846191,4293.461426,4302.179688,4296.538574,4314.743652,4294.743652,4285.384766,4286.282227,4267.051270,4429.102539,4428.846191,4352.307617,4388.717773,2419.000000,3.000000,55.000000,,,,0.000000,4.000000,4.000000,4.000000,4.000000,4.000000,4.000000,4.000000,4.000000,4.000000,4.000000,4.000000,4.000000,4.000000,4.000000,100.000000,,,,,,,,,,,,,,,,,,,,,,,,,,,,,,,,,,,,,,,,,,,,,,,
1665770083.592911,1665770083.593083,112.000000,0.000000,4289.358887,4277.820313,4293.461426,4300.512695,4293.333496,4302.179688,4287.692383,4275.897461,4276.153809,4262.948730,4428.846191,4427.948730,4351.153809,4389.358887,3066.000000,3.000000,55.000000,,,,0.000000,4.000000,4.000000,4.000000,4.000000,4.000000,4.000000,4.000000,4.000000,4.000000,4.000000,4.000000,4.000000,4.000000,4.000000,100.000000,,,,,,,,,,,,,,,,,,,,,,,,,,,,,,,,,,,,,,,,,,,,,,,
1665770083.600720,1665770083.600891,113.000000,0.000000,4308.077148,4296.538574,4306.410156,4310.256348,4296.794922,4294.487305,4287.692383,4272.948730,4272.179688,4268.205078,4443.717773,4431.153809,4361.410156,4404.358887,1336.000000,3.000000,55.000000,,,,0.000000,4.000000,4.000000,4.000000,4.000000,4.000000,4.000000,4.000000,4.000000,4.000000,4.000000,4.000000,4.000000,4.000000,4.000000,100.000000,,,,,,,,,,,,,,,,,,,,,,,,,,,,,,,,,,,,,,,,,,,,,,,
1665770083.608528,1665770083.608600,114.000000,0.000000,4325.256348,4306.666504,4321.922852,4318.974121,4302.692383,4293.717773,4286.410156,4272.179688,4273.974121,4282.820313,4462.307617,4440.384766,4375.256348,4421.282227,2712.000000,3.000000,55.000000,,,,0.000000,4.000000,4.000000,4.000000,4.000000,4.000000,4.000000,4.000000,4.000000,4.000000,4.000000,4.000000,4.000000,4.000000,4.000000,100.000000,,,,,,,,,,,,,,,,,,,,,,,,,,,,,,,,,,,,,,,,,,,,,,,
1665770083.616336,1665770083.616408,115.000000,0.000000,4321.922852,4299.230957,4320.641113,4311.794922,4306.666504,4289.743652,4279.487305,4278.717773,4277.307617,4286.410156,4468.461426,4447.820313,4383.461426,4426.794922,2419.000000,3.000000,55.000000,,,,0.000000,4.000000,4.000000,4.000000,4.000000,4.000000,4.000000,4.000000,4.000000,4.000000,4.000000,4.000000,4.000000,4.000000,4.000000,100.000000,,,,,,,,,,,,,,,,,,,,,,,,,,,,,,,,,,,,,,,,,,,,,,,
1665770083.624145,1665770083.624117,116.000000,0.000000,4309.871582,4296.922852,4309.487305,4308.974121,4309.358887,4287.051270,4278.717773,4294.615234,4285.128418,4281.282227,4465.769043,4445.128418,4379.487305,4419.871582,3066.000000,3.000000,55.000000,,,,0.000000,4.000000,4.000000,4.000000,4.000000,4.000000,4.000000,4.000000,4.000000,4.000000,4.000000,4.000000,4.000000,4.000000,4.000000,100.000000,,,,,,,,,,,,,,,,,,,,,,,,,,,,,,,,,,,,,,,,,,,,,,,
1665770083.631953,1665770083.631925,117.000000,0.000000,4300.128418,4291.410156,4302.820313,4313.461426,4311.410156,4293.589844,4289.615234,4307.692383,4294.743652,4284.230957,4464.615234,4440.000000,4365.512695,4405.128418,1336.000000,3.000000,55.000000,,,,0.000000,4.000000,4.000000,4.000000,4.000000,4.000000,4.000000,4.000000,4.000000,4.000000,4.000000,4.000000,4.000000,4.000000,4.000000,100.000000,,,,,,,,,,,,,,,,,,,,,,,,,,,,,,,,,,,,,,,,,,,,,,,
1665770083.639761,1665770083.639634,118.000000,0.000000,4293.333496,4282.436035,4299.102539,4308.333496,4310.000000,4303.589844,4298.974121,4315.384766,4298.589844,4285.769043,4461.538574,4440.256348,4357.051270,4394.230957,2712.000000,3.000000,55.000000,,,,0.000000,4.000000,4.000000,4.000000,4.000000,4.000000,4.000000,4.000000,4.000000,4.000000,4.000000,4.000000,4.000000,4.000000,4.000000,100.000000,,,,,,,,,,,,,,,,,,,,,,,,,,,,,,,,,,,,,,,,,,,,,,,
1665770083.647570,1665770083.647442,119.000000,0.000000,4281.922852,4277.948730,4289.102539,4296.410156,4302.436035,4307.563965,4298.077148,4312.820313,4297.563965,4272.051270,4449.230957,4435.128418,4348.974121,4386.922852,2419.000000,3.000000,55.000000,,,,0.000000,4.000000,4.000000,4.000000,4.000000,4.000000,4.000000,4.000000,4.000000,4.000000,4.000000,4.000000,4.000000,4.000000,4.000000,100.000000,,,,,,,,,,,,,,,,,,,,,,,,,,,,,,,,,,,,,,,,,,,,,,,
1665770083.655378,1665770083.655151,120.000000,0.000000,4266.538574,4270.384766,4276.666504,4288.846191,4292.692383,4304.743652,4295.256348,4300.897461,4295.256348,4260.256348,4440.000000,4428.846191,4341.922852,4381.025879,3066.000000,3.000000,55.000000,,,,0.000000,4.000000,4.000000,4.000000,4.000000,4.000000,4.000000,4.000000,4.000000,4.000000,4.000000,4.000000,4.000000,4.000000,4.000000,100.000000,,,,,,,,,,,,,,,,,,,,,,,,,,,,,,,,,,,,,,,,,,,,,,,
1665770083.663187,1665770083.663059,121.000000,0.000000,4267.307617,4267.563965,4279.615234,4293.589844,4289.615234,4305.128418,4298.974121,4296.538574,4292.436035,4264.871582,4445.128418,4430.769043,4351.025879,4389.230957,1336.000000,3.000000,55.000000,,,,0.000000,4.000000,4.000000,4.000000,4.000000,4.000000,4.000000,4.000000,4.000000,4.000000,4.000000,4.000000,4.000000,4.000000,4.000000,100.000000,,,,,,,,,,,,,,,,,,,,,,,,,,,,,,,,,,,,,,,,,,,,,,,
1665770083.670995,1665770083.670868,122.000000,0.000000,4279.871582,4277.179688,4287.820313,4296.282227,4292.307617,4310.000000,4294.487305,4292.820313,4287.307617,4268.589844,4442.563965,4431.282227,4357.051270,4397.692383,2712.000000,3.000000,55.000000,,,,0.000000,4.000000,4.000000,4.000000,4.000000,4.000000,4.000000,4.000000,4.000000,4.000000,4.000000,4.000000,4.000000,4.000000,4.000000,100.000000,,,,,,,,,,,,,,,,,,,,,,,,,,,,,,,,,,,,,,,,,,,,,,,
1665770083.678803,1665770083.678776,123.000000,0.000000,4281.153809,4280.641113,4284.102539,4283.974121,4288.333496,4305.512695,4285.512695,4279.358887,4278.205078,4260.256348,4425.641113,4421.282227,4345.256348,4388.589844,2419.000000,3.000000,55.000000,,,,0.000000,4.000000,4.000000,4.000000,4.000000,4.000000,4.000000,4.000000,4.000000,4.000000,4.000000,4.000000,4.000000,4.000000,4.000000,100.000000,,,,,,,,,,,,,,,,,,,,,,,,,,,,,,,,,,,,,,,,,,,,,,,
1665770083.686612,1665770083.686585,124.000000,0.000000,4283.846191,4278.589844,4287.436035,4281.922852,4285.256348,4295.769043,4288.974121,4270.000000,4269.743652,4260.000000,4427.563965,4418.717773,4345.128418,4388.974121,3066.000000,3.000000,55.000000,,,,0.000000,4.000000,4.000000,4.000000,4.000000,4.000000,4.000000,4.000000,4.000000,4.000000,4.000000,4.000000,4.000000,4.000000,4.000000,100.000000,,,,,,,,,,,,,,,,,,,,,,,,,,,,,,,,,,,,,,,,,,,,,,,
1665770083.694420,1665770083.694493,125.000000,0.000000,4295.256348,4285.256348,4297.948730,4294.358887,4289.871582,4292.051270,4287.820313,4266.025879,4262.179688,4266.794922,4442.820313,4426.666504,4363.717773,4405.128418,1336.000000,3.000000,55.000000,,,,0.000000,4.000000,4.000000,4.000000,4.000000,4.000000,4.000000,4.000000,4.000000,4.000000,4.000000,4.000000,4.000000,4.000000,4.000000,100.000000,,,,,,,,,,,,,,,,,,,,,,,,,,,,,,,,,,,,,,,,,,,,,,,
1665770083.702228,1665770083.702301,126.000000,0.000000,4297.948730,4292.307617,4299.615234,4301.282227,4295.641113,4289.615234,4280.512695,4263.846191,4262.179688,4265.256348,4449.615234,4430.897461,4368.205078,4411.538574,2712.000000,3.000000,55.000000,,,,0.000000,4.000000,4.000000,4.000000,4.000000,4.000000,4.000000,4.000000,4.000000,4.000000,4.000000,4.000000,4.000000,4.000000,4.000000,100.000000,,,,,,,,,,,,,,,,,,,,,,,,,,,,,,,,,,,,,,,,,,,,,,,
1665770083.710037,1665770083.710210,127.000000,0.000000,4298.077148,4294.871582,4304.358887,4304.487305,4299.102539,4283.205078,4286.666504,4272.179688,4272.307617,4267.179688,4458.205078,4432.436035,4364.743652,4411.538574,55.000000,3.000000,55.000000,,,,0.000000,4.000000,4.000000,4.000000,4.000000,4.000000,4.000000,4.000000,4.000000,4.000000,4.000000,4.000000,4.000000,4.000000,4.000000,100.000000,,,,,,,,,,,,,,,,,,,,,,,,,,,,,,,,,,,,,,,,,,,,,,,
1665770083.717845,1665770083.718018,0.000000,0.000000,4304.230957,4297.563965,4312.948730,4313.717773,4300.512695,4277.307617,4296.282227,4287.692383,4282.179688,4275.000000,4465.512695,4433.461426,4372.307617,4413.974121,2461.000000,3.000000,55.000000,,,,0.000000,4.000000,4.000000,4.000000,4.000000,4.000000,4.000000,4.000000,4.000000,4.000000,4.000000,4.000000,4.000000,4.000000,4.000000,100.000000,,,,,,,,,,,,,,,,,,,,,,,,,,,,,,,,,,,,,,,,,,,,,,,
1665770083.725654,1665770083.725926,1.000000,0.000000,4299.358887,4289.743652,4309.358887,4314.102539,4300.897461,4280.641113,4288.205078,4294.871582,4288.333496,4272.820313,4453.846191,4431.538574,4371.666504,4405.769043,2239.000000,3.000000,55.000000,,,,0.000000,4.000000,4.000000,4.000000,4.000000,4.000000,4.000000,4.000000,4.000000,4.000000,4.000000,4.000000,4.000000,4.000000,4.000000,100.000000,,,,,,,,,,,,,,,,,,,,,,,,,,,,,,,,,,,,,,,,,,,,,,,
1665770083.733462,1665770083.733735,2.000000,0.000000,4275.128418,4269.615234,4289.102539,4299.615234,4290.769043,4290.641113,4279.358887,4297.051270,4293.974121,4263.589844,4434.871582,4423.589844,4349.102539,4383.717773,2371.000000,3.000000,55.000000,,,,0.000000,4.000000,4.000000,4.000000,4.000000,4.000000,4.000000,4.000000,4.000000,4.000000,4.000000,4.000000,4.000000,4.000000,4.000000,100.000000,,,,,,,,,,,,,,,,,,,,,,,,,,,,,,,,,,,,,,,,,,,,,,,
1665770083.741270,1665770083.741643,3.000000,0.000000,4251.538574,4248.461426,4265.897461,4285.769043,4276.922852,4296.538574,4281.538574,4296.922852,4294.102539,4258.589844,4423.077148,4415.128418,4327.051270,4368.333496,2358.000000,3.000000,55.000000,,,,0.000000,4.000000,4.000000,4.000000,4.000000,4.000000,4.000000,4.000000,4.000000,4.000000,4.000000,4.000000,4.000000,4.000000,4.000000,100.000000,,,,,,,,,,,,,,,,,,,,,,,,,,,,,,,,,,,,,,,,,,,,,,,
1665770083.749079,1665770083.749452,4.000000,0.000000,4242.820313,4234.615234,4255.897461,4271.666504,4273.717773,4295.641113,4282.948730,4290.897461,4290.384766,4253.205078,4417.179688,4413.077148,4326.282227,4363.717773,2379.000000,3.000000,55.000000,,,,0.000000,4.000000,4.000000,4.000000,4.000000,4.000000,4.000000,4.000000,4.000000,4.000000,4.000000,4.000000,4.000000,4.000000,4.000000,100.000000,,,,,,,,,,,,,,,,,,,,,,,,,,,,,,,,,,,,,,,,,,,,,,,
1665770083.756887,1665770083.757160,5.000000,0.000000,4244.743652,4232.692383,4258.974121,4263.205078,4276.922852,4295.384766,4280.128418,4282.563965,4283.589844,4247.692383,4420.641113,4416.794922,4331.666504,4366.153809,2388.000000,3.000000,55.000000,,,,0.000000,4.000000,4.000000,4.000000,4.000000,4.000000,4.000000,4.000000,4.000000,4.000000,4.000000,4.000000,4.000000,4.000000,4.000000,100.000000,,,,,,,,,,,,,,,,,,,,,,,,,,,,,,,,,,,,,,,,,,,,,,,
1665770083.764696,1665770083.764969,6.000000,0.000000,4251.666504,4240.641113,4260.384766,4267.436035,4276.282227,4292.563965,4276.794922,4278.589844,4269.102539,4246.153809,4421.153809,4419.487305,4325.641113,4369.871582,2224.000000,3.000000,55.000000,,,,0.000000,4.000000,4.000000,4.000000,4.000000,4.000000,4.000000,4.000000,4.000000,4.000000,4.000000,4.000000,4.000000,4.000000,4.000000,100.000000,,,,,,,,,,,,,,,,,,,,,,,,,,,,,,,,,,,,,,,,,,,,,,,
1665770083.772504,1665770083.772677,7.000000,0.000000,4259.230957,4246.794922,4264.615234,4275.256348,4277.692383,4288.589844,4278.461426,4279.102539,4259.230957,4242.563965,4418.589844,4425.000000,4321.666504,4375.000000,2389.000000,3.000000,55.000000,,,,0.000000,4.000000,4.000000,4.000000,4.000000,4.000000,4.000000,4.000000,4.000000,4.000000,4.000000,4.000000,4.000000,4.000000,4.000000,100.000000,,,,,,,,,,,,,,,,,,,,,,,,,,,,,,,,,,,,,,,,,,,,,,,
1665770083.780312,1665770083.780486,8.000000,0.000000,4271.153809,4255.000000,4281.922852,4285.769043,4286.794922,4289.487305,4280.000000,4275.384766,4257.179688,4244.230957,4435.128418,4433.461426,4339.102539,4390.897461,2316.000000,3.000000,55.000000,,,,0.000000,4.000000,4.000000,4.000000,4.000000,4.000000,4.000000,4.000000,4.000000,4.000000,4.000000,4.000000,4.000000,4.000000,4.000000,100.000000,,,,,,,,,,,,,,,,,,,,,,,,,,,,,,,,,,,,,,,,,,,,,,,
1665770083.788121,1665770083.788194,9.000000,0.000000,4287.563965,4274.615234,4299.743652,4306.025879,4298.333496,4292.436035,4279.102539,4266.282227,4250.256348,4254.615234,4455.128418,4436.666504,4360.000000,4408.077148,2379.000000,3.000000,55.000000,,,,0.000000,4.000000,4.000000,4.000000,4.000000,4.000000,4.000000,4.000000,4.000000,4.000000,4.000000,4.000000,4.000000,4.000000,4.000000,100.000000,,,,,,,,,,,,,,,,,,,,,,,,,,,,,,,,,,,,,,,,,,,,,,,
1665770083.795929,1665770083.796003,10.000000,0.000000,4298.333496,4287.563965,4309.487305,4320.256348,4313.077148,4291.538574,4282.948730,4263.717773,4250.256348,4261.666504,4459.743652,4438.974121,4364.615234,4412.051270,2708.000000,3.000000,55.000000,,,,0.000000,4.000000,4.000000,4.000000,4.000000,4.000000,4.000000,4.000000,4.000000,4.000000,4.000000,4.000000,4.000000,4.000000,4.000000,100.000000,,,,,,,,,,,,,,,,,,,,,,,,,,,,,,,,,,,,,,,,,,,,,,,
1665770083.803738,1665770083.803711,11.000000,0.000000,4307.948730,4292.692383,4323.717773,4323.205078,4320.256348,4286.025879,4290.641113,4278.846191,4267.820313,4272.563965,4474.102539,4449.743652,4376.922852,4419.487305,2414.000000,3.000000,55.000000,,,,0.000000,4.000000,4.000000,4.000000,4.000000,4.000000,4.000000,4.000000,4.000000,4.000000,4.000000,4.000000,4.000000,4.000000,4.000000,100.000000,,,,,,,,,,,,,,,,,,,,,,,,,,,,,,,,,,,,,,,,,,,,,,,
1665770083.811546,1665770083.811520,12.000000,0.000000,4323.077148,4304.615234,4342.948730,4335.384766,4316.666504,4278.461426,4295.000000,4302.692383,4290.512695,4293.846191,4498.589844,4458.974121,4395.769043,4438.846191,3061.000000,3.000000,55.000000,,,,0.000000,4.000000,4.000000,4.000000,4.000000,4.000000,4.000000,4.000000,4.000000,4.000000,4.000000,4.000000,4.000000,4.000000,4.000000,100.000000,,,,,,,,,,,,,,,,,,,,,,,,,,,,,,,,,,,,,,,,,,,,,,,
1665770083.819354,1665770083.819228,13.000000,0.000000,4325.384766,4305.256348,4347.051270,4341.410156,4310.769043,4276.282227,4295.512695,4321.538574,4307.692383,4302.436035,4501.538574,4459.487305,4392.436035,4442.307617,1334.000000,3.000000,55.000000,,,,0.000000,4.000000,4.000000,4.000000,4.000000,4.000000,4.000000,4.000000,4.000000,4.000000,4.000000,4.000000,4.000000,4.000000,4.000000,100.000000,,,,,,,,,,,,,,,,,,,,,,,,,,,,,,,,,,,,,,,,,,,,,,,
1665770083.827163,1665770083.827137,14.000000,0.000000,4306.922852,4286.153809,4332.051270,4322.563965,4301.922852,4287.051270,4304.358887,4336.410156,4320.897461,4295.384766,4493.717773,4458.589844,4380.384766,4430.256348,2708.000000,3.000000,55.000000,,,,0.000000,4.000000,4.000000,4.000000,4.000000,4.000000,4.000000,4.000000,4.000000,4.000000,4.000000,4.000000,4.000000,4.000000,4.000000,100.000000,,,,,,,,,,,,,,,,,,,,,,,,,,,,,,,,,,,,,,,,,,,,,,,
1665770083.834971,1665770083.834945,15.000000,0.000000,4294.230957,4272.436035,4316.025879,4308.333496,4295.384766,4303.461426,4320.384766,4343.205078,4326.538574,4294.743652,4491.282227,4453.846191,4382.307617,4424.871582,2414.000000,3.000000,55.000000,,,,0.000000,4.000000,4.000000,4.000000,4.000000,4.000000,4.000000,4.000000,4.000000,4.000000,4.000000,4.000000,4.000000,4.000000,4.000000,100.000000,,,,,,,,,,,,,,,,,,,,,,,,,,,,,,,,,,,,,,,,,,,,,,,
1665770083.842780,1665770083.842853,16.000000,0.000000,4292.179688,4273.846191,4308.205078,4308.205078,4295.384766,4310.641113,4322.307617,4329.487305,4320.384766,4292.179688,4477.820313,4442.820313,4379.102539,4420.641113,0.000000,3.000000,55.000000,,,,0.000000,4.000000,4.000000,4.000000,4.000000,4.000000,4.000000,4.000000,4.000000,4.000000,4.000000,4.000000,4.000000,4.000000,4.000000,100.000000,,,,,,,,,,,,,,,,,,,,,,,,,,,,,,,,,,,,,,,,,,,,,,,
1665770083.850588,1665770083.850662,17.000000,0.000000,4291.794922,4275.512695,4306.282227,4305.384766,4297.692383,4311.922852,4312.692383,4305.256348,4302.948730,4273.077148,4459.743652,4435.641113,4365.000000,4413.461426,0.000000,3.000000,55.000000,,,,0.000000,4.000000,4.000000,4.000000,4.000000,4.000000,4.000000,4.000000,4.000000,4.000000,4.000000,4.000000,4.000000,4.000000,4.000000,100.000000,,,,,,,,,,,,,,,,,,,,,,,,,,,,,,,,,,,,,,,,,,,,,,,
1665770083.858396,1665770083.858570,18.000000,0.000000,4297.563965,4275.512695,4307.563965,4301.025879,4298.974121,4314.230957,4309.743652,4293.205078,4285.000000,4261.282227,4458.717773,4435.000000,4365.897461,4417.051270,0.000000,3.000000,55.000000,,,,0.000000,4.000000,4.000000,4.000000,4.000000,4.000000,4.000000,4.000000,4.000000,4.000000,4.000000,4.000000,4.000000,4.000000,4.000000,100.000000,,,,,,,,,,,,,,,,,,,,,,,,,,,,,,,,,,,,,,,,,,,,,,,
1665770083.866205,1665770083.866379,19.000000,0.000000,4305.384766,4280.384766,4306.922852,4305.000000,4302.307617,4313.333496,4307.436035,4286.410156,4270.897461,4261.282227,4457.436035,4429.358887,4372.820313,4420.641113,0.000000,3.000000,55.000000,,,,0.000000,4.000000,4.000000,4.000000,4.000000,4.000000,4.000000,4.000000,4.000000,4.000000,4.000000,4.000000,4.000000,4.000000,4.000000,100.000000,,,,,,,,,,,,,,,,,,,,,,,,,,,,,,,,,,,,,,,,,,,,,,,
1665770083.874013,1665770083.874287,20.000000,0.000000,4310.000000,4290.384766,4307.948730,4311.922852,4304.871582,4307.436035,4298.077148,4272.692383,4258.589844,4259.487305,4452.948730,4426.666504,4370.769043,4419.743652,0.000000,3.000000,55.000000,,,,0.000000,4.000000,4.000000,4.000000,4.000000,4.000000,4.000000,4.000000,4.000000,4.000000,4.000000,4.000000,4.000000,4.000000,4.000000,100.000000,,,,,,,,,,,,,,,,,,,,,,,,,,,,,,,,,,,,,,,,,,,,,,,
1665770083.881822,1665770083.882095,21.000000,0.000000,4322.307617,4303.333496,4323.077148,4325.256348,4307.307617,4304.871582,4295.384766,4271.025879,4260.897461,4268.717773,4470.512695,4439.102539,4382.307617,4430.384766,0.000000,3.000000,55.000000,,,,0.000000,4.000000,4.000000,4.000000,4.000000,4.000000,4.000000,4.000000,4.000000,4.000000,4.000000,4.000000,4.000000,4.000000,4.000000,100.000000,,,,,,,,,,,,,,,,,,,,,,,,,,,,,,,,,,,,,,,,,,,,,,,
1665770083.889630,1665770083.890004,22.000000,0.000000,4340.641113,4313.077148,4344.230957,4344.358887,4311.538574,4300.384766,4296.922852,4284.615234,4276.282227,4290.128418,4494.615234,4452.179688,4405.000000,4448.461426,0.000000,3.000000,55.000000,,,,0.000000,4.000000,4.000000,4.000000,4.000000,4.000000,4.000000,4.000000,4.000000,4.000000,4.000000,4.000000,4.000000,4.000000,4.000000,100.000000,,,,,,,,,,,,,,,,,,,,,,,,,,,,,,,,,,,,,,,,,,,,,,,
1665770083.897438,1665770083.897812,23.000000,0.000000,4347.179688,4315.641113,4356.282227,4353.333496,4312.179688,4289.871582,4295.000000,4297.820313,4289.230957,4306.282227,4503.461426,4456.666504,4414.615234,4457.307617,0.000000,3.000000,55.000000,,,,0.000000,4.000000,4.000000,4.000000,4.000000,4.000000,4.000000,4.000000,4.000000,4.000000,4.000000,4.000000,4.000000,4.000000,4.000000,100.000000,,,,,,,,,,,,,,,,,,,,,,,,,,,,,,,,,,,,,,,,,,,,,,,
1665770083.905247,1665770083.905721,24.000000,0.000000,4347.179688,4315.641113,4362.051270,4353.974121,4314.230957,4289.743652,4302.948730,4318.717773,4306.794922,4317.820313,4517.307617,4466.666504,4420.512695,4462.948730,0.000000,3.000000,55.000000,,,,0.000000,4.000000,4.000000,4.000000,4.000000,4.000000,4.000000,4.000000,4.000000,4.000000,4.000000,4.000000,4.000000,4.000000,4.000000,100.000000,,,,,,,,,,,,,,,,,,,,,,,,,,,,,,,,,,,,,,,,,,,,,,,
1665770083.913055,1665770083.913529,25.000000,0.000000,4343.205078,4310.000000,4358.846191,4349.230957,4315.769043,4301.666504,4315.000000,4344.743652,4328.717773,4325.000000,4528.717773,4474.358887,4422.436035,4462.051270,0.000000,3.000000,55.000000,,,,0.000000,4.000000,4.000000,4.000000,4.000000,4.000000,4.000000,4.000000,4.000000,4.000000,4.000000,4.000000,4.000000,4.000000,4.000000,100.000000,,,,,,,,,,,,,,,,,,,,,,,,,,,,,,,,,,,,,,,,,,,,,,,
1665770083.920864,1665770083.921437,26.000000,0.000000,4317.820313,4292.307617,4333.589844,4331.666504,4307.051270,4306.794922,4315.000000,4348.077148,4331.794922,4313.717773,4505.256348,4462.051270,4399.743652,4438.205078,0.000000,3.000000,55.000000,,,,0.000000,4.000000,4.000000,4.000000,4.000000,4.000000,4.000000,4.000000,4.000000,4.000000,4.000000,4.000000,4.000000,4.000000,4.000000,100.000000,,,,,,,,,,,,,,,,,,,,,,,,,,,,,,,,,,,,,,,,,,,,,,,
1665770083.928672,1665770083.929246,27.000000,0.000000,4286.666504,4272.307617,4301.153809,4308.333496,4293.717773,4306.282227,4311.666504,4333.205078,4317.948730,4291.153809,4469.743652,4443.077148,4370.128418,4411.025879,0.000000,3.000000,55.000000,,,,0.000000,4.000000,4.000000,4.000000,4.000000,4.000000,4.000000,4.000000,4.000000,4.000000,4.000000,4.000000,4.000000,4.000000,4.000000,100.000000,,,,,,,,,,,,,,,,,,,,,,,,,,,,,,,,,,,,,,,,,,,,,,,
1665770083.936480,1665770083.937054,28.000000,0.000000,4276.666504,4266.153809,4288.846191,4296.922852,4282.436035,4308.205078,4307.948730,4317.820313,4303.974121,4273.717773,4452.179688,4436.025879,4351.666504,4399.487305,0.000000,3.000000,55.000000,,,,0.000000,4.000000,4.000000,4.000000,4.000000,4.000000,4.000000,4.000000,4.000000,4.000000,4.000000,4.000000,4.000000,4.000000,4.000000,100.000000,,,,,,,,,,,,,,,,,,,,,,,,,,,,,,,,,,,,,,,,,,,,,,,
1665770083.944289,1665770083.944863,29.000000,0.000000,4277.692383,4270.897461,4290.641113,4295.256348,4279.230957,4304.102539,4299.871582,4300.897461,4287.692383,4257.436035,4442.820313,4436.153809,4339.743652,4395.000000,0.000000,3.000000,55.000000,,,,0.000000,4.000000,4.000000,4.000000,4.000000,4.000000,4.000000,4.000000,4.000000,4.000000,4.000000,4.000000,4.000000,4.000000,4.000000,100.000000,1.000000,75.000000,4.000000,4.000000,1.000000,4.000000,4.000000,4.000000,4.000000,4.000000,4.000000,4.000000,4.000000,4.000000,4.000000,4.000000,1.000000,0.127542,-1.290649,-1.307161,0.651911,1.000000,0.000000,2.889843,2.889843,12.163130,0.306556,1.000000,0.573910,128.393021,-88.462631,299.081177,1.000000,0.697059,0.344736,0.078247,0.268688,1.000000,0.550350,8.958834,-4.654918,19.223600,1.000000,0.297167,0.297167,0.000000,1.000000
1665770083.952097,1665770083.952571,30.000000,0.000000,4278.461426,4279.487305,4287.051270,4295.897461,4287.179688,4296.922852,4292.051270,4285.384766,4270.128418,4246.666504,4435.641113,4431.153809,4340.384766,4393.077148,0.000000,3.000000,55.000000,,,,0.000000,4.000000,4.000000,4.000000,4.000000,4.000000,4.000000,4.000000,4.000000,4.000000,4.000000,4.000000,4.000000,4.000000,4.000000,100.000000,,,,,,,,,,,,,,,,,,,,,,,,,,,,,,,,,,,,,,,,,,,,,,,
1665770083.959905,1665770083.960480,31.000000,0.000000,4285.641113,4287.948730,4285.256348,4302.307617,4295.000000,4297.563965,4285.769043,4274.871582,4259.743652,4244.743652,4432.820313,4426.538574,4347.436035,4396.794922,0.000000,3.000000,55.000000,,,,0.000000,4.000000,4.000000,4.000000,4.000000,4.000000,4.000000,4.000000,4.000000,4.000000,4.000000,4.000000,4.000000,4.000000,4.000000,100.000000,,,,,,,,,,,,,,,,,,,,,,,,,,,,,,,,,,,,,,,,,,,,,,,
1665770083.967714,1665770083.968288,32.000000,0.000000,4297.307617,4294.358887,4298.205078,4309.871582,4297.307617,4297.307617,4282.179688,4264.487305,4256.666504,4248.461426,4437.692383,4430.641113,4347.051270,4401.922852,0.000000,3.000000,55.000000,,,,0.000000,4.000000,4.000000,4.000000,4.000000,4.000000,4.000000,4.000000,4.000000,4.000000,4.000000,4.000000,4.000000,4.000000,4.000000,100.000000,,,,,,,,,,,,,,,,,,,,,,,,,,,,,,,,,,,,,,,,,,,,,,,
1665770083.975522,1665770083.976196,33.000000,0.000000,4311.025879,4305.256348,4316.794922,4318.077148,4300.256348,4291.794922,4285.384766,4262.692383,4257.307617,4259.487305,4452.307617,4437.820313,4353.077148,4410.897461,0.000000,3.000000,55.000000,,,,0.000000,4.000000,4.000000,4.000000,4.000000,4.000000,4.000000,4.000000,4.000000,4.000000,4.000000,4.000000,4.000000,4.000000,4.000000,100.000000,,,,,,,,,,,,,,,,,,,,,,,,,,,,,,,,,,,,,,,,,,,,,,,
1665770083.983331,1665770083.984005,34.000000,0.000000,4324.743652,4317.436035,4332.948730,4331.153809,4305.641113,4292.820313,4289.743652,4272.692383,4260.384766,4271.794922,4466.153809,4444.487305,4367.563965,4426.025879,0.000000,3.000000,55.000000,,,,0.000000,4.000000,4.000000,4.000000,4.000000,4.000000,4.000000,4.000000,4.000000,4.000000,4.000000,4.000000,4.000000,4.000000,4.000000,100.000000,,,,,,,,,,,,,,,,,,,,,,,,,,,,,,,,,,,,,,,,,,,,,,,
1665770083.991139,1665770083.991813,35.000000,0.000000,4330.384766,4317.692383,4344.358887,4336.794922,4307.436035,4290.384766,4291.153809,4287.179688,4273.846191,4279.487305,4476.922852,4453.589844,4377.179688,4439.230957,0.000000,3.000000,55.000000,,,,0.000000,4.000000,4.000000,4.000000,4.000000,4.000000,4.000000,4.000000,4.000000,4.000000,4.000000,4.000000,4.000000,4.000000,4.000000,100.000000,,,,,,,,,,,,,,,,,,,,,,,,,,,,,,,,,,,,,,,,,,,,,,,
1665770083.998947,1665770083.999522,36.000000,0.000000,4328.589844,4312.820313,4342.307617,4331.410156,4304.487305,4279.487305,4294.871582,4308.589844,4299.358887,4290.512695,4486.922852,4456.410156,4385.897461,4442.820313,0.000000,3.000000,55.000000,,,,0.000000,4.000000,4.000000,4.000000,4.000000,4.000000,4.000000,4.000000,4.000000,4.000000,4.000000,4.000000,4.000000,4.000000,4.000000,100.000000,,,,,,,,,,,,,,,,,,,,,,,,,,,,,,,,,,,,,,,,,,,,,,,
1665770084.006756,1665770084.007330,37.000000,0.000000,4324.358887,4312.820313,4329.615234,4325.000000,4299.743652,4283.974121,4299.743652,4326.410156,4315.000000,4298.717773,4488.974121,4450.512695,4386.922852,4436.153809,0.000000,3.000000,55.000000,,,,0.000000,4.000000,4.000000,4.000000,4.000000,4.000000,4.000000,4.000000,4.000000,4.000000,4.000000,4.000000,4.000000,4.000000,4.000000,100.000000,,,,,,,,,,,,,,,,,,,,,,,,,,,,,,,,,,,,,,,,,,,,,,,
1665770084.014564,1665770084.015039,38.000000,0.000000,4312.051270,4304.487305,4315.000000,4315.641113,4290.897461,4298.333496,4303.589844,4324.487305,4315.000000,4288.846191,4475.897461,4440.897461,4371.794922,4420.897461,0.000000,3.000000,55.000000,,,,0.000000,4.000000,4.000000,4.000000,4.000000,4.000000,4.000000,4.000000,4.000000,4.000000,4.000000,4.000000,4.000000,4.000000,4.000000,100.000000,,,,,,,,,,,,,,,,,,,,,,,,,,,,,,,,,,,,,,,,,,,,,,,
1665770084.022372,1665770084.022847,39.000000,0.000000,4295.000000,4284.743652,4298.077148,4299.743652,4281.538574,4299.358887,4305.641113,4315.641113,4313.333496,4276.410156,4453.974121,4429.871582,4355.641113,4405.512695,0.000000,3.000000,55.000000,,,,0.000000,4.000000,4.000000,4.000000,4.000000,4.000000,4.000000,4.000000,4.000000,4.000000,4.000000,4.000000,4.000000,4.000000,4.000000,100.000000,,,,,,,,,,,,,,,,,,,,,,,,,,,,,,,,,,,,,,,,,,,,,,,
1665770084.030181,1665770084.030556,40.000000,0.000000,4287.436035,4277.436035,4282.820313,4292.179688,4281.025879,4298.333496,4298.589844,4304.871582,4303.333496,4268.717773,4432.692383,4421.025879,4346.538574,4397.436035,0.000000,3.000000,55.000000,,,,0.000000,4.000000,4.000000,4.000000,4.000000,4.000000,4.000000,4.000000,4.000000,4.000000,4.000000,4.000000,4.000000,4.000000,4.000000,100.000000,,,,,,,,,,,,,,,,,,,,,,,,,,,,,,,,,,,,,,,,,,,,,,,
1665770084.037989,1665770084.038364,41.000000,0.000000,4286.410156,4279.230957,4276.922852,4293.974121,4289.358887,4307.820313,4292.051270,4285.769043,4280.897461,4252.436035,4424.230957,4419.487305,4340.256348,4393.205078,0.000000,3.000000,55.000000,,,,0.000000,4.000000,4.000000,4.000000,4.000000,4.000000,4.000000,4.000000,4.000000,4.000000,4.000000,4.000000,4.000000,4.000000,4.000000,100.000000,,,,,,,,,,,,,,,,,,,,,,,,,,,,,,,,,,,,,,,,,,,,,,,
1665770084.045798,1665770084.046073,42.000000,0.000000,4286.410156,4279.358887,4277.179688,4296.282227,4294.743652,4309.871582,4296.153809,4276.025879,4267.307617,4244.102539,4432.692383,4422.307617,4341.666504,4391.025879,0.000000,3.000000,55.000000,,,,0.000000,4.000000,4.000000,4.000000,4.000000,4.000000,4.000000,4.000000,4.000000,4.000000,4.000000,4.000000,4.000000,4.000000,4.000000,100.000000,,,,,,,,,,,,,,,,,,,,,,,,,,,,,,,,,,,,,,,,,,,,,,,
1665770084.053606,1665770084.053881,43.000000,0.000000,4292.436035,4284.871582,4282.179688,4302.307617,4294.615234,4305.128418,4296.025879,4278.717773,4264.102539,4254.358887,4440.769043,4425.769043,4347.948730,4393.205078,0.000000,3.000000,55.000000,,,,0.000000,4.000000,4.000000,4.000000,4.000000,4.000000,4.000000,4.000000,4.000000,4.000000,4.000000,4.000000,4.000000,4.000000,4.000000,100.000000,,,,,,,,,,,,,,,,,,,,,,,,,,,,,,,,,,,,,,,,,,,,,,,
1665770084.061414,1665770084.061590,44.000000,0.000000,4302.563965,4298.589844,4298.205078,4312.563965,4301.282227,4308.077148,4292.307617,4279.102539,4260.256348,4262.436035,4445.000000,4433.974121,4353.974121,4403.461426,0.000000,3.000000,55.000000,,,,0.000000,4.000000,4.000000,4.000000,4.000000,4.000000,4.000000,4.000000,4.000000,4.000000,4.000000,4.000000,4.000000,4.000000,4.000000,100.000000,,,,,,,,,,,,,,,,,,,,,,,,,,,,,,,,,,,,,,,,,,,,,,,
1665770084.069223,1665770084.069498,45.000000,0.000000,4313.077148,4311.538574,4317.948730,4324.102539,4310.512695,4306.794922,4302.051270,4287.307617,4267.051270,4270.000000,4461.153809,4448.205078,4364.615234,4419.358887,0.000000,3.000000,55.000000,,,,0.000000,4.000000,4.000000,4.000000,4.000000,4.000000,4.000000,4.000000,4.000000,4.000000,4.000000,4.000000,4.000000,4.000000,4.000000,100.000000,,,,,,,,,,,,,,,,,,,,,,,,,,,,,,,,,,,,,,,,,,,,,,,
1665770084.077031,1665770084.077307,46.000000,0.000000,4323.589844,4315.384766,4331.282227,4337.051270,4311.538574,4297.436035,4312.692383,4306.153809,4284.358887,4285.641113,4484.615234,4457.179688,4379.102539,4430.641113,0.000000,3.000000,55.000000,,,,0.000000,4.000000,4.000000,4.000000,4.000000,4.000000,4.000000,4.000000,4.000000,4.000000,4.000000,4.000000,4.000000,4.000000,4.000000,100.000000,,,,,,,,,,,,,,,,,,,,,,,,,,,,,,,,,,,,,,,,,,,,,,,
1665770084.084839,1665770084.085215,47.000000,0.000000,4333.077148,4319.358887,4338.846191,4345.897461,4311.538574,4292.948730,4312.436035,4314.871582,4296.794922,4296.282227,4496.025879,4455.128418,4388.461426,4436.538574,0.000000,3.000000,55.000000,,,,0.000000,4.000000,4.000000,4.000000,4.000000,4.000000,4.000000,4.000000,4.000000,4.000000,4.000000,4.000000,4.000000,4.000000,4.000000,100.000000,,,,,,,,,,,,,,,,,,,,,,,,,,,,,,,,,,,,,,,,,,,,,,,
1665770084.092648,1665770084.093023,48.000000,0.000000,4328.717773,4318.461426,4337.692383,4339.358887,4312.179688,4295.256348,4308.974121,4316.666504,4306.282227,4297.179688,4491.153809,4453.077148,4383.717773,4436.410156,0.000000,3.000000,55.000000,,,,0.000000,4.000000,4.000000,4.000000,4.000000,4.000000,4.000000,4.000000,4.000000,4.000000,4.000000,4.000000,4.000000,4.000000,4.000000,100.000000,,,,,,,,,,,,,,,,,,,,,,,,,,,,,,,,,,,,,,,,,,,,,,,
1665770084.100456,1665770084.100932,49.000000,0.000000,4310.641113,4305.641113,4319.871582,4317.820313,4305.384766,4295.641113,4302.948730,4319.871582,4314.615234,4297.692383,4479.487305,4450.128418,4368.461426,4424.487305,0.000000,3.000000,55.000000,,,,0.000000,4.000000,4.000000,4.000000,4.000000,4.000000,4.000000,4.000000,4.000000,4.000000,4.000000,4.000000,4.000000,4.000000,4.000000,100.000000,,,,,,,,,,,,,,,,,,,,,,,,,,,,,,,,,,,,,,,,,,,,,,,
1665770084.108265,1665770084.108740,50.000000,0.000000,4292.179688,4292.820313,4294.871582,4298.461426,4293.974121,4292.436035,4294.743652,4317.948730,4314.230957,4296.282227,4463.717773,4438.589844,4358.974121,4405.897461,0.000000,3.000000,55.000000,,,,0.000000,4.000000,4.000000,4.000000,4.000000,4.000000,4.000000,4.000000,4.000000,4.000000,4.000000,4.000000,4.000000,4.000000,4.000000,100.000000,,,,,,,,,,,,,,,,,,,,,,,,,,,,,,,,,,,,,,,,,,,,,,,
1665770084.116073,1665770084.116648,51.000000,0.000000,4280.897461,4283.461426,4281.153809,4292.948730,4290.000000,4291.666504,4293.205078,4311.666504,4306.666504,4284.615234,4447.948730,4427.948730,4352.563965,4395.512695,0.000000,3.000000,55.000000,,,,0.000000,4.000000,4.000000,4.000000,4.000000,4.000000,4.000000,4.000000,4.000000,4.000000,4.000000,4.000000,4.000000,4.000000,4.000000,100.000000,,,,,,,,,,,,,,,,,,,,,,,,,,,,,,,,,,,,,,,,,,,,,,,
1665770084.123881,1665770084.124457,52.000000,0.000000,4280.512695,4280.128418,4278.461426,4292.563965,4291.794922,4297.307617,4296.922852,4304.743652,4298.717773,4268.205078,4440.897461,4426.282227,4342.820313,4396.794922,0.000000,3.000000,55.000000,,,,0.000000,4.000000,4.000000,4.000000,4.000000,4.000000,4.000000,4.000000,4.000000,4.000000,4.000000,4.000000,4.000000,4.000000,4.000000,100.000000,,,,,,,,,,,,,,,,,,,,,,,,,,,,,,,,,,,,,,,,,,,,,,,
1665770084.131690,1665770084.132165,53.000000,0.000000,4286.410156,4286.282227,4279.743652,4291.410156,4291.666504,4303.846191,4296.922852,4296.922852,4286.922852,4258.077148,4443.077148,4425.641113,4339.743652,4397.820313,0.000000,3.000000,55.000000,,,,0.000000,4.000000,4.000000,4.000000,4.000000,4.000000,4.000000,4.000000,4.000000,4.000000,4.000000,4.000000,4.000000,4.000000,4.000000,100.000000,,,,,,,,,,,,,,,,,,,,,,,,,,,,,,,,,,,,,,,,,,,,,,,
1665770084.139498,1665770084.139974,54.000000,0.000000,4291.410156,4293.589844,4287.436035,4299.102539,4293.333496,4306.666504,4297.051270,4292.436035,4278.333496,4257.820313,4442.563965,4428.461426,4345.256348,4400.769043,0.000000,3.000000,55.000000,,,,0.000000,4.000000,4.000000,4.000000,4.000000,4.000000,4.000000,4.000000,4.000000,4.000000,4.000000,4.000000,4.000000,4.000000,4.000000,100.000000,,,,,,,,,,,,,,,,,,,,,,,,,,,,,,,,,,,,,,,,,,,,,,,
1665770084.147307,1665770084.147682,55.000000,0.000000,4293.589844,4293.461426,4296.666504,4308.077148,4298.077148,4308.333496,4298.333496,4292.179688,4278.077148,4264.358887,4441.538574,4432.948730,4350.769043,4406.410156,0.000000,3.000000,55.000000,,,,0.000000,4.000000,4.000000,4.000000,4.000000,4.000000,4.000000,4.000000,4.000000,4.000000,4.000000,4.000000,4.000000,4.000000,4.000000,100.000000,,,,,,,,,,,,,,,,,,,,,,,,,,,,,,,,,,,,,,,,,,,,,,,
1665770084.155115,1665770084.155491,56.000000,0.000000,4303.077148,4302.307617,4306.922852,4312.307617,4304.615234,4304.743652,4301.538574,4292.307617,4281.922852,4274.615234,4451.538574,4434.487305,4359.358887,4414.615234,0.000000,3.000000,55.000000,,,,0.000000,4.000000,4.000000,4.000000,4.000000,4.000000,4.000000,4.000000,4.000000,4.000000,4.000000,4.000000,4.000000,4.000000,4.000000,100.000000,,,,,,,,,,,,,,,,,,,,,,,,,,,,,,,,,,,,,,,,,,,,,,,
1665770084.162923,1665770084.163199,57.000000,0.000000,4323.333496,4316.794922,4326.538574,4323.333496,4312.692383,4299.487305,4310.256348,4297.692383,4289.102539,4284.230957,4466.025879,4443.846191,4374.743652,4428.717773,0.000000,3.000000,55.000000,1,1,1,0.000000,4.000000,4.000000,4.000000,4.000000,4.000000,4.000000,4.000000,4.000000,4.000000,4.000000,4.000000,4.000000,4.000000,4.000000,100.000000,,,,,,,,,,,,,,,,,,,,,,,,,,,,,,,,,,,,,,,,,,,,,,,
1665770084.170732,1665770084.171008,58.000000,0.000000,4331.153809,4314.871582,4339.743652,4332.307617,4312.307617,4299.615234,4315.769043,4303.974121,4296.153809,4289.615234,4475.769043,4452.692383,4383.333496,4438.717773,0.000000,3.000000,55.000000,,,,0.000000,4.000000,4.000000,4.000000,4.000000,4.000000,4.000000,4.000000,4.000000,4.000000,4.000000,4.000000,4.000000,4.000000,4.000000,100.000000,,,,,,,,,,,,,,,,,,,,,,,,,,,,,,,,,,,,,,,,,,,,,,,
1665770084.178540,1665770084.178716,59.000000,0.000000,4321.922852,4307.820313,4328.974121,4323.461426,4301.282227,4299.230957,4308.333496,4305.897461,4304.102539,4295.641113,4477.820313,4446.282227,4379.102539,4434.871582,0.000000,3.000000,55.000000,,,,0.000000,4.000000,4.000000,4.000000,4.000000,4.000000,4.000000,4.000000,4.000000,4.000000,4.000000,4.000000,4.000000,4.000000,4.000000,100.000000,,,,,,,,,,,,,,,,,,,,,,,,,,,,,,,,,,,,,,,,,,,,,,,
1665770084.186349,1665770084.186525,60.000000,0.000000,4308.717773,4297.948730,4308.205078,4310.641113,4293.589844,4294.871582,4296.282227,4305.897461,4312.436035,4298.333496,4465.384766,4438.333496,4367.436035,4419.871582,0.000000,3.000000,55.000000,,,,0.000000,4.000000,4.000000,4.000000,4.000000,4.000000,4.000000,4.000000,4.000000,4.000000,4.000000,4.000000,4.000000,4.000000,4.000000,100.000000,,,,,,,,,,,,,,,,,,,,,,,,,,,,,,,,,,,,,,,,,,,,,,,
1665770084.194157,1665770084.194233,61.000000,0.000000,4299.102539,4284.743652,4298.717773,4304.487305,4292.692383,4296.025879,4292.948730,4301.794922,4309.871582,4287.820313,4451.922852,4437.563965,4361.282227,4411.282227,0.000000,3.000000,55.000000,,,,0.000000,4.000000,4.000000,4.000000,4.000000,4.000000,4.000000,4.000000,4.000000,4.000000,4.000000,4.000000,4.000000,4.000000,4.000000,100.000000,,,,,,,,,,,,,,,,,,,,,,,,,,,,,,,,,,,,,,,,,,,,,,,
1665770084.201965,1665770084.202042,62.000000,0.000000,4292.820313,4278.846191,4296.410156,4297.563965,4285.897461,4297.307617,4294.615234,4298.333496,4302.948730,4280.641113,4456.153809,4434.487305,4363.333496,4411.025879,0.000000,3.000000,55.000000,,,,0.000000,4.000000,4.000000,4.000000,4.000000,4.000000,4.000000,4.000000,4.000000,4.000000,4.000000,4.000000,4.000000,4.000000,4.000000,100.000000,,,,,,,,,,,,,,,,,,,,,,,,,,,,,,,,,,,,,,,,,,,,,,,
1665770084.209774,1665770084.209750,63.000000,0.000000,4290.384766,4273.461426,4288.461426,4292.436035,4276.794922,4294.871582,4292.307617,4301.666504,4305.000000,4286.153809,4461.153809,4435.128418,4366.153809,4409.871582,0.000000,3.000000,55.000000,,,,0.000000,4.000000,4.000000,4.000000,4.000000,4.000000,4.000000,4.000000,4.000000,4.000000,4.000000,4.000000,4.000000,4.000000,4.000000,100.000000,,,,,,,,,,,,,,,,,,,,,,,,,,,,,,,,,,,,,,,,,,,,,,,
1665770084.217582,1665770084.217559,64.000000,0.000000,4287.307617,4264.871582,4281.153809,4293.461426,4280.897461,4301.794922,4294.615234,4308.974121,4305.256348,4286.922852,4456.025879,4438.846191,4366.153809,4409.871582,2459.000000,3.000000,55.000000,,,,0.000000,4.000000,4.000000,4.000000,4.000000,4.000000,4.000000,4.000000,4.000000,4.000000,4.000000,4.000000,4.000000,4.000000,4.000000,100.000000,,,,,,,,,,,,,,,,,,,,,,,,,,,,,,,,,,,,,,,,,,,,,,,
1665770084.225391,1665770084.225267,65.000000,0.000000,4284.487305,4262.692383,4284.615234,4294.743652,4290.512695,4313.717773,4306.153809,4315.897461,4300.897461,4282.051270,4461.794922,4439.871582,4368.205078,4417.179688,2239.000000,3.000000,55.000000,,,,0.000000,4.000000,4.000000,4.000000,4.000000,4.000000,4.000000,4.000000,4.000000,4.000000,4.000000,4.000000,4.000000,4.000000,4.000000,100.000000,,,,,,,,,,,,,,,,,,,,,,,,,,,,,,,,,,,,,,,,,,,,,,,
1665770084.233199,1665770084.233076,66.000000,0.000000,4287.436035,4264.487305,4291.666504,4293.589844,4296.282227,4315.641113,4313.205078,4316.153809,4300.128418,4283.717773,4476.410156,4443.717773,4376.666504,4422.307617,2371.000000,3.000000,55.000000,,,,0.000000,4.000000,4.000000,4.000000,4.000000,4.000000,4.000000,4.000000,4.000000,4.000000,4.000000,4.000000,4.000000,4.000000,4.000000,100.000000,,,,,,,,,,,,,,,,,,,,,,,,,,,,,,,,,,,,,,,,,,,,,,,
1665770084.241007,1665770084.240784,67.000000,0.000000,4291.282227,4267.563965,4296.025879,4295.384766,4300.769043,4311.153809,4310.256348,4310.512695,4295.512695,4282.436035,4475.897461,4451.282227,4383.077148,4419.102539,2358.000000,3.000000,55.000000,,,,0.000000,4.000000,4.000000,4.000000,4.000000,4.000000,4.000000,4.000000,4.000000,4.000000,4.000000,4.000000,4.000000,4.000000,4.000000,100.000000,,,,,,,,,,,,,,,,,,,,,,,,,,,,,,,,,,,,,,,,,,,,,,,
1665770084.248816,1665770084.248693,68.000000,0.000000,4300.000000,4277.948730,4310.256348,4305.384766,4304.615234,4312.051270,4314.358887,4313.974121,4293.461426,4279.230957,4477.307617,4459.871582,4383.974121,4426.538574,2379.000000,3.000000,55.000000,,,,0.000000,4.000000,4.000000,4.000000,4.000000,4.000000,4.000000,4.000000,4.000000,4.000000,4.000000,4.000000,4.000000,4.000000,4.000000,100.000000,,,,,,,,,,,,,,,,,,,,,,,,,,,,,,,,,,,,,,,,,,,,,,,
1665770084.256624,1665770084.256501,69.000000,0.000000,4310.897461,4285.897461,4328.461426,4315.384766,4305.512695,4313.077148,4323.461426,4322.563965,4301.794922,4288.077148,4487.179688,4463.205078,4382.307617,4438.846191,2388.000000,3.000000,55.000000,,,,0.000000,4.000000,4.000000,4.000000,4.000000,4.000000,4.000000,4.000000,4.000000,4.000000,4.000000,4.000000,4.000000,4.000000,4.000000,100.000000,,,,,,,,,,,,,,,,,,,,,,,,,,,,,,,,,,,,,,,,,,,,,,,
1665770084.264433,1665770084.264410,70.000000,0.000000,4309.871582,4280.769043,4326.922852,4312.692383,4302.179688,4305.512695,4320.641113,4318.846191,4307.179688,4292.051270,4484.358887,4457.436035,4381.666504,4437.307617,2231.000000,3.000000,55.000000,,,,0.000000,4.000000,4.000000,4.000000,4.000000,4.000000,4.000000,4.000000,4.000000,4.000000,4.000000,4.000000,4.000000,4.000000,4.000000,100.000000,,,,,,,,,,,,,,,,,,,,,,,,,,,,,,,,,,,,,,,,,,,,,,,
1665770084.272241,1665770084.272218,71.000000,0.000000,4302.307617,4277.179688,4316.538574,4303.461426,4300.256348,4297.692383,4308.461426,4310.384766,4307.692383,4284.487305,4477.307617,4451.538574,4383.717773,4434.615234,2389.000000,3.000000,55.000000,,,,0.000000,4.000000,4.000000,4.000000,4.000000,4.000000,4.000000,4.000000,4.000000,4.000000,4.000000,4.000000,4.000000,4.000000,4.000000,100.000000,,,,,,,,,,,,,,,,,,,,,,,,,,,,,,,,,,,,,,,,,,,,,,,
1665770084.280049,1665770084.280126,72.000000,0.000000,4297.436035,4278.077148,4309.487305,4300.256348,4292.948730,4293.077148,4297.179688,4304.743652,4304.871582,4279.743652,4471.282227,4445.384766,4381.153809,4431.025879,2314.000000,3.000000,55.000000,,,,0.000000,4.000000,4.000000,4.000000,4.000000,4.000000,4.000000,4.000000,4.000000,4.000000,4.000000,4.000000,4.000000,4.000000,4.000000,100.000000,,,,,,,,,,,,,,,,,,,,,,,,,,,,,,,,,,,,,,,,,,,,,,,
1665770084.287858,1665770084.287935,73.000000,0.000000,4296.282227,4275.769043,4303.077148,4297.307617,4284.102539,4292.307617,4292.179688,4302.179688,4298.589844,4278.589844,4459.871582,4438.077148,4375.897461,4422.436035,2379.000000,3.000000,55.000000,,,,0.000000,4.000000,4.000000,4.000000,4.000000,4.000000,4.000000,4.000000,4.000000,4.000000,4.000000,4.000000,4.000000,4.000000,4.000000,100.000000,,,,,,,,,,,,,,,,,,,,,,,,,,,,,,,,,,,,,,,,,,,,,,,
1665770084.295666,1665770084.295843,74.000000,0.000000,4293.461426,4270.769043,4296.153809,4287.307617,4285.897461,4296.538574,4295.384766,4305.897461,4299.230957,4279.871582,4457.436035,4436.282227,4372.179688,4420.384766,2705.000000,3.000000,55.000000,,,,0.000000,4.000000,4.000000,4.000000,4.000000,4.000000,4.000000,4.000000,4.000000,4.000000,4.000000,4.000000,4.000000,4.000000,4.000000,100.000000,,,,,,,,,,,,,,,,,,,,,,,,,,,,,,,,,,,,,,,,,,,,,,,
1665770084.303475,1665770084.303652,75.000000,0.000000,4282.436035,4265.384766,4287.051270,4277.179688,4285.897461,4298.589844,4294.743652,4304.743652,4301.922852,4279.615234,4463.077148,4434.743652,4366.666504,4416.410156,2411.000000,3.000000,55.000000,,,,0.000000,4.000000,4.000000,4.000000,4.000000,4.000000,4.000000,4.000000,4.000000,4.000000,4.000000,4.000000,4.000000,4.000000,4.000000,100.000000,,,,,,,,,,,,,,,,,,,,,,,,,,,,,,,,,,,,,,,,,,,,,,,
1665770084.311283,1665770084.311560,76.000000,0.000000,4273.205078,4261.025879,4278.846191,4275.897461,4282.692383,4297.051270,4291.153809,4294.358887,4297.692383,4276.282227,4456.410156,4430.000000,4365.128418,4405.897461,3064.000000,3.000000,55.000000,,,,0.000000,4.000000,4.000000,4.000000,4.000000,4.000000,4.000000,4.000000,4.000000,4.000000,4.000000,4.000000,4.000000,4.000000,4.000000,100.000000,,,,,,,,,,,,,,,,,,,,,,,,,,,,,,,,,,,,,,,,,,,,,,,
1665770084.319091,1665770084.319368,77.000000,0.000000,4283.461426,4264.358887,4284.871582,4286.025879,4290.000000,4302.948730,4299.102539,4296.153809,4295.897461,4278.205078,4456.025879,4434.230957,4372.563965,4410.897461,1352.000000,3.000000,55.000000,,,,0.000000,4.000000,4.000000,4.000000,4.000000,4.000000,4.000000,4.000000,4.000000,4.000000,4.000000,4.000000,4.000000,4.000000,4.000000,100.000000,,,,,,,,,,,,,,,,,,,,,,,,,,,,,,,,,,,,,,,,,,,,,,,
1665770084.326900,1665770084.327077,78.000000,0.000000,4300.897461,4272.948730,4307.563965,4295.769043,4297.820313,4308.717773,4309.102539,4308.846191,4300.128418,4284.102539,4474.871582,4441.025879,4376.025879,4423.589844,2705.000000,3.000000,55.000000,,,,0.000000,4.000000,4.000000,4.000000,4.000000,4.000000,4.000000,4.000000,4.000000,4.000000,4.000000,4.000000,4.000000,4.000000,4.000000,100.000000,,,,,,,,,,,,,,,,,,,,,,,,,,,,,,,,,,,,,,,,,,,,,,,
1665770084.334708,1665770084.334885,79.000000,0.000000,4306.794922,4279.743652,4321.922852,4299.102539,4295.256348,4304.358887,4308.974121,4311.538574,4298.333496,4282.436035,4475.897461,4439.743652,4373.077148,4423.205078,2411.000000,3.000000,55.000000,,,,0.000000,4.000000,4.000000,4.000000,4.000000,4.000000,4.000000,4.000000,4.000000,4.000000,4.000000,4.000000,4.000000,4.000000,4.000000,100.000000,,,,,,,,,,,,,,,,,,,,,,,,,,,,,,,,,,,,,,,,,,,,,,,
1665770084.342516,1665770084.342594,80.000000,0.000000,4304.358887,4279.358887,4320.512695,4299.358887,4292.436035,4305.000000,4312.179688,4306.538574,4295.769043,4281.410156,4461.538574,4437.820313,4380.897461,4423.589844,3064.000000,3.000000,55.000000,,,,0.000000,4.000000,4.000000,4.000000,4.000000,4.000000,4.000000,4.000000,4.000000,4.000000,4.000000,4.000000,4.000000,4.000000,4.000000,100.000000,,,,,,,,,,,,,,,,,,,,,,,,,,,,,,,,,,,,,,,,,,,,,,,
1665770084.350325,1665770084.350402,81.000000,0.000000,4298.717773,4270.897461,4311.282227,4292.563965,4288.461426,4305.641113,4311.025879,4301.538574,4295.256348,4283.846191,4458.974121,4435.641113,4387.179688,4424.487305,1352.000000,3.000000,55.000000,,,,0.000000,4.000000,4.000000,4.000000,4.000000,4.000000,4.000000,4.000000,4.000000,4.000000,4.000000,4.000000,4.000000,4.000000,4.000000,100.000000,,,,,,,,,,,,,,,,,,,,,,,,,,,,,,,,,,,,,,,,,,,,,,,
1665770084.358133,1665770084.358111,82.000000,0.000000,4293.333496,4263.205078,4299.358887,4281.153809,4274.871582,4293.461426,4297.948730,4295.256348,4291.410156,4278.461426,4460.000000,4434.102539,4375.000000,4420.897461,2705.000000,3.000000,55.000000,,,,0.000000,4.000000,4.000000,4.000000,4.000000,4.000000,4.000000,4.000000,4.000000,4.000000,4.000000,4.000000,4.000000,4.000000,4.000000,100.000000,,,,,,,,,,,,,,,,,,,,,,,,,,,,,,,,,,,,,,,,,,,,,,,
1665770084.365942,1665770084.365919,83.000000,0.000000,4291.666504,4260.641113,4291.794922,4275.641113,4265.769043,4285.641113,4289.615234,4291.410156,4290.256348,4272.179688,4455.128418,4435.641113,4371.282227,4423.205078,2411.000000,3.000000,55.000000,,,,0.000000,4.000000,4.000000,4.000000,4.000000,4.000000,4.000000,4.000000,4.000000,4.000000,4.000000,4.000000,4.000000,4.000000,4.000000,100.000000,,,,,,,,,,,,,,,,,,,,,,,,,,,,,,,,,,,,,,,,,,,,,,,
1665770084.373750,1665770084.373628,84.000000,0.000000,4294.487305,4261.538574,4294.358887,4278.461426,4270.256348,4290.512695,4287.692383,4293.589844,4294.102539,4277.307617,4462.692383,4438.589844,4386.410156,4427.051270,3064.000000,3.000000,55.000000,,,,0.000000,4.000000,4.000000,4.000000,4.000000,4.000000,4.000000,4.000000,4.000000,4.000000,4.000000,4.000000,4.000000,4.000000,4.000000,100.000000,,,,,,,,,,,,,,,,,,,,,,,,,,,,,,,,,,,,,,,,,,,,,,,
1665770084.381558,1665770084.381436,85.000000,0.000000,4295.512695,4267.307617,4296.538574,4283.461426,4277.563965,4291.794922,4283.333496,4294.871582,4294.487305,4283.461426,4473.461426,4438.333496,4390.256348,4422.307617,1352.000000,3.000000,55.000000,,,,0.000000,4.000000,4.000000,4.000000,4.000000,4.000000,4.000000,4.000000,4.000000,4.000000,4.000000,4.000000,4.000000,4.000000,4.000000,100.000000,,,,,,,,,,,,,,,,,,,,,,,,,,,,,,,,,,,,,,,,,,,,,,,
1665770084.389367,1665770084.389145,86.000000,0.000000,4287.563965,4273.333496,4284.615234,4288.077148,4280.769043,4290.000000,4283.077148,4294.358887,4293.333496,4281.410156,4464.102539,4436.153809,4378.077148,4417.436035,2705.000000,3.000000,55.000000,,,,0.000000,4.000000,4.000000,4.000000,4.000000,4.000000,4.000000,4.000000,4.000000,4.000000,4.000000,4.000000,4.000000,4.000000,4.000000,100.000000,,,,,,,,,,,,,,,,,,,,,,,,,,,,,,,,,,,,,,,,,,,,,,,
1665770084.397175,1665770084.397053,87.000000,0.000000,4279.230957,4274.615234,4280.384766,4288.974121,4286.922852,4294.615234,4292.563965,4296.410156,4292.820313,4278.846191,4457.948730,4437.563965,4378.077148,4417.820313,2411.000000,3.000000,55.000000,,,,0.000000,4.000000,4.000000,4.000000,4.000000,4.000000,4.000000,4.000000,4.000000,4.000000,4.000000,4.000000,4.000000,4.000000,4.000000,100.000000,,,,,,,,,,,,,,,,,,,,,,,,,,,,,,,,,,,,,,,,,,,,,,,
1665770084.404983,1665770084.404862,88.000000,0.000000,4282.436035,4275.000000,4291.666504,4292.692383,4292.436035,4298.077148,4296.666504,4296.282227,4286.922852,4279.230957,4469.487305,4440.384766,4385.000000,4418.077148,3064.000000,3.000000,55.000000,,,,0.000000,4.000000,4.000000,4.000000,4.000000,4.000000,4.000000,4.000000,4.000000,4.000000,4.000000,4.000000,4.000000,4.000000,4.000000,100.000000,,,,,,,,,,,,,,,,,,,,,,,,,,,,,,,,,,,,,,,,,,,,,,,
1665770084.412792,1665770084.412770,89.000000,0.000000,4292.436035,4279.358887,4300.897461,4301.025879,4292.436035,4299.871582,4296.922852,4300.512695,4284.871582,4278.205078,4477.692383,4444.102539,4380.256348,4424.871582,1352.000000,3.000000,55.000000,,,,0.000000,4.000000,4.000000,4.000000,4.000000,4.000000,4.000000,4.000000,4.000000,4.000000,4.000000,4.000000,4.000000,4.000000,4.000000,100.000000,,,,,,,,,,,,,,,,,,,,,,,,,,,,,,,,,,,,,,,,,,,,,,,
1665770084.420600,1665770084.420579,90.000000,0.000000,4293.205078,4282.051270,4305.512695,4302.563965,4295.256348,4304.358887,4304.358887,4312.307617,4295.384766,4278.077148,4476.666504,4446.282227,4378.717773,4432.051270,2705.000000,3.000000,55.000000,,,,0.000000,4.000000,4.000000,4.000000,4.000000,4.000000,4.000000,4.000000,4.000000,4.000000,4.000000,4.000000,4.000000,4.000000,4.000000,100.000000,,,,,,,,,,,,,,,,,,,,,,,,,,,,,,,,,,,,,,,,,,,,,,,
1665770084.428409,1665770084.428487,91.000000,0.000000,4284.487305,4277.948730,4306.410156,4294.871582,4295.384766,4303.077148,4308.589844,4319.487305,4303.333496,4283.974121,4476.794922,4448.333496,4384.871582,4428.589844,2411.000000,3.000000,55.000000,,,,0.000000,4.000000,4.000000,4.000000,4.000000,4.000000,4.000000,4.000000,4.000000,4.000000,4.000000,4.000000,4.000000,4.000000,4.000000,100.000000,,,,,,,,,,,,,,,,,,,,,,,,,,,,,,,,,,,,,,,,,,,,,,,
1665770084.436217,1665770084.436295,92.000000,0.000000,4279.358887,4266.538574,4298.974121,4283.589844,4282.307617,4294.871582,4301.410156,4314.230957,4303.333496,4291.538574,4476.666504,4447.692383,4392.051270,4423.333496,3064.000000,3.000000,55.000000,,,,0.000000,4.000000,4.000000,4.000000,4.000000,4.000000,4.000000,4.000000,4.000000,4.000000,4.000000,4.000000,4.000000,4.000000,4.000000,100.000000,,,,,,,,,,,,,,,,,,,,,,,,,,,,,,,,,,,,,,,,,,,,,,,
1665770084.444025,1665770084.444204,93.000000,0.000000,4284.871582,4263.333496,4295.512695,4280.000000,4275.256348,4291.922852,4293.077148,4303.333496,4306.410156,4293.205078,4476.153809,4443.717773,4395.897461,4427.948730,1352.000000,3.000000,55.000000,,,,0.000000,4.000000,4.000000,4.000000,4.000000,4.000000,4.000000,4.000000,4.000000,4.000000,4.000000,4.000000,4.000000,4.000000,4.000000,100.000000,1.000000,91.666664,4.000000,4.000000,3.000000,4.000000,4.000000,4.000000,4.000000,4.000000,4.000000,4.000000,4.000000,4.000000,4.000000,4.000000,1.000000,0.120328,-1.196629,-1.308752,0.652719,1.000000,0.000000,2.889843,2.889843,12.163130,0.299497,1.000000,0.575919,129.034592,-88.423126,299.057983,1.000000,0.697059,0.273852,0.078247,0.268688,1.000000,0.557953,8.739324,-4.652728,19.221792,1.000000,0.294334,0.294334,0.000000,1.000000
1665770084.451834,1665770084.452012,94.000000,0.000000,4296.025879,4274.871582,4306.153809,4287.948730,4280.512695,4294.102539,4293.461426,4296.025879,4305.641113,4288.461426,4475.641113,4439.230957,4393.846191,4433.205078,2705.000000,3.000000,55.000000,,,,0.000000,4.000000,4.000000,4.000000,4.000000,4.000000,4.000000,4.000000,4.000000,4.000000,4.000000,4.000000,4.000000,4.000000,4.000000,100.000000,,,,,,,,,,,,,,,,,,,,,,,,,,,,,,,,,,,,,,,,,,,,,,,
1665770084.459642,1665770084.459920,95.000000,0.000000,4303.205078,4283.461426,4311.410156,4291.794922,4283.717773,4293.205078,4291.025879,4291.025879,4296.666504,4282.563965,4474.102539,4436.025879,4392.436035,4434.230957,2411.000000,3.000000,55.000000,,,,0.000000,4.000000,4.000000,4.000000,4.000000,4.000000,4.000000,4.000000,4.000000,4.000000,4.000000,4.000000,4.000000,4.000000,4.000000,100.000000,,,,,,,,,,,,,,,,,,,,,,,,,,,,,,,,,,,,,,,,,,,,,,,
1665770084.467451,1665770084.467729,96.000000,0.000000,4305.256348,4283.589844,4305.512695,4291.410156,4280.256348,4292.051270,4286.025879,4287.051270,4295.256348,4280.384766,4473.077148,4433.974121,4398.205078,4432.307617,3064.000000,3.000000,55.000000,,,,0.000000,4.000000,4.000000,4.000000,4.000000,4.000000,4.000000,4.000000,4.000000,4.000000,4.000000,4.000000,4.000000,4.000000,4.000000,100.000000,,,,,,,,,,,,,,,,,,,,,,,,,,,,,,,,,,,,,,,,,,,,,,,
1665770084.475259,1665770084.475637,97.000000,0.000000,4299.871582,4282.692383,4298.077148,4294.487305,4279.615234,4293.717773,4289.102539,4288.461426,4294.743652,4279.358887,4473.461426,4434.871582,4398.717773,4429.102539,1352.000000,3.000000,55.000000,,,,0.000000,4.000000,4.000000,4.000000,4.000000,4.000000,4.000000,4.000000,4.000000,4.000000,4.000000,4.000000,4.000000,4.000000,4.000000,100.000000,,,,,,,,,,,,,,,,,,,,,,,,,,,,,,,,,,,,,,,,,,,,,,,
1665770084.483067,1665770084.483446,98.000000,0.000000,4293.974121,4281.538574,4295.769043,4294.487305,4287.948730,4294.615234,4295.256348,4292.179688,4282.436035,4276.025879,4472.051270,4435.000000,4389.487305,4428.205078,2705.000000,3.000000,55.000000,,,,0.000000,4.000000,4.000000,4.000000,4.000000,4.000000,4.000000,4.000000,4.000000,4.000000,4.000000,4.000000,4.000000,4.000000,4.000000,100.000000,,,,,,,,,,,,,,,,,,,,,,,,,,,,,,,,,,,,,,,,,,,,,,,
1665770084.490876,1665770084.491354,99.000000,0.000000,4299.230957,4280.897461,4300.512695,4292.436035,4295.641113,4295.897461,4295.897461,4296.025879,4282.307617,4277.051270,4473.461426,4435.512695,4389.615234,4434.102539,2411.000000,3.000000,55.000000,,,,0.000000,4.000000,4.000000,4.000000,4.000000,4.000000,4.000000,4.000000,4.000000,4.000000,4.000000,4.000000,4.000000,4.000000,4.000000,100.000000,,,,,,,,,,,,,,,,,,,,,,,,,,,,,,,,,,,,,,,,,,,,,,,
1665770084.498684,1665770084.499162,100.000000,0.000000,4310.128418,4280.256348,4309.615234,4295.897461,4295.384766,4298.461426,4294.615234,4304.487305,4299.358887,4288.461426,4485.897461,4443.077148,4403.205078,4441.922852,3064.000000,3.000000,55.000000,,,,0.000000,4.000000,4.000000,4.000000,4.000000,4.000000,4.000000,4.000000,4.000000,4.000000,4.000000,4.000000,4.000000,4.000000,4.000000,100.000000,,,,,,,,,,,,,,,,,,,,,,,,,,,,,,,,,,,,,,,,,,,,,,,
1665770084.506493,1665770084.506971,101.000000,0.000000,4311.666504,4280.384766,4315.128418,4299.102539,4293.333496,4298.461426,4296.410156,4315.769043,4302.179688,4294.487305,4494.102539,4450.256348,4408.974121,4446.025879,1352.000000,3.000000,55.000000,,,,0.000000,4.000000,4.000000,4.000000,4.000000,4.000000,4.000000,4.000000,4.000000,4.000000,4.000000,4.000000,4.000000,4.000000,4.000000,100.000000,,,,,,,,,,,,,,,,,,,,,,,,,,,,,,,,,,,,,,,,,,,,,,,
1665770084.514301,1665770084.514779,102.000000,0.000000,4302.179688,4277.051270,4306.666504,4294.615234,4290.641113,4297.563965,4296.025879,4313.974121,4296.282227,4286.538574,4482.692383,4444.358887,4395.897461,4437.436035,2705.000000,3.000000,55.000000,,,,0.000000,4.000000,4.000000,4.000000,4.000000,4.000000,4.000000,4.000000,4.000000,4.000000,4.000000,4.000000,4.000000,4.000000,4.000000,100.000000,,,,,,,,,,,,,,,,,,,,,,,,,,,,,,,,,,,,,,,,,,,,,,,
1665770084.522109,1665770084.522488,103.000000,0.000000,4291.922852,4267.692383,4295.256348,4286.025879,4281.538574,4296.922852,4294.487305,4303.846191,4295.512695,4278.589844,4466.794922,4439.230957,4381.153809,4425.000000,2411.000000,3.000000,55.000000,,,,0.000000,4.000000,4.000000,4.000000,4.000000,4.000000,4.000000,4.000000,4.000000,4.000000,4.000000,4.000000,4.000000,4.000000,4.000000,100.000000,,,,,,,,,,,,,,,,,,,,,,,,,,,,,,,,,,,,,,,,,,,,,,,
1665770084.529918,1665770084.530396,104.000000,0.000000,4289.487305,4261.282227,4295.128418,4287.307617,4278.205078,4296.025879,4294.743652,4296.153809,4287.948730,4272.051270,4461.922852,4440.256348,4380.769043,4423.205078,3064.000000,3.000000,55.000000,,,,0.000000,4.000000,4.000000,4.000000,4.000000,4.000000,4.000000,4.000000,4.000000,4.000000,4.000000,4.000000,4.000000,4.000000,4.000000,100.000000,,,,,,,,,,,,,,,,,,,,,,,,,,,,,,,,,,,,,,,,,,,,,,,
1665770084.537726,1665770084.538205,105.000000,0.000000,4293.077148,4263.205078,4298.974121,4292.692383,4290.256348,4294.358887,4290.512695,4286.666504,4279.487305,4264.615234,4461.538574,4436.153809,4383.205078,4426.794922,1352.000000,3.000000,55.000000,,,,0.000000,4.000000,4.000000,4.000000,4.000000,4.000000,4.000000,4.000000,4.000000,4.000000,4.000000,4.000000,4.000000,4.000000,4.000000,100.000000,,,,,,,,,,,,,,,,,,,,,,,,,,,,,,,,,,,,,,,,,,,,,,,
1665770084.545534,1665770084.546013,106.000000,0.000000,4291.666504,4265.000000,4294.871582,4286.794922,4296.153809,4288.589844,4281.922852,4275.256348,4279.358887,4263.589844,4457.436035,4431.538574,4379.615234,4423.461426,2705.000000,3.000000,55.000000,,,,0.000000,4.000000,4.000000,4.000000,4.000000,4.000000,4.000000,4.000000,4.000000,4.000000,4.000000,4.000000,4.000000,4.000000,4.000000,100.000000,,,,,,,,,,,,,,,,,,,,,,,,,,,,,,,,,,,,,,,,,,,,,,,
1665770084.553343,1665770084.553722,107.000000,0.000000,4282.563965,4262.948730,4288.974121,4277.307617,4289.871582,4280.128418,4276.282227,4273.461426,4277.436035,4265.897461,4456.282227,4431.666504,4379.487305,4417.820313,2411.000000,3.000000,55.000000,,,,0.000000,4.000000,4.000000,4.000000,4.000000,4.000000,4.000000,4.000000,4.000000,4.000000,4.000000,4.000000,4.000000,4.000000,4.000000,100.000000,,,,,,,,,,,,,,,,,,,,,,,,,,,,,,,,,,,,,,,,,,,,,,,
1665770084.561151,1665770084.561530,108.000000,0.000000,4278.205078,4261.666504,4288.717773,4280.769043,4287.436035,4277.051270,4275.256348,4285.128418,4277.436035,4266.282227,4463.205078,4433.205078,4385.641113,4421.282227,3064.000000,3.000000,55.000000,,,,0.000000,4.000000,4.000000,4.000000,4.000000,4.000000,4.000000,4.000000,4.000000,4.000000,4.000000,4.000000,4.000000,4.000000,4.000000,100.000000,,,,,,,,,,,,,,,,,,,,,,,,,,,,,,,,,,,,,,,,,,,,,,,
1665770084.568960,1665770084.569239,109.000000,0.000000,4286.922852,4264.871582,4295.256348,4292.179688,4295.000000,4280.256348,4280.641113,4297.948730,4281.410156,4269.487305,4473.333496,4437.820313,4389.358887,4430.128418,1352.000000,3.000000,55.000000,,,,0.000000,4.000000,4.000000,4.000000,4.000000,4.000000,4.000000,4.000000,4.000000,4.000000,4.000000,4.000000,4.000000,4.000000,4.000000,100.000000,,,,,,,,,,,,,,,,,,,,,,,,,,,,,,,,,,,,,,,,,,,,,,,
1665770084.576768,1665770084.577047,110.000000,0.000000,4296.025879,4270.641113,4306.282227,4298.589844,4302.051270,4284.743652,4294.102539,4301.922852,4282.563965,4275.769043,4477.436035,4444.871582,4394.102539,4435.384766,2705.000000,3.000000,55.000000,,,,0.000000,4.000000,4.000000,4.000000,4.000000,4.000000,4.000000,4.000000,4.000000,4.000000,4.000000,4.000000,4.000000,4.000000,4.000000,100.000000,,,,,,,,,,,,,,,,,,,,,,,,,,,,,,,,,,,,,,,,,,,,,,,
1665770084.584576,1665770084.584756,111.000000,0.000000,4295.512695,4270.000000,4309.487305,4297.692383,4300.384766,4290.512695,4299.487305,4303.205078,4288.077148,4273.461426,4476.794922,4443.717773,4397.179688,4434.358887,2411.000000,3.000000,55.000000,,,,0.000000,4.000000,4.000000,4.000000,4.000000,4.000000,4.000000,4.000000,4.000000,4.000000,4.000000,4.000000,4.000000,4.000000,4.000000,100.000000,,,,,,,,,,,,,,,,,,,,,,,,,,,,,,,,,,,,,,,,,,,,,,,
1665770084.592385,1665770084.592564,112.000000,0.000000,4292.051270,4263.974121,4306.410156,4294.230957,4296.025879,4295.641113,4297.563965,4307.179688,4296.922852,4267.820313,4477.051270,4441.410156,4393.589844,4434.743652,3064.000000,3.000000,55.000000,,,,0.000000,4.000000,4.000000,4.000000,4.000000,4.000000,4.000000,4.000000,4.000000,4.000000,4.000000,4.000000,4.000000,4.000000,4.000000,100.000000,,,,,,,,,,,,,,,,,,,,,,,,,,,,,,,,,,,,,,,,,,,,,,,
1665770084.600193,1665770084.600273,113.000000,0.000000,4293.846191,4265.128418,4309.487305,4296.922852,4295.384766,4296.922852,4305.512695,4313.717773,4299.358887,4272.563965,4476.410156,4446.666504,4388.461426,4438.333496,1352.000000,3.000000,55.000000,,,,0.000000,4.000000,4.000000,4.000000,4.000000,4.000000,4.000000,4.000000,4.000000,4.000000,4.000000,4.000000,4.000000,4.000000,4.000000,100.000000,,,,,,,,,,,,,,,,,,,,,,,,,,,,,,,,,,,,,,,,,,,,,,,
1665770084.608002,1665770084.608081,114.000000,0.000000,4296.410156,4266.794922,4314.358887,4298.589844,4296.410156,4297.436035,4314.230957,4313.589844,4297.179688,4278.205078,4476.794922,4448.077148,4386.282227,4438.589844,2705.000000,3.000000,55.000000,,,,0.000000,4.000000,4.000000,4.000000,4.000000,4.000000,4.000000,4.000000,4.000000,4.000000,4.000000,4.000000,4.000000,4.000000,4.000000,100.000000,,,,,,,,,,,,,,,,,,,,,,,,,,,,,,,,,,,,,,,,,,,,,,,
1665770084.615810,1665770084.615790,115.000000,0.000000,4295.512695,4263.717773,4310.769043,4296.025879,4292.051270,4297.692383,4310.000000,4306.153809,4298.205078,4272.436035,4479.358887,4442.051270,4390.512695,4436.153809,2411.000000,3.000000,55.000000,,,,0.000000,4.000000,4.000000,4.000000,4.000000,4.000000,4.000000,4.000000,4.000000,4.000000,4.000000,4.000000,4.000000,4.000000,4.000000,100.000000,,,,,,,,,,,,,,,,,,,,,,,,,,,,,,,,,,,,,,,,,,,,,,,
1665770084.623618,1665770084.623698,116.000000,0.000000,4299.102539,4269.358887,4309.358887,4298.205078,4288.589844,4294.743652,4303.974121,4294.871582,4295.897461,4266.153809,4475.897461,4437.563965,4392.563965,4436.538574,3064.000000,3.000000,55.000000,,,,0.000000,4.000000,4.000000,4.000000,4.000000,4.000000,4.000000,4.000000,4.000000,4.000000,4.000000,4.000000,4.000000,4.000000,4.000000,100.000000,,,,,,,,,,,,,,,,,,,,,,,,,,,,,,,,,,,,,,,,,,,,,,,
1665770084.631427,1665770084.631506,117.000000,0.000000,4308.974121,4282.051270,4316.538574,4306.282227,4296.794922,4293.589844,4304.743652,4284.615234,4285.128418,4266.922852,4469.743652,4436.153809,4390.641113,4437.051270,1352.000000,3.000000,55.000000,,,,0.000000,4.000000,4.000000,4.000000,4.000000,4.000000,4.000000,4.000000,4.000000,4.000000,4.000000,4.000000,4.000000,4.000000,4.000000,100.000000,,,,,,,,,,,,,,,,,,,,,,,,,,,,,,,,,,,,,,,,,,,,,,,
1665770084.639235,1665770084.639415,118.000000,0.000000,4314.487305,4283.461426,4320.000000,4307.307617,4302.692383,4294.871582,4301.025879,4281.282227,4278.717773,4268.333496,4471.794922,4437.436035,4392.051270,4438.077148,2705.000000,3.000000,55.000000,,,,0.000000,4.000000,4.000000,4.000000,4.000000,4.000000,4.000000,4.000000,4.000000,4.000000,4.000000,4.000000,4.000000,4.000000,4.000000,100.000000,,,,,,,,,,,,,,,,,,,,,,,,,,,,,,,,,,,,,,,,,,,,,,,
1665770084.647044,1665770084.647223,119.000000,0.000000,4307.307617,4277.692383,4313.461426,4298.717773,4299.615234,4287.307617,4288.589844,4282.179688,4281.282227,4272.820313,4478.333496,4438.461426,4396.025879,4438.205078,2411.000000,3.000000,55.000000,,,,0.000000,4.000000,4.000000,4.000000,4.000000,4.000000,4.000000,4.000000,4.000000,4.000000,4.000000,4.000000,4.000000,4.000000,4.000000,100.000000,,,,,,,,,,,,,,,,,,,,,,,,,,,,,,,,,,,,,,,,,,,,,,,
1665770084.654852,1665770084.655132,120.000000,0.000000,4296.538574,4275.769043,4302.179688,4297.563965,4297.820313,4277.051270,4276.538574,4284.358887,4281.666504,4278.205078,4477.563965,4437.436035,4396.794922,4431.666504,3064.000000,3.000000,55.000000,,,,0.000000,4.000000,4.000000,4.000000,4.000000,4.000000,4.000000,4.000000,4.000000,4.000000,4.000000,4.000000,4.000000,4.000000,4.000000,100.000000,,,,,,,,,,,,,,,,,,,,,,,,,,,,,,,,,,,,,,,,,,,,,,,
1665770084.662660,1665770084.662940,121.000000,0.000000,4295.641113,4278.077148,4296.666504,4304.102539,4302.692383,4285.256348,4278.077148,4291.538574,4278.205078,4280.384766,4474.615234,4438.461426,4395.641113,4424.743652,1352.000000,3.000000,55.000000,,,,0.000000,4.000000,4.000000,4.000000,4.000000,4.000000,4.000000,4.000000,4.000000,4.000000,4.000000,4.000000,4.000000,4.000000,4.000000,100.000000,,,,,,,,,,,,,,,,,,,,,,,,,,,,,,,,,,,,,,,,,,,,,,,
1665770084.670469,1665770084.670848,122.000000,0.000000,4295.641113,4278.717773,4297.179688,4302.948730,4306.282227,4303.461426,4290.897461,4297.179688,4282.179688,4277.436035,4475.256348,4441.922852,4388.846191,4422.179688,2705.000000,3.000000,55.000000,,,,0.000000,4.000000,4.000000,4.000000,4.000000,4.000000,4.000000,4.000000,4.000000,4.000000,4.000000,4.000000,4.000000,4.000000,4.000000,100.000000,,,,,,,,,,,,,,,,,,,,,,,,,,,,,,,,,,,,,,,,,,,,,,,
1665770084.678277,1665770084.678657,123.000000,0.000000,4286.025879,4272.436035,4295.256348,4297.307617,4302.563965,4308.717773,4296.666504,4299.743652,4286.025879,4268.589844,4469.871582,4441.410156,4376.794922,4418.589844,2411.000000,3.000000,55.000000,,,,0.000000,4.000000,4.000000,4.000000,4.000000,4.000000,4.000000,4.000000,4.000000,4.000000,4.000000,4.000000,4.000000,4.000000,4.000000,100.000000,,,,,,,,,,,,,,,,,,,,,,,,,,,,,,,,,,,,,,,,,,,,,,,
1665770084.686086,1665770084.686565,124.000000,0.000000,4277.307617,4265.384766,4291.538574,4295.128418,4297.436035,4306.410156,4297.820313,4306.666504,4283.974121,4262.692383,4462.179688,4438.461426,4370.512695,4411.666504,3064.000000,3.000000,55.000000,,,,0.000000,4.000000,4.000000,4.000000,4.000000,4.000000,4.000000,4.000000,4.000000,4.000000,4.000000,4.000000,4.000000,4.000000,4.000000,100.000000,,,,,,,,,,,,,,,,,,,,,,,,,,,,,,,,,,,,,,,,,,,,,,,
1665770084.693894,1665770084.694374,125.000000,0.000000,4276.538574,4268.717773,4291.025879,4299.358887,4295.384766,4309.743652,4307.051270,4314.230957,4288.974121,4265.000000,4458.717773,4440.769043,4363.461426,4405.897461,1352.000000,3.000000,55.000000,,,,0.000000,4.000000,4.000000,4.000000,4.000000,4.000000,4.000000,4.000000,4.000000,4.000000,4.000000,4.000000,4.000000,4.000000,4.000000,100.000000,,,,,,,,,,,,,,,,,,,,,,,,,,,,,,,,,,,,,,,,,,,,,,,
1665770084.701702,1665770084.702082,126.000000,0.000000,4281.666504,4276.922852,4297.307617,4305.256348,4297.179688,4309.871582,4315.256348,4311.922852,4296.666504,4265.769043,4458.205078,4445.128418,4358.333496,4407.820313,2705.000000,3.000000,55.000000,,,,0.000000,4.000000,4.000000,4.000000,4.000000,4.000000,4.000000,4.000000,4.000000,4.000000,4.000000,4.000000,4.000000,4.000000,4.000000,100.000000,,,,,,,,,,,,,,,,,,,,,,,,,,,,,,,,,,,,,,,,,,,,,,,
1665770084.709511,1665770084.709891,127.000000,0.000000,4287.436035,4277.692383,4302.436035,4303.974121,4297.692383,4301.666504,4314.102539,4306.410156,4290.000000,4263.077148,4457.948730,4444.743652,4362.307617,4413.846191,55.000000,3.000000,55.000000,,,,0.000000,4.000000,4.000000,4.000000,4.000000,4.000000,4.000000,4.000000,4.000000,4.000000,4.000000,4.000000,4.000000,4.000000,4.000000,100.000000,,,,,,,,,,,,,,,,,,,,,,,,,,,,,,,,,,,,,,,,,,,,,,,
1665770084.717319,1665770084.717599,0.000000,0.000000,4294.615234,4280.128418,4305.769043,4300.897461,4295.128418,4291.794922,4308.846191,4297.563965,4275.769043,4262.436035,4458.077148,4439.743652,4365.641113,4417.948730,2459.000000,3.000000,55.000000,,,,0.000000,4.000000,4.000000,4.000000,4.000000,4.000000,4.000000,4.000000,4.000000,4.000000,4.000000,4.000000,4.000000,4.000000,4.000000,100.000000,,,,,,,,,,,,,,,,,,,,,,,,,,,,,,,,,,,,,,,,,,,,,,,
1665770084.725128,1665770084.725408,1.000000,0.000000,4305.769043,4291.025879,4314.102539,4307.820313,4295.897461,4284.358887,4301.666504,4284.487305,4272.307617,4262.436035,4464.230957,4440.641113,4371.666504,4425.897461,2241.000000,3.000000,55.000000,,,,0.000000,4.000000,4.000000,4.000000,4.000000,4.000000,4.000000,4.000000,4.000000,4.000000,4.000000,4.000000,4.000000,4.000000,4.000000,100.000000,,,,,,,,,,,,,,,,,,,,,,,,,,,,,,,,,,,,,,,,,,,,,,,
1665770084.732936,1665770084.733116,2.000000,0.000000,4313.333496,4297.436035,4325.128418,4315.128418,4296.410156,4276.794922,4290.769043,4278.717773,4274.102539,4266.025879,4473.846191,4447.563965,4382.307617,4437.051270,2373.000000,3.000000,55.000000,,,,0.000000,4.000000,4.000000,4.000000,4.000000,4.000000,4.000000,4.000000,4.000000,4.000000,4.000000,4.000000,4.000000,4.000000,4.000000,100.000000,,,,,,,,,,,,,,,,,,,,,,,,,,,,,,,,,,,,,,,,,,,,,,,
1665770084.740744,1665770084.740925,3.000000,0.000000,4312.692383,4298.077148,4328.717773,4314.487305,4294.487305,4270.897461,4280.769043,4281.410156,4276.282227,4275.769043,4479.615234,4450.897461,4390.769043,4442.051270,2359.000000,3.000000,55.000000,,,,0.000000,4.000000,4.000000,4.000000,4.000000,4.000000,4.000000,4.000000,4.000000,4.000000,4.000000,4.000000,4.000000,4.000000,4.000000,100.000000,,,,,,,,,,,,,,,,,,,,,,,,,,,,,,,,,,,,,,,,,,,,,,,
1665770084.748553,1665770084.748633,4.000000,0.000000,4312.563965,4298.717773,4325.897461,4316.153809,4295.256348,4271.666504,4276.922852,4288.333496,4287.051270,4284.871582,4481.666504,4449.358887,4393.461426,4439.230957,2378.000000,3.000000,55.000000,,,,0.000000,4.000000,4.000000,4.000000,4.000000,4.000000,4.000000,4.000000,4.000000,4.000000,4.000000,4.000000,4.000000,4.000000,4.000000,100.000000,,,,,,,,,,,,,,,,,,,,,,,,,,,,,,,,,,,,,,,,,,,,,,,
1665770084.756361,1665770084.756442,5.000000,0.000000,4306.794922,4295.384766,4318.461426,4311.666504,4296.410156,4278.205078,4285.000000,4300.769043,4302.692383,4288.974121,4483.846191,4446.025879,4391.666504,4433.846191,2394.000000,3.000000,55.000000,,,,0.000000,4.000000,4.000000,4.000000,4.000000,4.000000,4.000000,4.000000,4.000000,4.000000,4.000000,4.000000,4.000000,4.000000,4.000000,100.000000,,,,,,,,,,,,,,,,,,,,,,,,,,,,,,,,,,,,,,,,,,,,,,,
1665770084.764169,1665770084.764150,6.000000,0.000000,4288.461426,4281.538574,4305.000000,4299.615234,4287.436035,4288.461426,4302.436035,4311.410156,4308.205078,4285.128418,4472.692383,4440.384766,4380.128418,4422.179688,2237.000000,3.000000,55.000000,,,,0.000000,4.000000,4.000000,4.000000,4.000000,4.000000,4.000000,4.000000,4.000000,4.000000,4.000000,4.000000,4.000000,4.000000,4.000000,100.000000,,,,,,,,,,,,,,,,,,,,,,,,,,,,,,,,,,,,,,,,,,,,,,,
1665770084.771978,1665770084.771959,7.000000,0.000000,4273.077148,4268.717773,4290.384766,4293.333496,4278.333496,4300.256348,4313.461426,4313.077148,4302.436035,4273.717773,4451.538574,4436.538574,4362.436035,4407.563965,2388.000000,3.000000,55.000000,,,,0.000000,4.000000,4.000000,4.000000,4.000000,4.000000,4.000000,4.000000,4.000000,4.000000,4.000000,4.000000,4.000000,4.000000,4.000000,100.000000,,,,,,,,,,,,,,,,,,,,,,,,,,,,,,,,,,,,,,,,,,,,,,,
1665770084.779786,1665770084.779667,8.000000,0.000000,4265.000000,4261.282227,4276.666504,4284.102539,4282.436035,4309.230957,4311.666504,4309.871582,4295.641113,4263.589844,4440.256348,4432.563965,4345.512695,4393.717773,2314.000000,3.000000,55.000000,,,,0.000000,4.000000,4.000000,4.000000,4.000000,4.000000,4.000000,4.000000,4.000000,4.000000,4.000000,4.000000,4.000000,4.000000,4.000000,100.000000,,,,,,,,,,,,,,,,,,,,,,,,,,,,,,,,,,,,,,,,,,,,,,,
1665770084.787595,1665770084.787476,9.000000,0.000000,4261.025879,4257.051270,4268.974121,4274.102539,4282.307617,4312.563965,4310.769043,4307.179688,4295.128418,4261.153809,4434.358887,4422.820313,4339.743652,4385.512695,2379.000000,3.000000,55.000000,,,,0.000000,4.000000,4.000000,4.000000,4.000000,4.000000,4.000000,4.000000,4.000000,4.000000,4.000000,4.000000,4.000000,4.000000,4.000000,100.000000,,,,,,,,,,,,,,,,,,,,,,,,,,,,,,,,,,,,,,,,,,,,,,,
1665770084.795403,1665770084.795184,10.000000,0.000000,4272.820313,4263.846191,4278.205078,4282.436035,4277.307617,4312.051270,4313.205078,4302.563965,4293.846191,4261.922852,4436.794922,4418.974121,4347.820313,4391.794922,2712.000000,3.000000,55.000000,,,,0.000000,4.000000,4.000000,4.000000,4.000000,4.000000,4.000000,4.000000,4.000000,4.000000,4.000000,4.000000,4.000000,4.000000,4.000000,100.000000,,,,,,,,,,,,,,,,,,,,,,,,,,,,,,,,,,,,,,,,,,,,,,,
1665770084.803211,1665770084.803093,11.000000,0.000000,4290.512695,4273.974121,4293.846191,4298.846191,4285.769043,4308.717773,4307.436035,4298.077148,4286.794922,4268.205078,4450.000000,4428.846191,4358.717773,4405.641113,2424.000000,3.000000,55.000000,,,,0.000000,4.000000,4.000000,4.000000,4.000000,4.000000,4.000000,4.000000,4.000000,4.000000,4.000000,4.000000,4.000000,4.000000,4.000000,100.000000,,,,,,,,,,,,,,,,,,,,,,,,,,,,,,,,,,,,,,,,,,,,,,,
1665770084.811020,1665770084.810901,12.000000,0.000000,4300.000000,4285.000000,4301.153809,4306.153809,4295.769043,4294.743652,4292.436035,4290.128418,4280.128418,4274.615234,4460.512695,4436.282227,4375.769043,4418.205078,3076.000000,3.000000,55.000000,,,,0.000000,4.000000,4.000000,4.000000,4.000000,4.000000,4.000000,4.000000,4.000000,4.000000,4.000000,4.000000,4.000000,4.000000,4.000000,100.000000,,,,,,,,,,,,,,,,,,,,,,,,,,,,,,,,,,,,,,,,,,,,,,,
1665770084.818828,1665770084.818809,13.000000,0.000000,4311.282227,4299.230957,4306.922852,4313.974121,4294.743652,4279.871582,4278.461426,4275.641113,4271.410156,4269.743652,4467.307617,4434.615234,4388.846191,4426.025879,1334.000000,3.000000,55.000000,,,,0.000000,4.000000,4.000000,4.000000,4.000000,4.000000,4.000000,4.000000,4.000000,4.000000,4.000000,4.000000,4.000000,4.000000,4.000000,100.000000,,,,,,,,,,,,,,,,,,,,,,,,,,,,,,,,,,,,,,,,,,,,,,,
1665770084.826636,1665770084.826618,14.000000,0.000000,4324.615234,4306.666504,4319.871582,4325.384766,4297.820313,4273.077148,4271.922852,4268.974121,4260.769043,4267.948730,4475.512695,4440.256348,4387.948730,4434.358887,2712.000000,3.000000,55.000000,,,,0.000000,4.000000,4.000000,4.000000,4.000000,4.000000,4.000000,4.000000,4.000000,4.000000,4.000000,4.000000,4.000000,4.000000,4.000000,100.000000,,,,,,,,,,,,,,,,,,,,,,,,,,,,,,,,,,,,,,,,,,,,,,,
1665770084.834445,1665770084.834526,15.000000,0.000000,4330.769043,4309.743652,4334.743652,4331.282227,4306.794922,4269.230957,4269.871582,4278.717773,4264.487305,4279.487305,4483.461426,4450.000000,4393.205078,4444.871582,2424.000000,3.000000,55.000000,,,,0.000000,4.000000,4.000000,4.000000,4.000000,4.000000,4.000000,4.000000,4.000000,4.000000,4.000000,4.000000,4.000000,4.000000,4.000000,100.000000,,,,,,,,,,,,,,,,,,,,,,,,,,,,,,,,,,,,,,,,,,,,,,,
1665770084.842253,1665770084.842335,16.000000,0.000000,4331.794922,4315.256348,4342.307617,4337.692383,4306.025879,4268.974121,4273.333496,4298.974121,4284.615234,4287.436035,4491.410156,4455.641113,4406.025879,4449.102539,0.000000,3.000000,55.000000,,,,0.000000,4.000000,4.000000,4.000000,4.000000,4.000000,4.000000,4.000000,4.000000,4.000000,4.000000,4.000000,4.000000,4.000000,4.000000,100.000000,,,,,,,,,,,,,,,,,,,,,,,,,,,,,,,,,,,,,,,,,,,,,,,
1665770084.850062,1665770084.850243,17.000000,0.000000,4324.102539,4307.820313,4341.025879,4338.589844,4299.102539,4277.948730,4288.205078,4322.436035,4302.820313,4287.436035,4496.666504,4463.461426,4398.077148,4441.410156,0.000000,3.000000,55.000000,,,,0.000000,4.000000,4.000000,4.000000,4.000000,4.000000,4.000000,4.000000,4.000000,4.000000,4.000000,4.000000,4.000000,4.000000,4.000000,100.000000,,,,,,,,,,,,,,,,,,,,,,,,,,,,,,,,,,,,,,,,,,,,,,,
1665770084.857870,1665770084.858051,18.000000,0.000000,4303.333496,4286.922852,4326.153809,4320.512695,4295.384766,4293.717773,4309.358887,4334.230957,4309.487305,4284.615234,4488.461426,4463.846191,4377.692383,4428.589844,0.000000,3.000000,55.000000,,,,0.000000,4.000000,4.000000,4.000000,4.000000,4.000000,4.000000,4.000000,4.000000,4.000000,4.000000,4.000000,4.000000,4.000000,4.000000,100.000000,,,,,,,,,,,,,,,,,,,,,,,,,,,,,,,,,,,,,,,,,,,,,,,
1665770084.865678,1665770084.865960,19.000000,0.000000,4281.282227,4275.897461,4302.692383,4300.128418,4295.000000,4306.025879,4319.743652,4331.666504,4310.512695,4272.563965,4469.102539,4448.589844,4366.922852,4413.333496,0.000000,3.000000,55.000000,,,,0.000000,4.000000,4.000000,4.000000,4.000000,4.000000,4.000000,4.000000,4.000000,4.000000,4.000000,4.000000,4.000000,4.000000,4.000000,100.000000,,,,,,,,,,,,,,,,,,,,,,,,,,,,,,,,,,,,,,,,,,,,,,,
1665770084.873487,1665770084.873768,20.000000,0.000000,4266.922852,4269.871582,4285.384766,4289.615234,4296.794922,4313.846191,4318.589844,4328.589844,4310.128418,4264.615234,4450.769043,4437.179688,4352.307617,4395.000000,0.000000,3.000000,55.000000,,,,0.000000,4.000000,4.000000,4.000000,4.000000,4.000000,4.000000,4.000000,4.000000,4.000000,4.000000,4.000000,4.000000,4.000000,4.000000,100.000000,,,,,,,,,,,,,,,,,,,,,,,,,,,,,,,,,,,,,,,,,,,,,,,
1665770084.881295,1665770084.881676,21.000000,0.000000,4258.846191,4259.615234,4278.846191,4281.922852,4288.461426,4314.743652,4315.512695,4321.410156,4306.666504,4264.102539,4441.538574,4433.974121,4339.358887,4385.897461,0.000000,3.000000,55.000000,,,,0.000000,4.000000,4.000000,4.000000,4.000000,4.000000,4.000000,4.000000,4.000000,4.000000,4.000000,4.000000,4.000000,4.000000,4.000000,100.000000,,,,,,,,,,,,,,,,,,,,,,,,,,,,,,,,,,,,,,,,,,,,,,,
1665770084.889104,1665770084.889485,22.000000,0.000000,4261.666504,4261.282227,4277.563965,4282.436035,4280.641113,4306.025879,4304.102539,4301.282227,4295.512695,4255.769043,4442.179688,4425.897461,4345.256348,4392.436035,0.000000,3.000000,55.000000,,,,0.000000,4.000000,4.000000,4.000000,4.000000,4.000000,4.000000,4.000000,4.000000,4.000000,4.000000,4.000000,4.000000,4.000000,4.000000,100.000000,,,,,,,,,,,,,,,,,,,,,,,,,,,,,,,,,,,,,,,,,,,,,,,
1665770084.896912,1665770084.897193,23.000000,0.000000,4278.077148,4277.436035,4286.025879,4293.846191,4288.846191,4297.179688,4293.461426,4285.512695,4281.282227,4251.538574,4443.461426,4424.102539,4351.922852,4400.641113,0.000000,3.000000,55.000000,,,,0.000000,4.000000,4.000000,4.000000,4.000000,4.000000,4.000000,4.000000,4.000000,4.000000,4.000000,4.000000,4.000000,4.000000,4.000000,100.000000,,,,,,,,,,,,,,,,,,,,,,,,,,,,,,,,,,,,,,,,,,,,,,,
1665770084.904720,1665770084.905002,24.000000,0.000000,4292.948730,4287.563965,4303.717773,4301.794922,4294.743652,4294.743652,4295.384766,4276.794922,4270.000000,4258.333496,4443.077148,4431.794922,4355.769043,4406.538574,0.000000,3.000000,55.000000,,,,0.000000,4.000000,4.000000,4.000000,4.000000,4.000000,4.000000,4.000000,4.000000,4.000000,4.000000,4.000000,4.000000,4.000000,4.000000,100.000000,,,,,,,,,,,,,,,,,,,,,,,,,,,,,,,,,,,,,,,,,,,,,,,
1665770084.912529,1665770084.912710,25.000000,0.000000,4295.000000,4286.794922,4312.948730,4304.615234,4287.563965,4292.948730,4295.897461,4264.743652,4261.282227,4258.589844,4443.333496,4431.282227,4367.179688,4415.384766,0.000000,3.000000,55.000000,,,,0.000000,4.000000,4.000000,4.000000,4.000000,4.000000,4.000000,4.000000,4.000000,4.000000,4.000000,4.000000,4.000000,4.000000,4.000000,100.000000,,,,,,,,,,,,,,,,,,,,,,,,,,,,,,,,,,,,,,,,,,,,,,,
1665770084.920337,1665770084.920519,26.000000,0.000000,4299.102539,4291.538574,4315.128418,4315.769043,4290.641113,4287.948730,4291.025879,4265.128418,4253.717773,4253.846191,4448.333496,4432.436035,4373.589844,4424.487305,0.000000,3.000000,55.000000,,,,0.000000,4.000000,4.000000,4.000000,4.000000,4.000000,4.000000,4.000000,4.000000,4.000000,4.000000,4.000000,4.000000,4.000000,4.000000,100.000000,,,,,,,,,,,,,,,,,,,,,,,,,,,,,,,,,,,,,,,,,,,,,,,
1665770084.928146,1665770084.928227,27.000000,0.000000,4316.153809,4303.974121,4328.846191,4327.051270,4308.333496,4290.128418,4297.820313,4283.974121,4257.307617,4261.410156,4463.077148,4444.358887,4372.051270,4429.743652,0.000000,3.000000,55.000000,,,,0.000000,4.000000,4.000000,4.000000,4.000000,4.000000,4.000000,4.000000,4.000000,4.000000,4.000000,4.000000,4.000000,4.000000,4.000000,100.000000,,,,,,,,,,,,,,,,,,,,,,,,,,,,,,,,,,,,,,,,,,,,,,,
1665770084.935954,1665770084.936036,28.000000,0.000000,4328.717773,4307.948730,4343.077148,4328.589844,4313.333496,4294.102539,4314.743652,4307.563965,4281.410156,4276.794922,4485.769043,4453.846191,4383.974121,4436.922852,0.000000,3.000000,55.000000,,,,0.000000,4.000000,4.000000,4.000000,4.000000,4.000000,4.000000,4.000000,4.000000,4.000000,4.000000,4.000000,4.000000,4.000000,4.000000,100.000000,,,,,,,,,,,,,,,,,,,,,,,,,,,,,,,,,,,,,,,,,,,,,,,
1665770084.943762,1665770084.943744,29.000000,0.000000,4324.102539,4303.589844,4340.128418,4327.307617,4305.000000,4296.538574,4326.666504,4333.589844,4310.897461,4293.461426,4498.333496,4457.692383,4394.358887,4442.563965,0.000000,3.000000,55.000000,,,,0.000000,4.000000,4.000000,4.000000,4.000000,4.000000,4.000000,4.000000,4.000000,4.000000,4.000000,4.000000,4.000000,4.000000,4.000000,100.000000,1.000000,83.333336,4.000000,4.000000,3.000000,4.000000,4.000000,4.000000,4.000000,4.000000,4.000000,3.000000,4.000000,4.000000,4.000000,4.000000,1.000000,0.114208,-1.453850,-1.310431,0.653585,1.000000,0.000000,2.889843,2.889843,12.163130,0.292531,1.000000,0.565169,125.637970,-88.384277,299.033112,1.000000,0.697059,0.367789,0.078247,0.268688,1.000000,0.547173,7.702318,-4.650613,19.219919,1.000000,0.286874,0.286874,0.000000,1.000000
1665770084.951571,1665770084.951553,30.000000,0.000000,4312.436035,4296.794922,4327.692383,4322.820313,4297.692383,4305.256348,4332.051270,4354.743652,4328.717773,4305.512695,4491.025879,4456.922852,4380.128418,4430.384766,0.000000,3.000000,55.000000,,,,0.000000,4.000000,4.000000,4.000000,4.000000,4.000000,4.000000,4.000000,4.000000,4.000000,4.000000,4.000000,4.000000,4.000000,4.000000,100.000000,,,,,,,,,,,,,,,,,,,,,,,,,,,,,,,,,,,,,,,,,,,,,,,
1665770084.959379,1665770084.959261,31.000000,0.000000,4302.436035,4288.205078,4315.769043,4312.307617,4297.436035,4314.487305,4330.769043,4358.974121,4337.179688,4306.538574,4480.512695,4450.000000,4370.641113,4416.410156,0.000000,3.000000,55.000000,,,,0.000000,4.000000,4.000000,4.000000,4.000000,4.000000,4.000000,4.000000,4.000000,4.000000,4.000000,4.000000,4.000000,4.000000,4.000000,100.000000,,,,,,,,,,,,,,,,,,,,,,,,,,,,,,,,,,,,,,,,,,,,,,,
1665770084.967188,1665770084.967170,32.000000,0.000000,4285.384766,4277.179688,4295.256348,4299.487305,4294.743652,4313.461426,4316.922852,4342.563965,4330.897461,4298.077148,4469.743652,4438.589844,4375.128418,4409.358887,0.000000,3.000000,55.000000,,,,0.000000,4.000000,4.000000,4.000000,4.000000,4.000000,4.000000,4.000000,4.000000,4.000000,4.000000,4.000000,4.000000,4.000000,4.000000,100.000000,,,,,,,,,,,,,,,,,,,,,,,,,,,,,,,,,,,,,,,,,,,,,,,
1665770084.974996,1665770084.974978,33.000000,0.000000,4264.358887,4265.256348,4268.205078,4287.563965,4283.846191,4302.948730,4291.410156,4306.922852,4306.410156,4279.230957,4443.205078,4424.615234,4360.000000,4392.179688,0.000000,3.000000,55.000000,,,,0.000000,4.000000,4.000000,4.000000,4.000000,4.000000,4.000000,4.000000,4.000000,4.000000,4.000000,4.000000,4.000000,4.000000,4.000000,100.000000,,,,,,,,,,,,,,,,,,,,,,,,,,,,,,,,,,,,,,,,,,,,,,,
1665770084.982804,1665770084.982887,34.000000,0.000000,4263.974121,4266.538574,4265.641113,4285.128418,4280.512695,4296.538574,4275.897461,4270.641113,4281.282227,4262.179688,4419.358887,4414.102539,4338.717773,4377.948730,0.000000,3.000000,55.000000,,,,0.000000,4.000000,4.000000,4.000000,4.000000,4.000000,4.000000,4.000000,4.000000,4.000000,4.000000,4.000000,4.000000,4.000000,4.000000,100.000000,,,,,,,,,,,,,,,,,,,,,,,,,,,,,,,,,,,,,,,,,,,,,,,
1665770084.990613,1665770084.990695,35.000000,0.000000,4279.230957,4279.102539,4281.410156,4294.743652,4288.589844,4297.051270,4279.487305,4260.897461,4266.666504,4260.256348,4427.948730,4418.077148,4349.487305,4391.538574,0.000000,3.000000,55.000000,,,,0.000000,4.000000,4.000000,4.000000,4.000000,4.000000,4.000000,4.000000,4.000000,4.000000,4.000000,4.000000,4.000000,4.000000,4.000000,100.000000,,,,,,,,,,,,,,,,,,,,,,,,,,,,,,,,,,,,,,,,,,,,,,,
1665770084.998421,1665770084.998603,36.000000,0.000000,4280.641113,4282.948730,4283.846191,4298.461426,4293.205078,4296.153809,4281.666504,4267.436035,4261.282227,4264.230957,4444.230957,4427.820313,4365.256348,4405.256348,0.000000,3.000000,55.000000,,,,0.000000,4.000000,4.000000,4.000000,4.000000,4.000000,4.000000,4.000000,4.000000,4.000000,4.000000,4.000000,4.000000,4.000000,4.000000,100.000000,,,,,,,,,,,,,,,,,,,,,,,,,,,,,,,,,,,,,,,,,,,,,,,
1665770085.006230,1665770085.006412,37.000000,0.000000,4278.589844,4278.717773,4284.230957,4293.333496,4288.589844,4292.820313,4279.871582,4271.666504,4258.717773,4260.128418,4444.743652,4433.717773,4357.692383,4405.128418,0.000000,3.000000,55.000000,,,,0.000000,4.000000,4.000000,4.000000,4.000000,4.000000,4.000000,4.000000,4.000000,4.000000,4.000000,4.000000,4.000000,4.000000,4.000000,100.000000,,,,,,,,,,,,,,,,,,,,,,,,,,,,,,,,,,,,,,,,,,,,,,,
1665770085.014038,1665770085.014320,38.000000,0.000000,4290.897461,4280.641113,4304.487305,4299.358887,4285.512695,4290.641113,4291.410156,4278.333496,4255.128418,4255.000000,4451.282227,4439.358887,4359.102539,4414.358887,0.000000,3.000000,55.000000,,,,0.000000,4.000000,4.000000,4.000000,4.000000,4.000000,4.000000,4.000000,4.000000,4.000000,4.000000,4.000000,4.000000,4.000000,4.000000,100.000000,,,,,,,,,,,,,,,,,,,,,,,,,,,,,,,,,,,,,,,,,,,,,,,
1665770085.021846,1665770085.022129,39.000000,0.000000,4302.307617,4286.410156,4324.615234,4310.256348,4290.256348,4289.230957,4309.487305,4297.179688,4266.410156,4263.846191,4474.102539,4448.974121,4375.256348,4428.846191,0.000000,3.000000,55.000000,,,,0.000000,4.000000,4.000000,4.000000,4.000000,4.000000,4.000000,4.000000,4.000000,4.000000,4.000000,4.000000,4.000000,4.000000,4.000000,100.000000,,,,,,,,,,,,,,,,,,,,,,,,,,,,,,,,,,,,,,,,,,,,,,,
1665770085.029655,1665770085.030037,40.000000,0.000000,4308.461426,4291.153809,4330.256348,4314.743652,4295.384766,4289.871582,4318.205078,4326.282227,4295.000000,4281.410156,4491.922852,4460.512695,4385.256348,4434.871582,0.000000,3.000000,55.000000,,,,0.000000,4.000000,4.000000,4.000000,4.000000,4.000000,4.000000,4.000000,4.000000,4.000000,4.000000,4.000000,4.000000,4.000000,4.000000,100.000000,,,,,,,,,,,,,,,,,,,,,,,,,,,,,,,,,,,,,,,,,,,,,,,
1665770085.037463,1665770085.037845,41.000000,0.000000,4311.794922,4293.077148,4335.256348,4319.102539,4294.487305,4293.589844,4320.128418,4351.025879,4317.051270,4295.128418,4496.666504,4466.153809,4393.717773,4440.256348,0.000000,3.000000,55.000000,,,,0.000000,4.000000,4.000000,4.000000,4.000000,4.000000,4.000000,4.000000,4.000000,4.000000,4.000000,4.000000,4.000000,4.000000,4.000000,100.000000,,,,,,,,,,,,,,,,,,,,,,,,,,,,,,,,,,,,,,,,,,,,,,,
1665770085.045272,1665770085.045754,42.000000,0.000000,4300.256348,4283.974121,4328.717773,4311.410156,4288.205078,4295.897461,4321.410156,4353.717773,4327.307617,4297.563965,4495.897461,4457.948730,4400.384766,4438.846191,0.000000,3.000000,55.000000,,,,0.000000,4.000000,4.000000,4.000000,4.000000,4.000000,4.000000,4.000000,4.000000,4.000000,4.000000,4.000000,4.000000,4.000000,4.000000,100.000000,,,,,,,,,,,,,,,,,,,,,,,,,,,,,,,,,,,,,,,,,,,,,,,
1665770085.053080,1665770085.053562,43.000000,0.000000,4288.974121,4276.666504,4307.179688,4295.384766,4286.794922,4297.563965,4319.358887,4334.358887,4325.769043,4291.410156,4483.077148,4443.461426,4392.179688,4427.179688,0.000000,3.000000,55.000000,,,,0.000000,4.000000,4.000000,4.000000,4.000000,4.000000,4.000000,4.000000,4.000000,4.000000,4.000000,4.000000,4.000000,4.000000,4.000000,100.000000,,,,,,,,,,,,,,,,,,,,,,,,,,,,,,,,,,,,,,,,,,,,,,,
1665770085.060888,1665770085.061471,44.000000,0.000000,4291.922852,4277.051270,4293.333496,4291.666504,4288.717773,4297.563965,4305.641113,4308.589844,4309.102539,4280.128418,4462.948730,4435.769043,4377.051270,4418.077148,0.000000,3.000000,55.000000,,,,0.000000,4.000000,4.000000,4.000000,4.000000,4.000000,4.000000,4.000000,4.000000,4.000000,4.000000,4.000000,4.000000,4.000000,4.000000,100.000000,,,,,,,,,,,,,,,,,,,,,,,,,,,,,,,,,,,,,,,,,,,,,,,
1665770085.068697,1665770085.069279,45.000000,0.000000,4297.436035,4284.102539,4297.436035,4294.487305,4289.743652,4298.077148,4289.743652,4288.077148,4289.615234,4267.692383,4455.512695,4429.615234,4373.589844,4417.436035,0.000000,3.000000,55.000000,,,,0.000000,4.000000,4.000000,4.000000,4.000000,4.000000,4.000000,4.000000,4.000000,4.000000,4.000000,4.000000,4.000000,4.000000,4.000000,100.000000,,,,,,,,,,,,,,,,,,,,,,,,,,,,,,,,,,,,,,,,,,,,,,,
1665770085.076505,1665770085.077087,46.000000,0.000000,4304.358887,4292.436035,4306.410156,4297.179688,4287.948730,4299.487305,4288.846191,4277.692383,4281.153809,4262.948730,4458.589844,4425.256348,4377.692383,4422.948730,0.000000,3.000000,55.000000,,,,0.000000,4.000000,4.000000,4.000000,4.000000,4.000000,4.000000,4.000000,4.000000,4.000000,4.000000,4.000000,4.000000,4.000000,4.000000,100.000000,,,,,,,,,,,,,,,,,,,,,,,,,,,,,,,,,,,,,,,,,,,,,,,
1665770085.084313,1665770085.084896,47.000000,0.000000,4308.589844,4289.743652,4309.102539,4304.102539,4284.487305,4297.051270,4292.948730,4276.282227,4278.461426,4265.128418,4462.948730,4431.153809,4379.102539,4430.128418,0.000000,3.000000,55.000000,,,,0.000000,4.000000,4.000000,4.000000,4.000000,4.000000,4.000000,4.000000,4.000000,4.000000,4.000000,4.000000,4.000000,4.000000,4.000000,100.000000,,,,,,,,,,,,,,,,,,,,,,,,,,,,,,,,,,,,,,,,,,,,,,,
1665770085.092122,1665770085.092604,48.000000,0.000000,4312.051270,4286.666504,4316.282227,4308.589844,4288.461426,4291.794922,4293.077148,4283.717773,4275.897461,4273.077148,4475.641113,4441.282227,4386.153809,4440.128418,0.000000,3.000000,55.000000,,,,0.000000,4.000000,4.000000,4.000000,4.000000,4.000000,4.000000,4.000000,4.000000,4.000000,4.000000,4.000000,4.000000,4.000000,4.000000,100.000000,,,,,,,,,,,,,,,,,,,,,,,,,,,,,,,,,,,,,,,,,,,,,,,
1665770085.099930,1665770085.100513,49.000000,0.000000,4326.025879,4296.538574,4330.641113,4311.025879,4298.461426,4294.871582,4303.846191,4296.922852,4280.128418,4286.794922,4488.589844,4445.897461,4402.307617,4452.692383,0.000000,3.000000,55.000000,,,,0.000000,4.000000,4.000000,4.000000,4.000000,4.000000,4.000000,4.000000,4.000000,4.000000,4.000000,4.000000,4.000000,4.000000,4.000000,100.000000,,,,,,,,,,,,,,,,,,,,,,,,,,,,,,,,,,,,,,,,,,,,,,,
1665770085.107739,1665770085.108321,50.000000,0.000000,4335.384766,4301.794922,4338.974121,4317.948730,4300.512695,4294.743652,4320.128418,4309.487305,4290.897461,4297.051270,4495.512695,4452.820313,4412.692383,4462.307617,0.000000,3.000000,55.000000,,,,0.000000,4.000000,4.000000,4.000000,4.000000,4.000000,4.000000,4.000000,4.000000,4.000000,4.000000,4.000000,4.000000,4.000000,4.000000,100.000000,,,,,,,,,,,,,,,,,,,,,,,,,,,,,,,,,,,,,,,,,,,,,,,
1665770085.115547,1665770085.116130,51.000000,0.000000,4330.256348,4293.589844,4339.871582,4320.641113,4296.025879,4284.358887,4321.538574,4318.333496,4297.563965,4299.871582,4506.153809,4462.179688,4418.461426,4465.128418,0.000000,3.000000,55.000000,,,,0.000000,4.000000,4.000000,4.000000,4.000000,4.000000,4.000000,4.000000,4.000000,4.000000,4.000000,4.000000,4.000000,4.000000,4.000000,100.000000,,,,,,,,,,,,,,,,,,,,,,,,,,,,,,,,,,,,,,,,,,,,,,,
1665770085.123355,1665770085.123838,52.000000,0.000000,4328.717773,4292.307617,4340.512695,4320.769043,4297.436035,4283.846191,4312.820313,4319.615234,4294.743652,4298.333496,4509.358887,4462.051270,4418.974121,4462.563965,0.000000,3.000000,55.000000,,,,0.000000,4.000000,4.000000,4.000000,4.000000,4.000000,4.000000,4.000000,4.000000,4.000000,4.000000,4.000000,4.000000,4.000000,4.000000,100.000000,,,,,,,,,,,,,,,,,,,,,,,,,,,,,,,,,,,,,,,,,,,,,,,
1665770085.131164,1665770085.131647,53.000000,0.000000,4323.846191,4292.307617,4332.563965,4320.384766,4295.384766,4292.692383,4306.282227,4317.436035,4295.000000,4289.358887,4491.538574,4453.077148,4400.000000,4448.333496,0.000000,3.000000,55.000000,,,,0.000000,4.000000,4.000000,4.000000,4.000000,4.000000,4.000000,4.000000,4.000000,4.000000,4.000000,4.000000,4.000000,4.000000,4.000000,100.000000,,,,,,,,,,,,,,,,,,,,,,,,,,,,,,,,,,,,,,,,,,,,,,,
1665770085.138972,1665770085.139355,54.000000,0.000000,4296.410156,4272.563965,4304.871582,4304.871582,4282.563965,4292.692383,4298.461426,4313.333496,4298.077148,4273.461426,4466.153809,4443.589844,4376.666504,4423.333496,0.000000,3.000000,55.000000,,,,0.000000,4.000000,4.000000,4.000000,4.000000,4.000000,4.000000,4.000000,4.000000,4.000000,4.000000,4.000000,4.000000,4.000000,4.000000,100.000000,,,,,,,,,,,,,,,,,,,,,,,,,,,,,,,,,,,,,,,,,,,,,,,
1665770085.146780,1665770085.147164,55.000000,0.000000,4267.307617,4247.307617,4278.205078,4281.282227,4275.384766,4290.769043,4286.025879,4302.692383,4290.769043,4261.025879,4448.717773,4433.333496,4363.717773,4400.897461,0.000000,3.000000,55.000000,,,,0.000000,4.000000,4.000000,4.000000,4.000000,4.000000,4.000000,4.000000,4.000000,4.000000,4.000000,4.000000,4.000000,4.000000,4.000000,100.000000,,,,,,,,,,,,,,,,,,,,,,,,,,,,,,,,,,,,,,,,,,,,,,,
1665770085.154589,1665770085.154872,56.000000,0.000000,4259.230957,4242.436035,4270.641113,4271.025879,4277.051270,4296.666504,4277.051270,4290.641113,4280.769043,4252.563965,4438.974121,4425.128418,4350.000000,4394.102539,0.000000,3.000000,55.000000,,,,0.000000,4.000000,4.000000,4.000000,4.000000,4.000000,4.000000,4.000000,4.000000,4.000000,4.000000,4.000000,4.000000,4.000000,4.000000,100.000000,,,,,,,,,,,,,,,,,,,,,,,,,,,,,,,,,,,,,,,,,,,,,,,
1665770085.162397,1665770085.162681,57.000000,0.000000,4267.051270,4261.282227,4276.794922,4277.307617,4281.282227,4299.487305,4278.717773,4287.436035,4278.333496,4248.846191,4437.179688,4424.871582,4347.563965,4401.666504,0.000000,3.000000,55.000000,,,,0.000000,4.000000,4.000000,4.000000,4.000000,4.000000,4.000000,4.000000,4.000000,4.000000,4.000000,4.000000,4.000000,4.000000,4.000000,100.000000,,,,,,,,,,,,,,,,,,,,,,,,,,,,,,,,,,,,,,,,,,,,,,,
1665770085.170206,1665770085.170389,58.000000,0.000000,4280.512695,4277.436035,4286.025879,4289.102539,4288.974121,4297.179688,4286.922852,4287.820313,4276.922852,4257.307617,4444.102539,4428.717773,4368.589844,4408.333496,0.000000,3.000000,55.000000,,,,0.000000,4.000000,4.000000,4.000000,4.000000,4.000000,4.000000,4.000000,4.000000,4.000000,4.000000,4.000000,4.000000,4.000000,4.000000,100.000000,,,,,,,,,,,,,,,,,,,,,,,,,,,,,,,,,,,,,,,,,,,,,,,
1665770085.178014,1665770085.178298,59.000000,0.000000,4290.512695,4281.666504,4295.256348,4298.589844,4295.128418,4295.256348,4293.717773,4287.307617,4275.641113,4265.512695,4455.641113,4436.410156,4383.461426,4417.563965,0.000000,3.000000,55.000000,,,,0.000000,4.000000,4.000000,4.000000,4.000000,4.000000,4.000000,4.000000,4.000000,4.000000,4.000000,4.000000,4.000000,4.000000,4.000000,100.000000,,,,,,,,,,,,,,,,,,,,,,,,,,,,,,,,,,,,,,,,,,,,,,,
1665770085.185822,1665770085.186106,60.000000,0.000000,4296.025879,4285.256348,4305.384766,4301.794922,4292.948730,4286.025879,4293.974121,4290.512695,4278.461426,4266.794922,4467.436035,4444.230957,4381.153809,4430.384766,0.000000,3.000000,55.000000,,,,0.000000,4.000000,4.000000,4.000000,4.000000,4.000000,4.000000,4.000000,4.000000,4.000000,4.000000,4.000000,4.000000,4.000000,4.000000,100.000000,,,,,,,,,,,,,,,,,,,,,,,,,,,,,,,,,,,,,,,,,,,,,,,
1665770085.193631,1665770085.194014,61.000000,0.000000,4300.769043,4292.563965,4314.102539,4305.512695,4293.717773,4279.615234,4299.358887,4295.512695,4279.615234,4273.077148,4475.256348,4445.641113,4386.922852,4436.153809,0.000000,3.000000,55.000000,,,,0.000000,4.000000,4.000000,4.000000,4.000000,4.000000,4.000000,4.000000,4.000000,4.000000,4.000000,4.000000,4.000000,4.000000,4.000000,100.000000,,,,,,,,,,,,,,,,,,,,,,,,,,,,,,,,,,,,,,,,,,,,,,,
1665770085.201439,1665770085.201823,62.000000,0.000000,4309.102539,4299.487305,4322.820313,4313.717773,4298.717773,4282.436035,4310.256348,4300.769043,4283.333496,4281.794922,4482.307617,4447.563965,4398.077148,4437.051270,0.000000,3.000000,55.000000,,,,0.000000,4.000000,4.000000,4.000000,4.000000,4.000000,4.000000,4.000000,4.000000,4.000000,4.000000,4.000000,4.000000,4.000000,4.000000,100.000000,,,,,,,,,,,,,,,,,,,,,,,,,,,,,,,,,,,,,,,,,,,,,,,
1665770085.209247,1665770085.209731,63.000000,0.000000,4318.717773,4303.461426,4333.717773,4316.282227,4295.128418,4275.128418,4310.000000,4309.743652,4296.922852,4290.769043,4494.615234,4455.000000,4402.563965,4446.282227,0.000000,3.000000,55.000000,,,,0.000000,4.000000,4.000000,4.000000,4.000000,4.000000,4.000000,4.000000,4.000000,4.000000,4.000000,4.000000,4.000000,4.000000,4.000000,100.000000,,,,,,,,,,,,,,,,,,,,,,,,,,,,,,,,,,,,,,,,,,,,,,,
1665770085.217056,1665770085.217540,64.000000,0.000000,4322.436035,4305.384766,4339.615234,4313.974121,4293.589844,4260.512695,4296.282227,4311.410156,4304.102539,4300.000000,4501.410156,4454.615234,4405.769043,4452.948730,2463.000000,3.000000,55.000000,,,,0.000000,4.000000,4.000000,4.000000,4.000000,4.000000,4.000000,4.000000,4.000000,4.000000,4.000000,4.000000,4.000000,4.000000,4.000000,100.000000,,,,,,,,,,,,,,,,,,,,,,,,,,,,,,,,,,,,,,,,,,,,,,,
1665770085.224864,1665770085.225448,65.000000,0.000000,4314.871582,4303.205078,4329.102539,4311.410156,4294.102539,4267.307617,4291.282227,4301.922852,4297.692383,4293.846191,4484.358887,4439.487305,4397.179688,4440.000000,2241.000000,3.000000,55.000000,,,,0.000000,4.000000,4.000000,4.000000,4.000000,4.000000,4.000000,4.000000,4.000000,4.000000,4.000000,4.000000,4.000000,4.000000,4.000000,100.000000,,,,,,,,,,,,,,,,,,,,,,,,,,,,,,,,,,,,,,,,,,,,,,,
1665770085.232673,1665770085.233256,66.000000,0.000000,4295.769043,4286.666504,4304.230957,4301.282227,4285.512695,4289.358887,4293.589844,4291.922852,4293.846191,4273.333496,4451.922852,4424.871582,4371.794922,4415.384766,2373.000000,3.000000,55.000000,,,,0.000000,4.000000,4.000000,4.000000,4.000000,4.000000,4.000000,4.000000,4.000000,4.000000,4.000000,4.000000,4.000000,4.000000,4.000000,100.000000,,,,,,,,,,,,,,,,,,,,,,,,,,,,,,,,,,,,,,,,,,,,,,,
1665770085.240481,1665770085.241165,67.000000,0.000000,4278.846191,4264.102539,4284.102539,4283.333496,4281.153809,4301.153809,4286.538574,4286.282227,4295.256348,4260.769043,4432.948730,4420.512695,4356.025879,4398.589844,2359.000000,3.000000,55.000000,,,,0.000000,4.000000,4.000000,4.000000,4.000000,4.000000,4.000000,4.000000,4.000000,4.000000,4.000000,4.000000,4.000000,4.000000,4.000000,100.000000,,,,,,,,,,,,,,,,,,,,,,,,,,,,,,,,,,,,,,,,,,,,,,,
1665770085.248289,1665770085.248973,68.000000,0.000000,4276.410156,4265.897461,4275.641113,4276.410156,4290.384766,4305.256348,4284.358887,4279.358887,4287.051270,4259.230957,4426.538574,4415.000000,4350.641113,4392.436035,2378.000000,3.000000,55.000000,,,,0.000000,4.000000,4.000000,4.000000,4.000000,4.000000,4.000000,4.000000,4.000000,4.000000,4.000000,4.000000,4.000000,4.000000,4.000000,100.000000,,,,,,,,,,,,,,,,,,,,,,,,,,,,,,,,,,,,,,,,,,,,,,,
1665770085.256098,1665770085.256882,69.000000,0.000000,4276.922852,4278.589844,4275.897461,4281.922852,4292.948730,4309.487305,4293.846191,4275.000000,4276.922852,4257.179688,4423.846191,4409.487305,4343.589844,4387.948730,2391.000000,3.000000,55.000000,,,,0.000000,4.000000,4.000000,4.000000,4.000000,4.000000,4.000000,4.000000,4.000000,4.000000,4.000000,4.000000,4.000000,4.000000,4.000000,100.000000,,,,,,,,,,,,,,,,,,,,,,,,,,,,,,,,,,,,,,,,,,,,,,,
1665770085.263906,1665770085.264690,70.000000,0.000000,4277.692383,4273.846191,4282.820313,4288.205078,4288.974121,4309.871582,4298.333496,4282.692383,4277.307617,4258.589844,4434.743652,4415.512695,4350.769043,4390.641113,2226.000000,3.000000,55.000000,,,,0.000000,4.000000,4.000000,4.000000,4.000000,4.000000,4.000000,4.000000,4.000000,4.000000,4.000000,4.000000,4.000000,4.000000,4.000000,100.000000,,,,,,,,,,,,,,,,,,,,,,,,,,,,,,,,,,,,,,,,,,,,,,,
1665770085.271715,1665770085.272399,71.000000,0.000000,4289.358887,4277.436035,4296.282227,4297.948730,4295.769043,4310.897461,4300.128418,4291.922852,4279.871582,4266.410156,4451.794922,4431.410156,4369.615234,4403.589844,2388.000000,3.000000,55.000000,,,,0.000000,4.000000,4.000000,4.000000,4.000000,4.000000,4.000000,4.000000,4.000000,4.000000,4.000000,4.000000,4.000000,4.000000,4.000000,100.000000,,,,,,,,,,,,,,,,,,,,,,,,,,,,,,,,,,,,,,,,,,,,,,,
1665770085.279523,1665770085.280207,72.000000,0.000000,4300.897461,4289.871582,4309.230957,4308.333496,4301.538574,4311.025879,4311.282227,4296.153809,4276.153809,4274.743652,4458.717773,4440.897461,4376.794922,4414.487305,2304.000000,3.000000,55.000000,,,,0.000000,4.000000,4.000000,4.000000,4.000000,4.000000,4.000000,4.000000,4.000000,4.000000,4.000000,4.000000,4.000000,4.000000,4.000000,100.000000,,,,,,,,,,,,,,,,,,,,,,,,,,,,,,,,,,,,,,,,,,,,,,,
1665770085.287331,1665770085.287916,73.000000,0.000000,4298.974121,4285.384766,4313.717773,4311.794922,4298.205078,4305.128418,4317.692383,4305.128418,4279.230957,4279.871582,4468.974121,4443.589844,4379.358887,4419.230957,2376.000000,3.000000,55.000000,,,,0.000000,4.000000,4.000000,4.000000,4.000000,4.000000,4.000000,4.000000,4.000000,4.000000,4.000000,4.000000,4.000000,4.000000,4.000000,100.000000,,,,,,,,,,,,,,,,,,,,,,,,,,,,,,,,,,,,,,,,,,,,,,,
1665770085.295140,1665770085.295724,74.000000,0.000000,4295.641113,4281.922852,4313.077148,4311.666504,4302.820313,4299.487305,4311.282227,4308.589844,4288.205078,4283.717773,4478.461426,4444.615234,4385.641113,4417.820313,2708.000000,3.000000,55.000000,,,,0.000000,4.000000,4.000000,4.000000,4.000000,4.000000,4.000000,4.000000,4.000000,4.000000,4.000000,4.000000,4.000000,4.000000,4.000000,100.000000,,,,,,,,,,,,,,,,,,,,,,,,,,,,,,,,,,,,,,,,,,,,,,,
1665770085.302948,1665770085.303433,75.000000,0.000000,4298.205078,4297.692383,4312.820313,4315.897461,4312.563965,4299.615234,4307.820313,4297.692383,4284.487305,4284.743652,4465.256348,4441.538574,4382.307617,4407.692383,2424.000000,3.000000,55.000000,,,,0.000000,4.000000,4.000000,4.000000,4.000000,4.000000,4.000000,4.000000,4.000000,4.000000,4.000000,4.000000,4.000000,4.000000,4.000000,100.000000,,,,,,,,,,,,,,,,,,,,,,,,,,,,,,,,,,,,,,,,,,,,,,,
1665770085.310757,1665770085.311241,76.000000,0.000000,4293.846191,4298.974121,4305.512695,4312.692383,4309.871582,4296.282227,4304.358887,4289.102539,4280.641113,4281.282227,4452.051270,4438.205078,4372.436035,4398.974121,3064.000000,3.000000,55.000000,,,,0.000000,4.000000,4.000000,4.000000,4.000000,4.000000,4.000000,4.000000,4.000000,4.000000,4.000000,4.000000,4.000000,4.000000,4.000000,100.000000,,,,,,,,,,,,,,,,,,,,,,,,,,,,,,,,,,,,,,,,,,,,,,,
1665770085.318565,1665770085.318950,77.000000,0.000000,4283.205078,4282.692383,4296.794922,4300.897461,4298.077148,4285.000000,4295.256348,4296.282227,4289.743652,4280.256348,4459.871582,4433.717773,4367.051270,4397.307617,1344.000000,3.000000,55.000000,,,,0.000000,4.000000,4.000000,4.000000,4.000000,4.000000,4.000000,4.000000,4.000000,4.000000,4.000000,4.000000,4.000000,4.000000,4.000000,100.000000,,,,,,,,,,,,,,,,,,,,,,,,,,,,,,,,,,,,,,,,,,,,,,,
1665770085.326373,1665770085.326758,78.000000,0.000000,4280.512695,4280.000000,4291.922852,4295.000000,4287.179688,4278.461426,4292.948730,4303.846191,4294.358887,4276.410156,4458.846191,4429.743652,4366.282227,4397.307617,2708.000000,3.000000,55.000000,,,,0.000000,4.000000,4.000000,4.000000,4.000000,4.000000,4.000000,4.000000,4.000000,4.000000,4.000000,4.000000,4.000000,4.000000,4.000000,100.000000,,,,,,,,,,,,,,,,,,,,,,,,,,,,,,,,,,,,,,,,,,,,,,,
1665770085.334182,1665770085.334467,79.000000,0.000000,4284.102539,4281.794922,4285.000000,4291.410156,4279.102539,4278.974121,4292.692383,4301.794922,4292.307617,4267.948730,4445.384766,4429.615234,4367.820313,4395.128418,2424.000000,3.000000,55.000000,,,,0.000000,4.000000,4.000000,4.000000,4.000000,4.000000,4.000000,4.000000,4.000000,4.000000,4.000000,4.000000,4.000000,4.000000,4.000000,100.000000,,,,,,,,,,,,,,,,,,,,,,,,,,,,,,,,,,,,,,,,,,,,,,,
1665770085.341990,1665770085.342375,80.000000,0.000000,4277.948730,4270.512695,4278.333496,4281.282227,4274.358887,4279.102539,4285.769043,4296.282227,4293.333496,4264.102539,4443.205078,4431.153809,4363.077148,4394.743652,3064.000000,3.000000,55.000000,,,,0.000000,4.000000,4.000000,4.000000,4.000000,4.000000,4.000000,4.000000,4.000000,4.000000,4.000000,4.000000,4.000000,4.000000,4.000000,100.000000,,,,,,,,,,,,,,,,,,,,,,,,,,,,,,,,,,,,,,,,,,,,,,,
1665770085.349799,1665770085.350183,81.000000,0.000000,4266.666504,4261.282227,4279.230957,4276.794922,4277.179688,4285.769043,4286.538574,4292.820313,4289.230957,4259.615234,4442.692383,4430.897461,4350.769043,4393.974121,1344.000000,3.000000,55.000000,,,,0.000000,4.000000,4.000000,4.000000,4.000000,4.000000,4.000000,4.000000,4.000000,4.000000,4.000000,4.000000,4.000000,4.000000,4.000000,100.000000,,,,,,,,,,,,,,,,,,,,,,,,,,,,,,,,,,,,,,,,,,,,,,,
1665770085.357607,1665770085.357992,82.000000,0.000000,4261.666504,4261.794922,4282.179688,4286.794922,4284.358887,4298.333496,4295.000000,4292.820313,4278.205078,4247.563965,4432.307617,4428.589844,4341.538574,4386.666504,2708.000000,3.000000,55.000000,,,,0.000000,4.000000,4.000000,4.000000,4.000000,4.000000,4.000000,4.000000,4.000000,4.000000,4.000000,4.000000,4.000000,4.000000,4.000000,100.000000,,,,,,,,,,,,,,,,,,,,,,,,,,,,,,,,,,,,,,,,,,,,,,,
1665770085.365415,1665770085.365700,83.000000,0.000000,4260.641113,4265.897461,4284.871582,4295.641113,4296.410156,4306.794922,4301.538574,4296.282227,4278.205078,4242.948730,4424.102539,4426.794922,4338.205078,4377.692383,2424.000000,3.000000,55.000000,,,,0.000000,4.000000,4.000000,4.000000,4.000000,4.000000,4.000000,4.000000,4.000000,4.000000,4.000000,4.000000,4.000000,4.000000,4.000000,100.000000,,,,,,,,,,,,,,,,,,,,,,,,,,,,,,,,,,,,,,,,,,,,,,,
1665770085.373224,1665770085.373609,84.000000,0.000000,4265.897461,4271.922852,4297.563965,4300.897461,4309.358887,4308.461426,4311.666504,4309.230957,4291.794922,4255.512695,4435.512695,4433.205078,4344.102539,4383.846191,3064.000000,3.000000,55.000000,,,,0.000000,4.000000,4.000000,4.000000,4.000000,4.000000,4.000000,4.000000,4.000000,4.000000,4.000000,4.000000,4.000000,4.000000,4.000000,100.000000,,,,,,,,,,,,,,,,,,,,,,,,,,,,,,,,,,,,,,,,,,,,,,,
1665770085.381032,1665770085.381417,85.000000,0.000000,4278.333496,4277.436035,4310.641113,4306.922852,4306.538574,4302.307617,4316.666504,4314.487305,4295.384766,4270.641113,4452.436035,4437.563965,4360.769043,4398.846191,1344.000000,3.000000,55.000000,,,,0.000000,4.000000,4.000000,4.000000,4.000000,4.000000,4.000000,4.000000,4.000000,4.000000,4.000000,4.000000,4.000000,4.000000,4.000000,100.000000,,,,,,,,,,,,,,,,,,,,,,,,,,,,,,,,,,,,,,,,,,,,,,,
1665770085.388841,1665770085.389325,86.000000,0.000000,4290.641113,4283.974121,4311.025879,4308.717773,4298.846191,4289.871582,4304.487305,4298.205078,4282.692383,4273.077148,4450.897461,4429.358887,4369.487305,4402.948730,2708.000000,3.000000,55.000000,,,,0.000000,4.000000,4.000000,4.000000,4.000000,4.000000,4.000000,4.000000,4.000000,4.000000,4.000000,4.000000,4.000000,4.000000,4.000000,100.000000,,,,,,,,,,,,,,,,,,,,,,,,,,,,,,,,,,,,,,,,,,,,,,,
1665770085.396649,1665770085.397134,87.000000,0.000000,4297.563965,4295.769043,4312.051270,4314.871582,4303.205078,4288.846191,4295.384766,4286.153809,4276.538574,4267.436035,4446.666504,4424.230957,4366.153809,4401.025879,2424.000000,3.000000,55.000000,,,,0.000000,4.000000,4.000000,4.000000,4.000000,4.000000,4.000000,4.000000,4.000000,4.000000,4.000000,4.000000,4.000000,4.000000,4.000000,100.000000,,,,,,,,,,,,,,,,,,,,,,,,,,,,,,,,,,,,,,,,,,,,,,,
