title:Psychopy_Cleo_Speakers_Blinking, start timestamp:1665776764.078009, stop timestamp:1665776825.085111, headset type:EPOCX, headset serial:E2020A42, headset firmware:720, channels:86, sampling rate:eeg_128;pm_2, samples:7814      , version:2.1, 
Timestamp,OriginalTimestamp,EEG.Counter,EEG.Interpolated,EEG.AF3,EEG.F7,EEG.F3,EEG.FC5,EEG.T7,EEG.P7,EEG.O1,EEG.O2,EEG.P8,EEG.T8,EEG.FC6,EEG.F4,EEG.F8,EEG.AF4,EEG.RawCq,EEG.Battery,EEG.BatteryPercent,MarkerIndex,MarkerType,MarkerValueInt,EEG.MarkerHardware,CQ.AF3,CQ.F7,CQ.F3,CQ.FC5,CQ.T7,CQ.P7,CQ.O1,CQ.O2,CQ.P8,CQ.T8,CQ.FC6,CQ.F4,CQ.F8,CQ.AF4,CQ.Overall,EQ.SampleRateQuality,EQ.OVERALL,EQ.AF3,EQ.F7,EQ.F3,EQ.FC5,EQ.T7,EQ.P7,EQ.O1,EQ.O2,EQ.P8,EQ.T8,EQ.FC6,EQ.F4,EQ.F8,EQ.AF4,PM.Engagement.IsActive,PM.Engagement.Scaled,PM.Engagement.Raw,PM.Engagement.Min,PM.Engagement.Max,PM.Excitement.IsActive,PM.Excitement.Scaled,PM.Excitement.Raw,PM.Excitement.Min,PM.Excitement.Max,PM.LongTermExcitement,PM.Stress.IsActive,PM.Stress.Scaled,PM.Stress.Raw,PM.Stress.Min,PM.Stress.Max,PM.Relaxation.IsActive,PM.Relaxation.Scaled,PM.Relaxation.Raw,PM.Relaxation.Min,PM.Relaxation.Max,PM.Interest.IsActive,PM.Interest.Scaled,PM.Interest.Raw,PM.Interest.Min,PM.Interest.Max,PM.Focus.IsActive,PM.Focus.Scaled,PM.Focus.Raw,PM.Focus.Min,PM.Focus.Max
1665776764.078009,1665776764.079102,89.000000,0.000000,4271.666504,4235.000000,4267.307617,4294.743652,4280.769043,4286.538574,4299.102539,4318.205078,4289.102539,4276.922852,4456.025879,4461.282227,4373.333496,4383.205078,2985.000000,2.000000,49.000000,,,,0.000000,4.000000,4.000000,4.000000,4.000000,4.000000,4.000000,4.000000,4.000000,4.000000,4.000000,4.000000,4.000000,4.000000,4.000000,100.000000,,,,,,,,,,,,,,,,,,,,,,,,,,,,,,,,,,,,,,,,,,,,,,,
1665776764.085817,1665776764.087011,90.000000,0.000000,4265.128418,4235.000000,4263.717773,4281.025879,4276.410156,4277.307617,4298.846191,4320.128418,4293.974121,4279.102539,4461.794922,4464.615234,4378.589844,4378.461426,2560.000000,2.000000,49.000000,,,,0.000000,4.000000,4.000000,4.000000,4.000000,4.000000,4.000000,4.000000,4.000000,4.000000,4.000000,4.000000,4.000000,4.000000,4.000000,100.000000,,,,,,,,,,,,,,,,,,,,,,,,,,,,,,,,,,,,,,,,,,,,,,,
1665776764.093625,1665776764.094820,91.000000,0.000000,4262.436035,4235.512695,4266.666504,4280.256348,4279.102539,4283.333496,4299.743652,4319.871582,4296.794922,4280.769043,4462.051270,4462.563965,4381.666504,4374.487305,2747.000000,2.000000,49.000000,,,,0.000000,4.000000,4.000000,4.000000,4.000000,4.000000,4.000000,4.000000,4.000000,4.000000,4.000000,4.000000,4.000000,4.000000,4.000000,100.000000,,,,,,,,,,,,,,,,,,,,,,,,,,,,,,,,,,,,,,,,,,,,,,,
1665776764.101434,1665776764.102628,92.000000,0.000000,4264.358887,4233.974121,4275.769043,4291.153809,4282.307617,4291.410156,4299.102539,4315.897461,4290.641113,4277.820313,4460.641113,4461.666504,4378.717773,4373.717773,2840.000000,2.000000,49.000000,,,,0.000000,4.000000,4.000000,4.000000,4.000000,4.000000,4.000000,4.000000,4.000000,4.000000,4.000000,4.000000,4.000000,4.000000,4.000000,100.000000,,,,,,,,,,,,,,,,,,,,,,,,,,,,,,,,,,,,,,,,,,,,,,,
1665776764.109242,1665776764.110337,93.000000,0.000000,4256.410156,4233.077148,4279.743652,4289.743652,4280.641113,4289.743652,4300.256348,4311.282227,4281.025879,4273.846191,4460.128418,4461.410156,4375.769043,4369.615234,2985.000000,2.000000,49.000000,,,,0.000000,4.000000,4.000000,4.000000,4.000000,4.000000,4.000000,4.000000,4.000000,4.000000,4.000000,4.000000,4.000000,4.000000,4.000000,100.000000,,,,,,,,,,,,,,,,,,,,,,,,,,,,,,,,,,,,,,,,,,,,,,,
1665776764.117051,1665776764.118145,94.000000,0.000000,4251.794922,4233.461426,4275.641113,4279.358887,4278.589844,4290.641113,4305.384766,4309.615234,4280.384766,4277.692383,4455.128418,4460.128418,4374.487305,4365.256348,2560.000000,2.000000,49.000000,,,,0.000000,4.000000,4.000000,4.000000,4.000000,4.000000,4.000000,4.000000,4.000000,4.000000,4.000000,4.000000,4.000000,4.000000,4.000000,100.000000,,,,,,,,,,,,,,,,,,,,,,,,,,,,,,,,,,,,,,,,,,,,,,,
1665776764.124859,1665776764.125854,95.000000,0.000000,4261.153809,4232.948730,4272.563965,4279.743652,4278.589844,4297.179688,4305.769043,4310.256348,4286.410156,4285.000000,4454.102539,4462.563965,4374.871582,4367.436035,2747.000000,2.000000,49.000000,,,,0.000000,4.000000,4.000000,4.000000,4.000000,4.000000,4.000000,4.000000,4.000000,4.000000,4.000000,4.000000,4.000000,4.000000,4.000000,100.000000,,,,,,,,,,,,,,,,,,,,,,,,,,,,,,,,,,,,,,,,,,,,,,,
1665776764.132668,1665776764.133662,96.000000,0.000000,4268.205078,4233.205078,4276.410156,4290.128418,4279.358887,4295.256348,4301.794922,4311.666504,4287.563965,4286.794922,4458.333496,4465.256348,4375.128418,4371.025879,2840.000000,2.000000,49.000000,,,,0.000000,4.000000,4.000000,4.000000,4.000000,4.000000,4.000000,4.000000,4.000000,4.000000,4.000000,4.000000,4.000000,4.000000,4.000000,100.000000,,,,,,,,,,,,,,,,,,,,,,,,,,,,,,,,,,,,,,,,,,,,,,,
1665776764.140476,1665776764.141371,97.000000,0.000000,4266.538574,4238.461426,4277.563965,4292.948730,4280.512695,4283.461426,4296.282227,4310.897461,4281.153809,4280.256348,4451.025879,4457.692383,4367.436035,4362.692383,2985.000000,2.000000,49.000000,,,,0.000000,4.000000,4.000000,4.000000,4.000000,4.000000,4.000000,4.000000,4.000000,4.000000,4.000000,4.000000,4.000000,4.000000,4.000000,100.000000,,,,,,,,,,,,,,,,,,,,,,,,,,,,,,,,,,,,,,,,,,,,,,,
1665776764.148284,1665776764.149179,98.000000,0.000000,4263.974121,4247.948730,4277.436035,4286.794922,4282.436035,4281.410156,4295.000000,4308.205078,4278.205078,4275.641113,4444.871582,4453.717773,4362.820313,4354.230957,2560.000000,2.000000,49.000000,,,,0.000000,4.000000,4.000000,4.000000,4.000000,4.000000,4.000000,4.000000,4.000000,4.000000,4.000000,4.000000,4.000000,4.000000,4.000000,100.000000,,,,,,,,,,,,,,,,,,,,,,,,,,,,,,,,,,,,,,,,,,,,,,,
1665776764.156093,1665776764.156888,99.000000,0.000000,4266.153809,4251.282227,4280.512695,4287.051270,4281.025879,4292.820313,4299.487305,4309.358887,4280.256348,4276.153809,4454.871582,4468.846191,4374.358887,4366.153809,2747.000000,2.000000,49.000000,,,,0.000000,4.000000,4.000000,4.000000,4.000000,4.000000,4.000000,4.000000,4.000000,4.000000,4.000000,4.000000,4.000000,4.000000,4.000000,100.000000,,,,,,,,,,,,,,,,,,,,,,,,,,,,,,,,,,,,,,,,,,,,,,,
1665776764.163901,1665776764.164696,100.000000,0.000000,4270.769043,4250.256348,4280.769043,4293.717773,4278.846191,4295.641113,4306.794922,4312.692383,4280.384766,4275.512695,4463.461426,4477.563965,4381.666504,4384.102539,2840.000000,2.000000,49.000000,,,,0.000000,4.000000,4.000000,4.000000,4.000000,4.000000,4.000000,4.000000,4.000000,4.000000,4.000000,4.000000,4.000000,4.000000,4.000000,100.000000,,,,,,,,,,,,,,,,,,,,,,,,,,,,,,,,,,,,,,,,,,,,,,,
1665776764.171710,1665776764.172405,101.000000,0.000000,4271.538574,4251.922852,4284.358887,4298.974121,4278.589844,4291.153809,4309.230957,4312.692383,4278.974121,4276.794922,4460.769043,4465.000000,4376.794922,4384.871582,2985.000000,2.000000,49.000000,,,,0.000000,4.000000,4.000000,4.000000,4.000000,4.000000,4.000000,4.000000,4.000000,4.000000,4.000000,4.000000,4.000000,4.000000,4.000000,100.000000,,,,,,,,,,,,,,,,,,,,,,,,,,,,,,,,,,,,,,,,,,,,,,,
1665776764.179518,1665776764.180313,102.000000,0.000000,4266.025879,4249.743652,4283.589844,4297.692383,4277.948730,4292.692383,4301.922852,4310.128418,4278.461426,4281.410156,4456.922852,4454.102539,4376.922852,4372.307617,2560.000000,2.000000,49.000000,,,,0.000000,4.000000,4.000000,4.000000,4.000000,4.000000,4.000000,4.000000,4.000000,4.000000,4.000000,4.000000,4.000000,4.000000,4.000000,100.000000,,,,,,,,,,,,,,,,,,,,,,,,,,,,,,,,,,,,,,,,,,,,,,,
1665776764.187327,1665776764.188122,103.000000,0.000000,4260.384766,4245.000000,4268.333496,4290.512695,4278.461426,4286.794922,4295.512695,4308.077148,4280.769043,4281.922852,4455.128418,4456.538574,4379.743652,4364.230957,2747.000000,2.000000,49.000000,,,,0.000000,4.000000,4.000000,4.000000,4.000000,4.000000,4.000000,4.000000,4.000000,4.000000,4.000000,4.000000,4.000000,4.000000,4.000000,100.000000,,,,,,,,,,,,,,,,,,,,,,,,,,,,,,,,,,,,,,,,,,,,,,,
1665776764.195135,1665776764.196030,104.000000,0.000000,4262.563965,4246.922852,4265.641113,4289.358887,4278.717773,4277.948730,4295.256348,4308.205078,4288.846191,4279.230957,4458.846191,4458.077148,4375.512695,4368.846191,2840.000000,2.000000,49.000000,,,,0.000000,4.000000,4.000000,4.000000,4.000000,4.000000,4.000000,4.000000,4.000000,4.000000,4.000000,4.000000,4.000000,4.000000,4.000000,100.000000,,,,,,,,,,,,,,,,,,,,,,,,,,,,,,,,,,,,,,,,,,,,,,,
1665776764.202943,1665776764.203838,105.000000,0.000000,4262.820313,4249.102539,4277.179688,4291.153809,4279.102539,4284.230957,4296.025879,4310.000000,4294.230957,4278.333496,4460.897461,4456.538574,4371.666504,4377.563965,2985.000000,2.000000,49.000000,,,,0.000000,4.000000,4.000000,4.000000,4.000000,4.000000,4.000000,4.000000,4.000000,4.000000,4.000000,4.000000,4.000000,4.000000,4.000000,100.000000,,,,,,,,,,,,,,,,,,,,,,,,,,,,,,,,,,,,,,,,,,,,,,,
1665776764.210752,1665776764.211747,106.000000,0.000000,4256.666504,4246.794922,4274.230957,4290.512695,4280.897461,4289.358887,4295.769043,4310.769043,4296.410156,4281.666504,4458.077148,4460.000000,4373.846191,4377.179688,2560.000000,2.000000,49.000000,,,,0.000000,4.000000,4.000000,4.000000,4.000000,4.000000,4.000000,4.000000,4.000000,4.000000,4.000000,4.000000,4.000000,4.000000,4.000000,100.000000,,,,,,,,,,,,,,,,,,,,,,,,,,,,,,,,,,,,,,,,,,,,,,,
1665776764.218560,1665776764.219555,107.000000,0.000000,4254.102539,4246.794922,4263.589844,4288.333496,4280.641113,4284.102539,4297.051270,4311.922852,4305.512695,4284.615234,4459.871582,4462.563965,4372.692383,4369.743652,2747.000000,2.000000,49.000000,,,,0.000000,4.000000,4.000000,4.000000,4.000000,4.000000,4.000000,4.000000,4.000000,4.000000,4.000000,4.000000,4.000000,4.000000,4.000000,100.000000,,,,,,,,,,,,,,,,,,,,,,,,,,,,,,,,,,,,,,,,,,,,,,,
1665776764.226369,1665776764.227464,108.000000,0.000000,4252.179688,4248.589844,4266.153809,4283.077148,4277.051270,4282.179688,4298.461426,4312.436035,4314.230957,4282.307617,4460.897461,4458.846191,4366.794922,4365.769043,2840.000000,2.000000,49.000000,,,,0.000000,4.000000,4.000000,4.000000,4.000000,4.000000,4.000000,4.000000,4.000000,4.000000,4.000000,4.000000,4.000000,4.000000,4.000000,100.000000,,,,,,,,,,,,,,,,,,,,,,,,,,,,,,,,,,,,,,,,,,,,,,,
1665776764.234177,1665776764.235272,109.000000,0.000000,4249.102539,4248.077148,4271.922852,4278.974121,4276.538574,4282.820313,4299.487305,4308.333496,4313.461426,4278.589844,4456.153809,4455.128418,4365.512695,4366.410156,2985.000000,2.000000,49.000000,,,,0.000000,4.000000,4.000000,4.000000,4.000000,4.000000,4.000000,4.000000,4.000000,4.000000,4.000000,4.000000,4.000000,4.000000,4.000000,100.000000,,,,,,,,,,,,,,,,,,,,,,,,,,,,,,,,,,,,,,,,,,,,,,,
1665776764.241985,1665776764.243180,110.000000,0.000000,4254.230957,4248.717773,4275.128418,4286.794922,4280.512695,4282.179688,4300.256348,4309.871582,4311.794922,4282.051270,4456.794922,4460.128418,4371.153809,4366.153809,2560.000000,2.000000,49.000000,,,,0.000000,4.000000,4.000000,4.000000,4.000000,4.000000,4.000000,4.000000,4.000000,4.000000,4.000000,4.000000,4.000000,4.000000,4.000000,100.000000,,,,,,,,,,,,,,,,,,,,,,,,,,,,,,,,,,,,,,,,,,,,,,,
1665776764.249794,1665776764.250989,111.000000,0.000000,4263.589844,4249.487305,4277.051270,4298.205078,4281.410156,4283.205078,4297.051270,4314.230957,4312.948730,4283.974121,4462.179688,4465.128418,4374.487305,4366.025879,2747.000000,2.000000,49.000000,,,,0.000000,4.000000,4.000000,4.000000,4.000000,4.000000,4.000000,4.000000,4.000000,4.000000,4.000000,4.000000,4.000000,4.000000,4.000000,100.000000,,,,,,,,,,,,,,,,,,,,,,,,,,,,,,,,,,,,,,,,,,,,,,,
1665776764.257602,1665776764.258697,112.000000,0.000000,4255.512695,4247.051270,4268.717773,4293.717773,4279.230957,4282.436035,4291.410156,4306.025879,4310.641113,4280.000000,4459.615234,4461.922852,4369.615234,4369.743652,2840.000000,2.000000,49.000000,,,,0.000000,4.000000,4.000000,4.000000,4.000000,4.000000,4.000000,4.000000,4.000000,4.000000,4.000000,4.000000,4.000000,4.000000,4.000000,100.000000,,,,,,,,,,,,,,,,,,,,,,,,,,,,,,,,,,,,,,,,,,,,,,,
1665776764.265411,1665776764.266506,113.000000,0.000000,4243.205078,4245.769043,4259.102539,4283.589844,4277.051270,4280.641113,4291.538574,4299.358887,4307.820313,4278.974121,4453.846191,4458.461426,4366.282227,4370.000000,2985.000000,2.000000,49.000000,,,,0.000000,4.000000,4.000000,4.000000,4.000000,4.000000,4.000000,4.000000,4.000000,4.000000,4.000000,4.000000,4.000000,4.000000,4.000000,100.000000,,,,,,,,,,,,,,,,,,,,,,,,,,,,,,,,,,,,,,,,,,,,,,,
1665776764.273219,1665776764.274214,114.000000,0.000000,4246.538574,4246.282227,4259.358887,4287.948730,4279.358887,4281.666504,4295.128418,4305.897461,4309.358887,4281.666504,4461.666504,4458.974121,4371.410156,4369.358887,2560.000000,2.000000,49.000000,,,,0.000000,4.000000,4.000000,4.000000,4.000000,4.000000,4.000000,4.000000,4.000000,4.000000,4.000000,4.000000,4.000000,4.000000,4.000000,100.000000,,,,,,,,,,,,,,,,,,,,,,,,,,,,,,,,,,,,,,,,,,,,,,,
1665776764.281027,1665776764.282023,115.000000,0.000000,4251.794922,4249.487305,4263.846191,4298.205078,4282.948730,4283.589844,4298.333496,4315.000000,4317.563965,4283.717773,4471.538574,4462.307617,4380.000000,4379.102539,2747.000000,2.000000,49.000000,,,,0.000000,4.000000,4.000000,4.000000,4.000000,4.000000,4.000000,4.000000,4.000000,4.000000,4.000000,4.000000,4.000000,4.000000,4.000000,100.000000,,,,,,,,,,,,,,,,,,,,,,,,,,,,,,,,,,,,,,,,,,,,,,,
1665776764.288836,1665776764.289731,116.000000,0.000000,4248.077148,4252.051270,4266.666504,4290.128418,4280.769043,4282.051270,4299.358887,4309.615234,4320.256348,4281.666504,4463.846191,4460.128418,4377.307617,4380.512695,2840.000000,2.000000,49.000000,,,,0.000000,4.000000,4.000000,4.000000,4.000000,4.000000,4.000000,4.000000,4.000000,4.000000,4.000000,4.000000,4.000000,4.000000,4.000000,100.000000,,,,,,,,,,,,,,,,,,,,,,,,,,,,,,,,,,,,,,,,,,,,,,,
1665776764.296644,1665776764.297540,117.000000,0.000000,4245.641113,4248.077148,4269.358887,4279.230957,4276.666504,4277.692383,4295.384766,4298.846191,4312.307617,4277.179688,4452.436035,4452.179688,4361.666504,4363.846191,2985.000000,2.000000,49.000000,,,,0.000000,4.000000,4.000000,4.000000,4.000000,4.000000,4.000000,4.000000,4.000000,4.000000,4.000000,4.000000,4.000000,4.000000,4.000000,100.000000,,,,,,,,,,,,,,,,,,,,,,,,,,,,,,,,,,,,,,,,,,,,,,,
1665776764.304453,1665776764.305248,118.000000,0.000000,4256.666504,4252.179688,4278.205078,4294.871582,4278.589844,4280.769043,4295.769043,4302.051270,4312.436035,4277.051270,4457.820313,4459.743652,4362.436035,4363.974121,2560.000000,2.000000,49.000000,,,,0.000000,4.000000,4.000000,4.000000,4.000000,4.000000,4.000000,4.000000,4.000000,4.000000,4.000000,4.000000,4.000000,4.000000,4.000000,100.000000,1.000000,100.000000,4.000000,4.000000,4.000000,4.000000,4.000000,4.000000,4.000000,4.000000,4.000000,4.000000,4.000000,4.000000,4.000000,4.000000,1.000000,0.698540,-0.309475,-1.467313,0.116359,1.000000,0.037445,2.545382,2.148477,12.748143,0.083172,1.000000,0.208394,31.670738,-95.004761,448.497131,1.000000,0.268954,0.122455,-0.018318,0.433388,1.000000,0.318950,3.209035,-5.136696,19.148035,1.000000,0.219596,0.219596,0.000000,1.000000
1665776764.312261,1665776764.313057,119.000000,0.000000,4268.077148,4264.871582,4284.871582,4308.333496,4280.512695,4286.922852,4300.384766,4308.077148,4321.153809,4281.666504,4465.256348,4478.461426,4379.102539,4384.358887,2747.000000,2.000000,49.000000,,,,0.000000,4.000000,4.000000,4.000000,4.000000,4.000000,4.000000,4.000000,4.000000,4.000000,4.000000,4.000000,4.000000,4.000000,4.000000,100.000000,,,,,,,,,,,,,,,,,,,,,,,,,,,,,,,,,,,,,,,,,,,,,,,
1665776764.320069,1665776764.320765,120.000000,0.000000,4262.692383,4264.871582,4282.563965,4296.410156,4277.692383,4284.615234,4294.102539,4298.846191,4315.897461,4279.871582,4459.871582,4478.974121,4377.307617,4384.871582,2840.000000,2.000000,49.000000,,,,0.000000,4.000000,4.000000,4.000000,4.000000,4.000000,4.000000,4.000000,4.000000,4.000000,4.000000,4.000000,4.000000,4.000000,4.000000,100.000000,,,,,,,,,,,,,,,,,,,,,,,,,,,,,,,,,,,,,,,,,,,,,,,
1665776764.327878,1665776764.328574,121.000000,0.000000,4258.717773,4257.051270,4284.102539,4292.820313,4280.512695,4283.717773,4288.461426,4292.307617,4309.743652,4275.000000,4454.358887,4470.000000,4365.897461,4379.743652,2985.000000,2.000000,49.000000,,,,0.000000,4.000000,4.000000,4.000000,4.000000,4.000000,4.000000,4.000000,4.000000,4.000000,4.000000,4.000000,4.000000,4.000000,4.000000,100.000000,,,,,,,,,,,,,,,,,,,,,,,,,,,,,,,,,,,,,,,,,,,,,,,
1665776764.335686,1665776764.336282,122.000000,0.000000,4268.333496,4267.051270,4296.153809,4308.717773,4291.282227,4290.000000,4298.974121,4305.769043,4321.538574,4280.000000,4462.692383,4473.717773,4371.410156,4395.641113,2560.000000,2.000000,49.000000,,,,0.000000,4.000000,4.000000,4.000000,4.000000,4.000000,4.000000,4.000000,4.000000,4.000000,4.000000,4.000000,4.000000,4.000000,4.000000,100.000000,,,,,,,,,,,,,,,,,,,,,,,,,,,,,,,,,,,,,,,,,,,,,,,
1665776764.343495,1665776764.344091,123.000000,0.000000,4276.666504,4278.589844,4301.282227,4313.717773,4297.179688,4291.025879,4306.538574,4313.974121,4328.717773,4282.051270,4471.922852,4477.820313,4380.769043,4406.153809,2747.000000,2.000000,49.000000,,,,0.000000,4.000000,4.000000,4.000000,4.000000,4.000000,4.000000,4.000000,4.000000,4.000000,4.000000,4.000000,4.000000,4.000000,4.000000,100.000000,,,,,,,,,,,,,,,,,,,,,,,,,,,,,,,,,,,,,,,,,,,,,,,
1665776764.351303,1665776764.351799,124.000000,0.000000,4273.717773,4272.948730,4297.179688,4306.794922,4290.641113,4293.333496,4307.692383,4309.230957,4326.666504,4272.563965,4468.077148,4476.282227,4377.692383,4397.820313,2840.000000,2.000000,49.000000,,,,0.000000,4.000000,4.000000,4.000000,4.000000,4.000000,4.000000,4.000000,4.000000,4.000000,4.000000,4.000000,4.000000,4.000000,4.000000,100.000000,,,,,,,,,,,,,,,,,,,,,,,,,,,,,,,,,,,,,,,,,,,,,,,
1665776764.359111,1665776764.359608,125.000000,0.000000,4269.871582,4269.487305,4298.846191,4308.974121,4279.358887,4300.897461,4312.051270,4311.922852,4329.871582,4270.769043,4462.436035,4476.410156,4376.794922,4394.743652,2985.000000,2.000000,49.000000,,,,0.000000,4.000000,4.000000,4.000000,4.000000,4.000000,4.000000,4.000000,4.000000,4.000000,4.000000,4.000000,4.000000,4.000000,4.000000,100.000000,,,,,,,,,,,,,,,,,,,,,,,,,,,,,,,,,,,,,,,,,,,,,,,
1665776764.366920,1665776764.367316,126.000000,0.000000,4269.487305,4271.282227,4297.948730,4305.128418,4276.922852,4291.794922,4305.641113,4310.641113,4331.153809,4279.743652,4460.769043,4472.436035,4377.307617,4395.641113,2560.000000,2.000000,49.000000,,,,0.000000,4.000000,4.000000,4.000000,4.000000,4.000000,4.000000,4.000000,4.000000,4.000000,4.000000,4.000000,4.000000,4.000000,4.000000,100.000000,,,,,,,,,,,,,,,,,,,,,,,,,,,,,,,,,,,,,,,,,,,,,,,
1665776764.374728,1665776764.375225,127.000000,0.000000,4271.282227,4264.615234,4288.846191,4292.948730,4281.025879,4276.666504,4293.717773,4300.000000,4326.538574,4280.384766,4461.025879,4469.743652,4375.512695,4389.615234,49.000000,2.000000,49.000000,,,,0.000000,4.000000,4.000000,4.000000,4.000000,4.000000,4.000000,4.000000,4.000000,4.000000,4.000000,4.000000,4.000000,4.000000,4.000000,100.000000,,,,,,,,,,,,,,,,,,,,,,,,,,,,,,,,,,,,,,,,,,,,,,,
1665776764.382537,1665776764.383033,0.000000,0.000000,4275.897461,4262.051270,4288.846191,4299.230957,4281.538574,4281.025879,4294.230957,4299.358887,4326.922852,4278.077148,4465.641113,4475.128418,4380.000000,4393.205078,2221.000000,2.000000,49.000000,,,,0.000000,4.000000,4.000000,4.000000,4.000000,4.000000,4.000000,4.000000,4.000000,4.000000,4.000000,4.000000,4.000000,4.000000,4.000000,100.000000,,,,,,,,,,,,,,,,,,,,,,,,,,,,,,,,,,,,,,,,,,,,,,,
1665776764.390345,1665776764.390941,1.000000,0.000000,4277.051270,4274.743652,4294.615234,4314.743652,4285.128418,4286.666504,4296.666504,4307.307617,4331.282227,4285.769043,4469.358887,4476.666504,4383.974121,4406.794922,2129.000000,2.000000,49.000000,,,,0.000000,4.000000,4.000000,4.000000,4.000000,4.000000,4.000000,4.000000,4.000000,4.000000,4.000000,4.000000,4.000000,4.000000,4.000000,100.000000,,,,,,,,,,,,,,,,,,,,,,,,,,,,,,,,,,,,,,,,,,,,,,,
1665776764.398153,1665776764.398750,2.000000,0.000000,4275.769043,4283.205078,4297.051270,4314.102539,4291.794922,4282.692383,4294.487305,4309.487305,4331.666504,4289.743652,4464.743652,4475.128418,4380.769043,4407.948730,1933.000000,2.000000,49.000000,,,,0.000000,4.000000,4.000000,4.000000,4.000000,4.000000,4.000000,4.000000,4.000000,4.000000,4.000000,4.000000,4.000000,4.000000,4.000000,100.000000,,,,,,,,,,,,,,,,,,,,,,,,,,,,,,,,,,,,,,,,,,,,,,,
1665776764.405962,1665776764.406658,3.000000,0.000000,4278.205078,4283.589844,4296.922852,4308.333496,4290.256348,4281.410156,4294.743652,4306.410156,4332.692383,4285.000000,4464.871582,4474.871582,4378.461426,4401.410156,2271.000000,2.000000,49.000000,,,,0.000000,4.000000,4.000000,4.000000,4.000000,4.000000,4.000000,4.000000,4.000000,4.000000,4.000000,4.000000,4.000000,4.000000,4.000000,100.000000,,,,,,,,,,,,,,,,,,,,,,,,,,,,,,,,,,,,,,,,,,,,,,,
1665776764.413770,1665776764.414467,4.000000,0.000000,4277.307617,4284.871582,4293.333496,4309.871582,4280.769043,4280.769043,4295.512695,4301.282227,4331.922852,4281.410156,4469.102539,4469.102539,4380.897461,4398.717773,2211.000000,2.000000,49.000000,,,,0.000000,4.000000,4.000000,4.000000,4.000000,4.000000,4.000000,4.000000,4.000000,4.000000,4.000000,4.000000,4.000000,4.000000,4.000000,100.000000,,,,,,,,,,,,,,,,,,,,,,,,,,,,,,,,,,,,,,,,,,,,,,,
1665776764.421579,1665776764.422375,5.000000,0.000000,4269.487305,4283.333496,4288.846191,4310.000000,4277.563965,4278.461426,4292.948730,4296.153809,4328.589844,4283.077148,4465.769043,4467.563965,4381.538574,4395.769043,2129.000000,2.000000,49.000000,,,,0.000000,4.000000,4.000000,4.000000,4.000000,4.000000,4.000000,4.000000,4.000000,4.000000,4.000000,4.000000,4.000000,4.000000,4.000000,100.000000,,,,,,,,,,,,,,,,,,,,,,,,,,,,,,,,,,,,,,,,,,,,,,,
1665776764.429387,1665776764.430183,6.000000,0.000000,4266.538574,4279.743652,4285.512695,4301.666504,4281.153809,4280.641113,4287.692383,4294.487305,4326.153809,4282.692383,4461.666504,4468.717773,4379.615234,4387.179688,1940.000000,2.000000,49.000000,,,,0.000000,4.000000,4.000000,4.000000,4.000000,4.000000,4.000000,4.000000,4.000000,4.000000,4.000000,4.000000,4.000000,4.000000,4.000000,100.000000,,,,,,,,,,,,,,,,,,,,,,,,,,,,,,,,,,,,,,,,,,,,,,,
1665776764.437196,1665776764.438092,7.000000,0.000000,4269.743652,4277.948730,4278.846191,4292.436035,4280.769043,4281.794922,4280.384766,4293.717773,4325.769043,4281.153809,4459.102539,4460.769043,4378.589844,4383.333496,2155.000000,2.000000,49.000000,,,,0.000000,4.000000,4.000000,4.000000,4.000000,4.000000,4.000000,4.000000,4.000000,4.000000,4.000000,4.000000,4.000000,4.000000,4.000000,100.000000,,,,,,,,,,,,,,,,,,,,,,,,,,,,,,,,,,,,,,,,,,,,,,,
1665776764.445004,1665776764.445900,8.000000,0.000000,4269.487305,4276.794922,4273.333496,4295.769043,4278.333496,4279.230957,4276.794922,4292.051270,4325.641113,4282.692383,4454.871582,4454.230957,4378.589844,4388.205078,2085.000000,2.000000,49.000000,,,,0.000000,4.000000,4.000000,4.000000,4.000000,4.000000,4.000000,4.000000,4.000000,4.000000,4.000000,4.000000,4.000000,4.000000,4.000000,100.000000,,,,,,,,,,,,,,,,,,,,,,,,,,,,,,,,,,,,,,,,,,,,,,,
1665776764.452812,1665776764.453609,9.000000,0.000000,4272.563965,4277.051270,4279.615234,4308.077148,4278.461426,4278.846191,4284.102539,4298.846191,4327.051270,4285.897461,4459.102539,4461.153809,4381.794922,4393.333496,1715.000000,2.000000,49.000000,,,,0.000000,4.000000,4.000000,4.000000,4.000000,4.000000,4.000000,4.000000,4.000000,4.000000,4.000000,4.000000,4.000000,4.000000,4.000000,100.000000,,,,,,,,,,,,,,,,,,,,,,,,,,,,,,,,,,,,,,,,,,,,,,,
1665776764.460621,1665776764.461417,10.000000,0.000000,4276.922852,4283.333496,4289.743652,4311.025879,4281.794922,4279.871582,4294.358887,4310.256348,4334.743652,4287.692383,4474.102539,4468.077148,4385.000000,4393.846191,2573.000000,2.000000,49.000000,,,,0.000000,4.000000,4.000000,4.000000,4.000000,4.000000,4.000000,4.000000,4.000000,4.000000,4.000000,4.000000,4.000000,4.000000,4.000000,100.000000,,,,,,,,,,,,,,,,,,,,,,,,,,,,,,,,,,,,,,,,,,,,,,,
1665776764.468429,1665776764.469126,11.000000,0.000000,4276.025879,4290.128418,4294.871582,4307.692383,4282.692383,4279.102539,4296.794922,4314.358887,4336.666504,4284.102539,4476.282227,4469.487305,4380.000000,4391.282227,2763.000000,2.000000,49.000000,,,,0.000000,4.000000,4.000000,4.000000,4.000000,4.000000,4.000000,4.000000,4.000000,4.000000,4.000000,4.000000,4.000000,4.000000,4.000000,100.000000,,,,,,,,,,,,,,,,,,,,,,,,,,,,,,,,,,,,,,,,,,,,,,,
1665776764.476238,1665776764.476934,12.000000,0.000000,4278.846191,4293.974121,4298.205078,4310.512695,4277.563965,4275.000000,4297.948730,4313.589844,4329.230957,4279.871582,4465.512695,4471.666504,4375.641113,4389.358887,2849.000000,2.000000,49.000000,,,,0.000000,4.000000,4.000000,4.000000,4.000000,4.000000,4.000000,4.000000,4.000000,4.000000,4.000000,4.000000,4.000000,4.000000,4.000000,100.000000,,,,,,,,,,,,,,,,,,,,,,,,,,,,,,,,,,,,,,,,,,,,,,,
1665776764.484046,1665776764.484643,13.000000,0.000000,4283.589844,4297.948730,4298.205078,4314.358887,4277.051270,4275.384766,4299.871582,4310.128418,4325.897461,4281.538574,4464.743652,4473.589844,4381.153809,4386.410156,3002.000000,2.000000,49.000000,,,,0.000000,4.000000,4.000000,4.000000,4.000000,4.000000,4.000000,4.000000,4.000000,4.000000,4.000000,4.000000,4.000000,4.000000,4.000000,100.000000,,,,,,,,,,,,,,,,,,,,,,,,,,,,,,,,,,,,,,,,,,,,,,,
1665776764.491854,1665776764.492451,14.000000,0.000000,4280.384766,4298.205078,4292.820313,4311.538574,4283.846191,4281.153809,4297.820313,4303.461426,4326.794922,4284.102539,4474.102539,4477.051270,4386.410156,4387.307617,2573.000000,2.000000,49.000000,,,,0.000000,4.000000,4.000000,4.000000,4.000000,4.000000,4.000000,4.000000,4.000000,4.000000,4.000000,4.000000,4.000000,4.000000,4.000000,100.000000,,,,,,,,,,,,,,,,,,,,,,,,,,,,,,,,,,,,,,,,,,,,,,,
1665776764.499663,1665776764.500160,15.000000,0.000000,4283.205078,4294.743652,4291.538574,4309.615234,4287.692383,4277.820313,4290.512695,4295.128418,4322.948730,4284.102539,4477.820313,4478.205078,4386.794922,4398.589844,2763.000000,2.000000,49.000000,,,,0.000000,4.000000,4.000000,4.000000,4.000000,4.000000,4.000000,4.000000,4.000000,4.000000,4.000000,4.000000,4.000000,4.000000,4.000000,100.000000,,,,,,,,,,,,,,,,,,,,,,,,,,,,,,,,,,,,,,,,,,,,,,,
1665776764.507471,1665776764.507968,16.000000,0.000000,4300.000000,4302.563965,4302.563965,4315.769043,4291.410156,4280.384766,4288.717773,4295.128418,4323.205078,4289.358887,4476.282227,4478.717773,4393.974121,4411.794922,0.000000,2.000000,49.000000,,,,0.000000,4.000000,4.000000,4.000000,4.000000,4.000000,4.000000,4.000000,4.000000,4.000000,4.000000,4.000000,4.000000,4.000000,4.000000,100.000000,,,,,,,,,,,,,,,,,,,,,,,,,,,,,,,,,,,,,,,,,,,,,,,
1665776764.515280,1665776764.515677,17.000000,0.000000,4302.820313,4310.897461,4306.794922,4325.384766,4299.230957,4294.743652,4289.487305,4301.025879,4328.077148,4293.717773,4473.333496,4476.922852,4393.461426,4411.025879,0.000000,2.000000,49.000000,,,,0.000000,4.000000,4.000000,4.000000,4.000000,4.000000,4.000000,4.000000,4.000000,4.000000,4.000000,4.000000,4.000000,4.000000,4.000000,100.000000,,,,,,,,,,,,,,,,,,,,,,,,,,,,,,,,,,,,,,,,,,,,,,,
1665776764.523088,1665776764.523585,18.000000,0.000000,4286.794922,4302.179688,4296.410156,4324.487305,4298.974121,4291.538574,4285.641113,4302.692383,4327.820313,4289.487305,4470.384766,4470.000000,4379.230957,4399.358887,0.000000,2.000000,49.000000,,,,0.000000,4.000000,4.000000,4.000000,4.000000,4.000000,4.000000,4.000000,4.000000,4.000000,4.000000,4.000000,4.000000,4.000000,4.000000,100.000000,,,,,,,,,,,,,,,,,,,,,,,,,,,,,,,,,,,,,,,,,,,,,,,
1665776764.530897,1665776764.531394,19.000000,0.000000,4285.897461,4293.205078,4294.102539,4318.333496,4294.615234,4277.692383,4285.897461,4302.563965,4325.256348,4288.333496,4469.230957,4465.384766,4374.743652,4389.102539,0.000000,2.000000,49.000000,,,,0.000000,4.000000,4.000000,4.000000,4.000000,4.000000,4.000000,4.000000,4.000000,4.000000,4.000000,4.000000,4.000000,4.000000,4.000000,100.000000,,,,,,,,,,,,,,,,,,,,,,,,,,,,,,,,,,,,,,,,,,,,,,,
1665776764.538705,1665776764.539202,20.000000,0.000000,4291.794922,4292.307617,4293.077148,4312.179688,4296.153809,4282.820313,4290.897461,4304.487305,4322.820313,4286.922852,4464.230957,4463.205078,4373.974121,4381.410156,0.000000,2.000000,49.000000,,,,0.000000,4.000000,4.000000,4.000000,4.000000,4.000000,4.000000,4.000000,4.000000,4.000000,4.000000,4.000000,4.000000,4.000000,4.000000,100.000000,,,,,,,,,,,,,,,,,,,,,,,,,,,,,,,,,,,,,,,,,,,,,,,
1665776764.546513,1665776764.546911,21.000000,0.000000,4271.922852,4277.179688,4272.436035,4294.230957,4289.358887,4283.205078,4286.410156,4299.487305,4312.563965,4273.077148,4447.436035,4451.538574,4352.307617,4367.563965,0.000000,2.000000,49.000000,,,,0.000000,4.000000,4.000000,4.000000,4.000000,4.000000,4.000000,4.000000,4.000000,4.000000,4.000000,4.000000,4.000000,4.000000,4.000000,100.000000,,,,,,,,,,,,,,,,,,,,,,,,,,,,,,,,,,,,,,,,,,,,,,,
1665776764.554322,1665776764.554719,22.000000,0.000000,4249.743652,4257.307617,4253.974121,4274.358887,4275.000000,4265.384766,4274.871582,4283.589844,4297.563965,4259.230957,4423.974121,4434.487305,4329.230957,4352.179688,0.000000,2.000000,49.000000,,,,0.000000,4.000000,4.000000,4.000000,4.000000,4.000000,4.000000,4.000000,4.000000,4.000000,4.000000,4.000000,4.000000,4.000000,4.000000,100.000000,,,,,,,,,,,,,,,,,,,,,,,,,,,,,,,,,,,,,,,,,,,,,,,
1665776764.562130,1665776764.562428,23.000000,0.000000,4263.974121,4265.000000,4266.794922,4283.846191,4276.025879,4265.384766,4283.717773,4282.820313,4296.025879,4266.282227,4423.846191,4440.256348,4339.487305,4361.666504,0.000000,2.000000,49.000000,,,,0.000000,4.000000,4.000000,4.000000,4.000000,4.000000,4.000000,4.000000,4.000000,4.000000,4.000000,4.000000,4.000000,4.000000,4.000000,100.000000,,,,,,,,,,,,,,,,,,,,,,,,,,,,,,,,,,,,,,,,,,,,,,,
1665776764.569939,1665776764.570336,24.000000,0.000000,4291.794922,4287.436035,4289.615234,4308.077148,4292.307617,4282.051270,4301.922852,4304.358887,4313.717773,4284.358887,4455.512695,4466.794922,4370.384766,4391.666504,0.000000,2.000000,49.000000,,,,0.000000,4.000000,4.000000,4.000000,4.000000,4.000000,4.000000,4.000000,4.000000,4.000000,4.000000,4.000000,4.000000,4.000000,4.000000,100.000000,,,,,,,,,,,,,,,,,,,,,,,,,,,,,,,,,,,,,,,,,,,,,,,
1665776764.577747,1665776764.578144,25.000000,0.000000,4301.153809,4297.051270,4294.358887,4312.436035,4302.307617,4283.974121,4299.358887,4311.410156,4322.563965,4289.743652,4473.846191,4481.025879,4385.769043,4404.358887,0.000000,2.000000,49.000000,,,,0.000000,4.000000,4.000000,4.000000,4.000000,4.000000,4.000000,4.000000,4.000000,4.000000,4.000000,4.000000,4.000000,4.000000,4.000000,100.000000,,,,,,,,,,,,,,,,,,,,,,,,,,,,,,,,,,,,,,,,,,,,,,,
1665776764.585555,1665776764.586053,26.000000,0.000000,4299.487305,4297.948730,4290.641113,4313.461426,4301.922852,4277.563965,4290.769043,4301.794922,4311.538574,4282.948730,4464.743652,4478.589844,4380.512695,4397.692383,0.000000,2.000000,49.000000,,,,0.000000,4.000000,4.000000,4.000000,4.000000,4.000000,4.000000,4.000000,4.000000,4.000000,4.000000,4.000000,4.000000,4.000000,4.000000,100.000000,,,,,,,,,,,,,,,,,,,,,,,,,,,,,,,,,,,,,,,,,,,,,,,
1665776764.593364,1665776764.593861,27.000000,0.000000,4297.436035,4299.487305,4295.641113,4321.025879,4305.769043,4285.128418,4296.282227,4305.256348,4312.692383,4280.769043,4463.589844,4475.000000,4373.846191,4396.922852,0.000000,2.000000,49.000000,,,,0.000000,4.000000,4.000000,4.000000,4.000000,4.000000,4.000000,4.000000,4.000000,4.000000,4.000000,4.000000,4.000000,4.000000,4.000000,100.000000,,,,,,,,,,,,,,,,,,,,,,,,,,,,,,,,,,,,,,,,,,,,,,,
1665776764.601172,1665776764.601769,28.000000,0.000000,4294.871582,4299.487305,4294.358887,4319.358887,4312.051270,4292.948730,4302.820313,4314.230957,4328.974121,4283.077148,4466.025879,4467.948730,4368.717773,4391.153809,0.000000,2.000000,49.000000,,,,0.000000,4.000000,4.000000,4.000000,4.000000,4.000000,4.000000,4.000000,4.000000,4.000000,4.000000,4.000000,4.000000,4.000000,4.000000,100.000000,,,,,,,,,,,,,,,,,,,,,,,,,,,,,,,,,,,,,,,,,,,,,,,
1665776764.608981,1665776764.609578,29.000000,0.000000,4285.512695,4292.436035,4282.436035,4308.846191,4309.487305,4286.282227,4298.333496,4308.717773,4329.358887,4278.846191,4454.358887,4456.410156,4361.666504,4375.128418,0.000000,2.000000,49.000000,,,,0.000000,4.000000,4.000000,4.000000,4.000000,4.000000,4.000000,4.000000,4.000000,4.000000,4.000000,4.000000,4.000000,4.000000,4.000000,100.000000,,,,,,,,,,,,,,,,,,,,,,,,,,,,,,,,,,,,,,,,,,,,,,,
1665776764.616789,1665776764.617486,30.000000,0.000000,4280.000000,4288.589844,4282.820313,4301.666504,4301.922852,4281.922852,4298.461426,4306.025879,4326.025879,4279.871582,4451.538574,4456.794922,4363.461426,4375.256348,0.000000,2.000000,49.000000,,,,0.000000,4.000000,4.000000,4.000000,4.000000,4.000000,4.000000,4.000000,4.000000,4.000000,4.000000,4.000000,4.000000,4.000000,4.000000,100.000000,,,,,,,,,,,,,,,,,,,,,,,,,,,,,,,,,,,,,,,,,,,,,,,
1665776764.624597,1665776764.625295,31.000000,0.000000,4288.205078,4288.461426,4289.102539,4300.128418,4294.871582,4280.512695,4302.820313,4310.384766,4333.846191,4287.563965,4457.436035,4465.128418,4367.948730,4388.077148,0.000000,2.000000,49.000000,,,,0.000000,4.000000,4.000000,4.000000,4.000000,4.000000,4.000000,4.000000,4.000000,4.000000,4.000000,4.000000,4.000000,4.000000,4.000000,100.000000,,,,,,,,,,,,,,,,,,,,,,,,,,,,,,,,,,,,,,,,,,,,,,,
1665776764.632406,1665776764.633203,32.000000,0.000000,4298.717773,4287.563965,4290.897461,4302.948730,4296.025879,4283.846191,4305.000000,4311.666504,4337.948730,4290.641113,4458.589844,4473.333496,4368.846191,4396.025879,0.000000,2.000000,49.000000,,,,0.000000,4.000000,4.000000,4.000000,4.000000,4.000000,4.000000,4.000000,4.000000,4.000000,4.000000,4.000000,4.000000,4.000000,4.000000,100.000000,,,,,,,,,,,,,,,,,,,,,,,,,,,,,,,,,,,,,,,,,,,,,,,
1665776764.640214,1665776764.641012,33.000000,0.000000,4300.128418,4291.025879,4294.358887,4307.948730,4309.230957,4292.179688,4303.974121,4311.794922,4332.948730,4292.692383,4467.692383,4482.692383,4375.897461,4399.615234,0.000000,2.000000,49.000000,,,,0.000000,4.000000,4.000000,4.000000,4.000000,4.000000,4.000000,4.000000,4.000000,4.000000,4.000000,4.000000,4.000000,4.000000,4.000000,100.000000,,,,,,,,,,,,,,,,,,,,,,,,,,,,,,,,,,,,,,,,,,,,,,,
1665776764.648023,1665776764.648820,34.000000,0.000000,4295.769043,4292.563965,4289.871582,4304.230957,4310.000000,4288.846191,4297.436035,4311.282227,4325.897461,4291.153809,4472.051270,4480.256348,4374.102539,4394.102539,0.000000,2.000000,49.000000,,,,0.000000,4.000000,4.000000,4.000000,4.000000,4.000000,4.000000,4.000000,4.000000,4.000000,4.000000,4.000000,4.000000,4.000000,4.000000,100.000000,,,,,,,,,,,,,,,,,,,,,,,,,,,,,,,,,,,,,,,,,,,,,,,
1665776764.655831,1665776764.656628,35.000000,0.000000,4291.666504,4289.102539,4277.820313,4295.128418,4296.922852,4274.230957,4291.538574,4308.717773,4320.769043,4288.846191,4459.871582,4464.358887,4360.000000,4388.077148,0.000000,2.000000,49.000000,,,,0.000000,4.000000,4.000000,4.000000,4.000000,4.000000,4.000000,4.000000,4.000000,4.000000,4.000000,4.000000,4.000000,4.000000,4.000000,100.000000,,,,,,,,,,,,,,,,,,,,,,,,,,,,,,,,,,,,,,,,,,,,,,,
1665776764.663639,1665776764.664337,36.000000,0.000000,4293.333496,4290.000000,4281.282227,4296.538574,4297.307617,4274.871582,4294.487305,4308.846191,4319.871582,4290.897461,4457.692383,4458.846191,4360.384766,4393.205078,0.000000,2.000000,49.000000,,,,0.000000,4.000000,4.000000,4.000000,4.000000,4.000000,4.000000,4.000000,4.000000,4.000000,4.000000,4.000000,4.000000,4.000000,4.000000,100.000000,,,,,,,,,,,,,,,,,,,,,,,,,,,,,,,,,,,,,,,,,,,,,,,
1665776764.671448,1665776764.672145,37.000000,0.000000,4299.230957,4295.641113,4292.179688,4307.436035,4301.666504,4280.384766,4296.794922,4310.128418,4315.897461,4287.692383,4462.307617,4465.897461,4368.846191,4391.538574,0.000000,2.000000,49.000000,,,,0.000000,4.000000,4.000000,4.000000,4.000000,4.000000,4.000000,4.000000,4.000000,4.000000,4.000000,4.000000,4.000000,4.000000,4.000000,100.000000,,,,,,,,,,,,,,,,,,,,,,,,,,,,,,,,,,,,,,,,,,,,,,,
1665776764.679256,1665776764.679854,38.000000,0.000000,4298.333496,4297.179688,4294.487305,4309.743652,4294.871582,4271.538574,4294.487305,4309.358887,4313.077148,4278.461426,4458.461426,4471.538574,4365.384766,4386.153809,0.000000,2.000000,49.000000,,,,0.000000,4.000000,4.000000,4.000000,4.000000,4.000000,4.000000,4.000000,4.000000,4.000000,4.000000,4.000000,4.000000,4.000000,4.000000,100.000000,,,,,,,,,,,,,,,,,,,,,,,,,,,,,,,,,,,,,,,,,,,,,,,
1665776764.687065,1665776764.687662,39.000000,0.000000,4296.282227,4296.410156,4300.000000,4308.077148,4292.820313,4272.948730,4300.128418,4313.589844,4320.256348,4278.974121,4462.692383,4481.666504,4366.282227,4395.000000,0.000000,2.000000,49.000000,,,,0.000000,4.000000,4.000000,4.000000,4.000000,4.000000,4.000000,4.000000,4.000000,4.000000,4.000000,4.000000,4.000000,4.000000,4.000000,100.000000,,,,,,,,,,,,,,,,,,,,,,,,,,,,,,,,,,,,,,,,,,,,,,,
1665776764.694873,1665776764.695371,40.000000,0.000000,4300.512695,4298.717773,4307.051270,4312.563965,4297.563965,4282.820313,4308.333496,4321.794922,4321.410156,4286.282227,4471.282227,4494.871582,4377.051270,4399.102539,0.000000,2.000000,49.000000,,,,0.000000,4.000000,4.000000,4.000000,4.000000,4.000000,4.000000,4.000000,4.000000,4.000000,4.000000,4.000000,4.000000,4.000000,4.000000,100.000000,,,,,,,,,,,,,,,,,,,,,,,,,,,,,,,,,,,,,,,,,,,,,,,
1665776764.702681,1665776764.703179,41.000000,0.000000,4301.666504,4295.641113,4306.794922,4313.205078,4298.333496,4281.410156,4306.153809,4318.589844,4309.871582,4283.461426,4460.769043,4494.871582,4372.820313,4392.307617,0.000000,2.000000,49.000000,,,,0.000000,4.000000,4.000000,4.000000,4.000000,4.000000,4.000000,4.000000,4.000000,4.000000,4.000000,4.000000,4.000000,4.000000,4.000000,100.000000,,,,,,,,,,,,,,,,,,,,,,,,,,,,,,,,,,,,,,,,,,,,,,,
1665776764.710490,1665776764.710888,42.000000,0.000000,4298.077148,4295.000000,4304.871582,4310.128418,4298.589844,4280.128418,4301.538574,4312.051270,4304.871582,4278.974121,4452.179688,4486.282227,4362.948730,4392.179688,0.000000,2.000000,49.000000,,,,0.000000,4.000000,4.000000,4.000000,4.000000,4.000000,4.000000,4.000000,4.000000,4.000000,4.000000,4.000000,4.000000,4.000000,4.000000,100.000000,,,,,,,,,,,,,,,,,,,,,,,,,,,,,,,,,,,,,,,,,,,,,,,
1665776764.718298,1665776764.718696,43.000000,0.000000,4292.692383,4298.333496,4305.769043,4309.743652,4301.025879,4281.922852,4304.102539,4315.769043,4306.922852,4280.897461,4461.282227,4482.436035,4365.897461,4395.000000,0.000000,2.000000,49.000000,,,,0.000000,4.000000,4.000000,4.000000,4.000000,4.000000,4.000000,4.000000,4.000000,4.000000,4.000000,4.000000,4.000000,4.000000,4.000000,100.000000,,,,,,,,,,,,,,,,,,,,,,,,,,,,,,,,,,,,,,,,,,,,,,,
1665776764.726107,1665776764.726405,44.000000,0.000000,4281.794922,4296.153809,4302.948730,4306.922852,4296.794922,4278.333496,4302.948730,4316.025879,4301.025879,4285.384766,4464.743652,4479.743652,4371.153809,4393.333496,0.000000,2.000000,49.000000,,,,0.000000,4.000000,4.000000,4.000000,4.000000,4.000000,4.000000,4.000000,4.000000,4.000000,4.000000,4.000000,4.000000,4.000000,4.000000,100.000000,,,,,,,,,,,,,,,,,,,,,,,,,,,,,,,,,,,,,,,,,,,,,,,
1665776764.733915,1665776764.734213,45.000000,0.000000,4274.102539,4295.384766,4296.794922,4299.102539,4286.922852,4276.153809,4296.025879,4309.102539,4294.487305,4285.128418,4461.025879,4476.282227,4371.666504,4391.282227,0.000000,2.000000,49.000000,,,,0.000000,4.000000,4.000000,4.000000,4.000000,4.000000,4.000000,4.000000,4.000000,4.000000,4.000000,4.000000,4.000000,4.000000,4.000000,100.000000,,,,,,,,,,,,,,,,,,,,,,,,,,,,,,,,,,,,,,,,,,,,,,,
1665776764.741723,1665776764.741922,46.000000,0.000000,4279.743652,4301.153809,4296.666504,4299.102539,4280.897461,4274.358887,4295.769043,4308.846191,4295.128418,4280.128418,4463.974121,4474.743652,4372.563965,4387.436035,0.000000,2.000000,49.000000,,,,0.000000,4.000000,4.000000,4.000000,4.000000,4.000000,4.000000,4.000000,4.000000,4.000000,4.000000,4.000000,4.000000,4.000000,4.000000,100.000000,,,,,,,,,,,,,,,,,,,,,,,,,,,,,,,,,,,,,,,,,,,,,,,
1665776764.749532,1665776764.749730,47.000000,0.000000,4281.666504,4301.153809,4297.820313,4301.794922,4281.410156,4267.692383,4297.436035,4310.897461,4294.358887,4278.717773,4462.563965,4476.794922,4373.461426,4383.205078,0.000000,2.000000,49.000000,,,,0.000000,4.000000,4.000000,4.000000,4.000000,4.000000,4.000000,4.000000,4.000000,4.000000,4.000000,4.000000,4.000000,4.000000,4.000000,100.000000,,,,,,,,,,,,,,,,,,,,,,,,,,,,,,,,,,,,,,,,,,,,,,,
1665776764.757340,1665776764.757439,48.000000,0.000000,4272.051270,4293.846191,4293.717773,4296.538574,4282.307617,4273.717773,4296.538574,4309.230957,4291.153809,4283.974121,4457.051270,4484.358887,4373.974121,4385.256348,0.000000,2.000000,49.000000,,,,0.000000,4.000000,4.000000,4.000000,4.000000,4.000000,4.000000,4.000000,4.000000,4.000000,4.000000,4.000000,4.000000,4.000000,4.000000,100.000000,,,,,,,,,,,,,,,,,,,,,,,,,,,,,,,,,,,,,,,,,,,,,,,
1665776764.765149,1665776764.765247,49.000000,0.000000,4269.102539,4291.025879,4291.666504,4291.922852,4282.820313,4284.230957,4299.230957,4311.282227,4293.589844,4286.153809,4458.846191,4484.230957,4369.358887,4382.820313,0.000000,2.000000,49.000000,,,,0.000000,4.000000,4.000000,4.000000,4.000000,4.000000,4.000000,4.000000,4.000000,4.000000,4.000000,4.000000,4.000000,4.000000,4.000000,100.000000,,,,,,,,,,,,,,,,,,,,,,,,,,,,,,,,,,,,,,,,,,,,,,,
1665776764.772957,1665776764.772956,50.000000,0.000000,4275.384766,4292.179688,4294.358887,4295.000000,4286.025879,4281.025879,4300.641113,4312.948730,4297.307617,4281.666504,4460.769043,4475.897461,4362.820313,4377.948730,0.000000,2.000000,49.000000,,,,0.000000,4.000000,4.000000,4.000000,4.000000,4.000000,4.000000,4.000000,4.000000,4.000000,4.000000,4.000000,4.000000,4.000000,4.000000,100.000000,,,,,,,,,,,,,,,,,,,,,,,,,,,,,,,,,,,,,,,,,,,,,,,
1665776764.780766,1665776764.780864,51.000000,0.000000,4277.051270,4289.102539,4294.358887,4293.461426,4284.743652,4275.000000,4295.641113,4308.717773,4291.025879,4279.230957,4459.487305,4471.666504,4361.410156,4378.205078,0.000000,2.000000,49.000000,,,,0.000000,4.000000,4.000000,4.000000,4.000000,4.000000,4.000000,4.000000,4.000000,4.000000,4.000000,4.000000,4.000000,4.000000,4.000000,100.000000,,,,,,,,,,,,,,,,,,,,,,,,,,,,,,,,,,,,,,,,,,,,,,,
1665776764.788574,1665776764.788673,52.000000,0.000000,4274.871582,4288.974121,4296.794922,4294.743652,4282.563965,4271.410156,4293.974121,4304.230957,4281.666504,4280.000000,4458.461426,4472.436035,4361.410156,4375.512695,0.000000,2.000000,49.000000,,,,0.000000,4.000000,4.000000,4.000000,4.000000,4.000000,4.000000,4.000000,4.000000,4.000000,4.000000,4.000000,4.000000,4.000000,4.000000,100.000000,,,,,,,,,,,,,,,,,,,,,,,,,,,,,,,,,,,,,,,,,,,,,,,
1665776764.796382,1665776764.796581,53.000000,0.000000,4283.974121,4302.179688,4308.205078,4308.717773,4282.692383,4264.615234,4295.512695,4302.436035,4280.641113,4277.563965,4456.282227,4473.589844,4360.897461,4379.615234,0.000000,2.000000,49.000000,,,,0.000000,4.000000,4.000000,4.000000,4.000000,4.000000,4.000000,4.000000,4.000000,4.000000,4.000000,4.000000,4.000000,4.000000,4.000000,100.000000,,,,,,,,,,,,,,,,,,,,,,,,,,,,,,,,,,,,,,,,,,,,,,,
1665776764.804191,1665776764.804390,54.000000,0.000000,4294.743652,4312.692383,4314.487305,4309.102539,4282.563965,4265.769043,4296.025879,4303.077148,4282.820313,4275.897461,4457.436035,4476.666504,4367.692383,4389.230957,0.000000,2.000000,49.000000,,,,0.000000,4.000000,4.000000,4.000000,4.000000,4.000000,4.000000,4.000000,4.000000,4.000000,4.000000,4.000000,4.000000,4.000000,4.000000,100.000000,1.000000,100.000000,4.000000,4.000000,4.000000,4.000000,4.000000,4.000000,4.000000,4.000000,4.000000,4.000000,4.000000,4.000000,4.000000,4.000000,1.000000,0.700828,-0.233613,-1.466802,0.116438,1.000000,0.036202,2.532207,2.148477,12.748143,0.081155,1.000000,0.211022,32.598858,-95.840599,447.831421,1.000000,0.270137,0.134483,-0.018162,0.432964,1.000000,0.319323,3.276393,-5.161628,19.132130,1.000000,0.218624,0.218624,0.000000,1.000000
1665776764.811999,1665776764.812298,55.000000,0.000000,4288.589844,4302.692383,4304.358887,4293.461426,4285.000000,4274.230957,4295.512695,4303.077148,4281.666504,4279.358887,4454.487305,4478.589844,4368.846191,4381.794922,0.000000,2.000000,49.000000,,,,0.000000,4.000000,4.000000,4.000000,4.000000,4.000000,4.000000,4.000000,4.000000,4.000000,4.000000,4.000000,4.000000,4.000000,4.000000,100.000000,,,,,,,,,,,,,,,,,,,,,,,,,,,,,,,,,,,,,,,,,,,,,,,
1665776764.819808,1665776764.820106,56.000000,0.000000,4279.487305,4293.333496,4295.897461,4290.641113,4291.538574,4276.538574,4295.384766,4304.743652,4280.641113,4279.871582,4449.615234,4472.820313,4361.794922,4376.025879,0.000000,2.000000,49.000000,,,,0.000000,4.000000,4.000000,4.000000,4.000000,4.000000,4.000000,4.000000,4.000000,4.000000,4.000000,4.000000,4.000000,4.000000,4.000000,100.000000,,,,,,,,,,,,,,,,,,,,,,,,,,,,,,,,,,,,,,,,,,,,,,,
1665776764.827616,1665776764.828015,57.000000,0.000000,4288.846191,4305.512695,4305.641113,4303.974121,4300.384766,4280.641113,4296.538574,4310.641113,4281.538574,4280.384766,4460.897461,4474.743652,4370.384766,4399.358887,0.000000,2.000000,49.000000,,,,0.000000,4.000000,4.000000,4.000000,4.000000,4.000000,4.000000,4.000000,4.000000,4.000000,4.000000,4.000000,4.000000,4.000000,4.000000,100.000000,,,,,,,,,,,,,,,,,,,,,,,,,,,,,,,,,,,,,,,,,,,,,,,
1665776764.835425,1665776764.835823,58.000000,0.000000,4300.512695,4313.205078,4315.128418,4309.230957,4300.512695,4285.897461,4296.282227,4307.820313,4280.128418,4281.025879,4470.512695,4481.794922,4380.384766,4412.820313,0.000000,2.000000,49.000000,,,,0.000000,4.000000,4.000000,4.000000,4.000000,4.000000,4.000000,4.000000,4.000000,4.000000,4.000000,4.000000,4.000000,4.000000,4.000000,100.000000,,,,,,,,,,,,,,,,,,,,,,,,,,,,,,,,,,,,,,,,,,,,,,,
1665776764.843233,1665776764.843731,59.000000,0.000000,4297.436035,4305.641113,4310.769043,4303.974121,4295.128418,4281.794922,4293.077148,4297.051270,4274.871582,4275.512695,4457.307617,4478.333496,4370.769043,4396.794922,0.000000,2.000000,49.000000,,,,0.000000,4.000000,4.000000,4.000000,4.000000,4.000000,4.000000,4.000000,4.000000,4.000000,4.000000,4.000000,4.000000,4.000000,4.000000,100.000000,,,,,,,,,,,,,,,,,,,,,,,,,,,,,,,,,,,,,,,,,,,,,,,
1665776764.851041,1665776764.851540,60.000000,0.000000,4298.077148,4307.179688,4312.820313,4307.051270,4293.333496,4277.436035,4292.436035,4296.794922,4273.589844,4275.128418,4453.333496,4474.102539,4364.230957,4392.051270,0.000000,2.000000,49.000000,,,,0.000000,4.000000,4.000000,4.000000,4.000000,4.000000,4.000000,4.000000,4.000000,4.000000,4.000000,4.000000,4.000000,4.000000,4.000000,100.000000,,,,,,,,,,,,,,,,,,,,,,,,,,,,,,,,,,,,,,,,,,,,,,,
1665776764.858850,1665776764.859248,61.000000,0.000000,4308.205078,4320.000000,4321.922852,4314.358887,4295.641113,4281.153809,4296.153809,4303.333496,4276.794922,4281.282227,4466.410156,4485.000000,4373.717773,4401.538574,0.000000,2.000000,49.000000,,,,0.000000,4.000000,4.000000,4.000000,4.000000,4.000000,4.000000,4.000000,4.000000,4.000000,4.000000,4.000000,4.000000,4.000000,4.000000,100.000000,,,,,,,,,,,,,,,,,,,,,,,,,,,,,,,,,,,,,,,,,,,,,,,
1665776764.866658,1665776764.867057,62.000000,0.000000,4309.743652,4322.307617,4320.641113,4308.974121,4296.666504,4284.102539,4299.871582,4306.922852,4281.666504,4284.102539,4467.436035,4495.128418,4380.384766,4401.666504,0.000000,2.000000,49.000000,,,,0.000000,4.000000,4.000000,4.000000,4.000000,4.000000,4.000000,4.000000,4.000000,4.000000,4.000000,4.000000,4.000000,4.000000,4.000000,100.000000,,,,,,,,,,,,,,,,,,,,,,,,,,,,,,,,,,,,,,,,,,,,,,,
1665776764.874467,1665776764.874765,63.000000,0.000000,4302.179688,4314.615234,4313.077148,4296.538574,4294.230957,4282.436035,4299.871582,4310.384766,4288.717773,4285.384766,4467.820313,4485.641113,4378.589844,4396.153809,0.000000,2.000000,49.000000,,,,0.000000,4.000000,4.000000,4.000000,4.000000,4.000000,4.000000,4.000000,4.000000,4.000000,4.000000,4.000000,4.000000,4.000000,4.000000,100.000000,,,,,,,,,,,,,,,,,,,,,,,,,,,,,,,,,,,,,,,,,,,,,,,
1665776764.882275,1665776764.882574,64.000000,0.000000,4299.871582,4311.153809,4303.205078,4294.615234,4288.333496,4280.128418,4297.948730,4311.922852,4293.333496,4285.512695,4470.769043,4473.846191,4376.922852,4394.615234,2221.000000,2.000000,49.000000,,,,0.000000,4.000000,4.000000,4.000000,4.000000,4.000000,4.000000,4.000000,4.000000,4.000000,4.000000,4.000000,4.000000,4.000000,4.000000,100.000000,,,,,,,,,,,,,,,,,,,,,,,,,,,,,,,,,,,,,,,,,,,,,,,
1665776764.890083,1665776764.890282,65.000000,0.000000,4301.025879,4310.128418,4296.538574,4295.897461,4281.538574,4283.461426,4297.820313,4311.410156,4292.948730,4285.769043,4462.692383,4472.307617,4375.128418,4394.871582,2134.000000,2.000000,49.000000,,,,0.000000,4.000000,4.000000,4.000000,4.000000,4.000000,4.000000,4.000000,4.000000,4.000000,4.000000,4.000000,4.000000,4.000000,4.000000,100.000000,,,,,,,,,,,,,,,,,,,,,,,,,,,,,,,,,,,,,,,,,,,,,,,
1665776764.897892,1665776764.898091,66.000000,0.000000,4299.871582,4304.615234,4300.769043,4295.512695,4280.512695,4283.846191,4296.922852,4311.282227,4286.794922,4284.871582,4457.948730,4474.230957,4372.692383,4396.922852,1925.000000,2.000000,49.000000,,,,0.000000,4.000000,4.000000,4.000000,4.000000,4.000000,4.000000,4.000000,4.000000,4.000000,4.000000,4.000000,4.000000,4.000000,4.000000,100.000000,,,,,,,,,,,,,,,,,,,,,,,,,,,,,,,,,,,,,,,,,,,,,,,
1665776764.905700,1665776764.905799,67.000000,0.000000,4304.230957,4306.025879,4311.025879,4303.205078,4285.512695,4271.282227,4292.563965,4310.641113,4283.717773,4281.666504,4466.153809,4481.153809,4373.974121,4404.743652,2264.000000,2.000000,49.000000,,,,0.000000,4.000000,4.000000,4.000000,4.000000,4.000000,4.000000,4.000000,4.000000,4.000000,4.000000,4.000000,4.000000,4.000000,4.000000,100.000000,,,,,,,,,,,,,,,,,,,,,,,,,,,,,,,,,,,,,,,,,,,,,,,
1665776764.913509,1665776764.913608,68.000000,0.000000,4315.897461,4317.692383,4318.846191,4310.897461,4292.307617,4265.384766,4294.102539,4310.897461,4289.743652,4279.871582,4475.000000,4493.205078,4378.846191,4407.436035,2209.000000,2.000000,49.000000,,,,0.000000,4.000000,4.000000,4.000000,4.000000,4.000000,4.000000,4.000000,4.000000,4.000000,4.000000,4.000000,4.000000,4.000000,4.000000,100.000000,,,,,,,,,,,,,,,,,,,,,,,,,,,,,,,,,,,,,,,,,,,,,,,
1665776764.921317,1665776764.921316,69.000000,0.000000,4319.230957,4322.436035,4318.333496,4306.282227,4296.153809,4277.692383,4300.128418,4313.077148,4297.051270,4282.179688,4478.205078,4493.205078,4378.077148,4398.205078,2127.000000,2.000000,49.000000,,,,0.000000,4.000000,4.000000,4.000000,4.000000,4.000000,4.000000,4.000000,4.000000,4.000000,4.000000,4.000000,4.000000,4.000000,4.000000,100.000000,,,,,,,,,,,,,,,,,,,,,,,,,,,,,,,,,,,,,,,,,,,,,,,
1665776764.929125,1665776764.929125,70.000000,0.000000,4306.282227,4314.230957,4305.256348,4297.051270,4291.794922,4285.000000,4300.000000,4312.179688,4298.333496,4283.205078,4474.743652,4481.922852,4373.077148,4385.000000,1940.000000,2.000000,49.000000,,,,0.000000,4.000000,4.000000,4.000000,4.000000,4.000000,4.000000,4.000000,4.000000,4.000000,4.000000,4.000000,4.000000,4.000000,4.000000,100.000000,,,,,,,,,,,,,,,,,,,,,,,,,,,,,,,,,,,,,,,,,,,,,,,
1665776764.936934,1665776764.936833,71.000000,0.000000,4294.230957,4301.794922,4292.307617,4292.820313,4290.128418,4279.358887,4295.769043,4310.000000,4298.333496,4281.153809,4461.538574,4474.615234,4370.256348,4379.615234,2155.000000,2.000000,49.000000,1,1,1,0.000000,4.000000,4.000000,4.000000,4.000000,4.000000,4.000000,4.000000,4.000000,4.000000,4.000000,4.000000,4.000000,4.000000,4.000000,100.000000,,,,,,,,,,,,,,,,,,,,,,,,,,,,,,,,,,,,,,,,,,,,,,,
1665776764.944742,1665776764.944742,72.000000,0.000000,4292.179688,4296.922852,4291.666504,4293.205078,4290.000000,4276.410156,4295.000000,4309.871582,4299.358887,4280.512695,4455.384766,4466.025879,4367.436035,4383.333496,2085.000000,2.000000,49.000000,,,,0.000000,4.000000,4.000000,4.000000,4.000000,4.000000,4.000000,4.000000,4.000000,4.000000,4.000000,4.000000,4.000000,4.000000,4.000000,100.000000,,,,,,,,,,,,,,,,,,,,,,,,,,,,,,,,,,,,,,,,,,,,,,,
1665776764.952551,1665776764.952550,73.000000,0.000000,4296.410156,4304.230957,4294.358887,4295.000000,4287.948730,4280.384766,4299.743652,4311.538574,4297.948730,4281.922852,4460.128418,4462.692383,4366.922852,4392.179688,1715.000000,2.000000,49.000000,,,,0.000000,4.000000,4.000000,4.000000,4.000000,4.000000,4.000000,4.000000,4.000000,4.000000,4.000000,4.000000,4.000000,4.000000,4.000000,100.000000,,,,,,,,,,,,,,,,,,,,,,,,,,,,,,,,,,,,,,,,,,,,,,,
1665776764.960359,1665776764.960459,74.000000,0.000000,4295.384766,4307.051270,4295.128418,4296.794922,4288.974121,4281.794922,4302.436035,4312.948730,4297.307617,4283.077148,4463.461426,4468.333496,4370.384766,4395.641113,2571.000000,2.000000,49.000000,,,,0.000000,4.000000,4.000000,4.000000,4.000000,4.000000,4.000000,4.000000,4.000000,4.000000,4.000000,4.000000,4.000000,4.000000,4.000000,100.000000,,,,,,,,,,,,,,,,,,,,,,,,,,,,,,,,,,,,,,,,,,,,,,,
1665776764.968167,1665776764.968267,75.000000,0.000000,4288.846191,4297.692383,4295.641113,4296.538574,4289.487305,4273.333496,4296.410156,4308.974121,4292.563965,4274.102539,4460.897461,4465.000000,4364.743652,4385.641113,2738.000000,2.000000,49.000000,,,,0.000000,4.000000,4.000000,4.000000,4.000000,4.000000,4.000000,4.000000,4.000000,4.000000,4.000000,4.000000,4.000000,4.000000,4.000000,100.000000,,,,,,,,,,,,,,,,,,,,,,,,,,,,,,,,,,,,,,,,,,,,,,,
1665776764.975976,1665776764.976175,76.000000,0.000000,4290.897461,4296.025879,4292.307617,4294.743652,4287.179688,4267.563965,4292.051270,4302.692383,4288.333496,4268.077148,4455.897461,4456.794922,4357.051270,4379.230957,2844.000000,2.000000,49.000000,,,,0.000000,4.000000,4.000000,4.000000,4.000000,4.000000,4.000000,4.000000,4.000000,4.000000,4.000000,4.000000,4.000000,4.000000,4.000000,100.000000,,,,,,,,,,,,,,,,,,,,,,,,,,,,,,,,,,,,,,,,,,,,,,,
1665776764.983784,1665776764.983984,77.000000,0.000000,4296.282227,4303.589844,4291.538574,4295.384766,4285.641113,4275.256348,4298.205078,4304.487305,4291.922852,4275.256348,4456.153809,4462.948730,4362.563965,4383.589844,2992.000000,2.000000,49.000000,,,,0.000000,4.000000,4.000000,4.000000,4.000000,4.000000,4.000000,4.000000,4.000000,4.000000,4.000000,4.000000,4.000000,4.000000,4.000000,100.000000,,,,,,,,,,,,,,,,,,,,,,,,,,,,,,,,,,,,,,,,,,,,,,,
1665776764.991593,1665776764.991892,78.000000,0.000000,4292.436035,4303.077148,4295.384766,4293.717773,4289.615234,4283.077148,4302.948730,4312.051270,4299.358887,4280.641113,4467.436035,4480.769043,4373.205078,4390.769043,2571.000000,2.000000,49.000000,,,,0.000000,4.000000,4.000000,4.000000,4.000000,4.000000,4.000000,4.000000,4.000000,4.000000,4.000000,4.000000,4.000000,4.000000,4.000000,100.000000,,,,,,,,,,,,,,,,,,,,,,,,,,,,,,,,,,,,,,,,,,,,,,,
1665776764.999401,1665776764.999701,79.000000,0.000000,4286.025879,4298.974121,4295.000000,4288.333496,4292.948730,4278.589844,4298.589844,4314.615234,4303.333496,4283.333496,4478.974121,4491.922852,4377.948730,4399.230957,2738.000000,2.000000,49.000000,,,,0.000000,4.000000,4.000000,4.000000,4.000000,4.000000,4.000000,4.000000,4.000000,4.000000,4.000000,4.000000,4.000000,4.000000,4.000000,100.000000,,,,,,,,,,,,,,,,,,,,,,,,,,,,,,,,,,,,,,,,,,,,,,,
1665776765.007209,1665776765.007609,80.000000,0.000000,4286.410156,4297.307617,4291.153809,4287.179688,4290.000000,4271.025879,4296.666504,4312.436035,4300.512695,4287.051270,4476.538574,4491.922852,4375.641113,4404.487305,2844.000000,2.000000,49.000000,,,,0.000000,4.000000,4.000000,4.000000,4.000000,4.000000,4.000000,4.000000,4.000000,4.000000,4.000000,4.000000,4.000000,4.000000,4.000000,100.000000,,,,,,,,,,,,,,,,,,,,,,,,,,,,,,,,,,,,,,,,,,,,,,,
1665776765.015018,1665776765.015417,81.000000,0.000000,4287.179688,4297.307617,4294.487305,4294.102539,4288.333496,4272.692383,4302.692383,4314.743652,4295.897461,4284.871582,4472.179688,4488.717773,4371.153809,4398.846191,2992.000000,2.000000,49.000000,,,,0.000000,4.000000,4.000000,4.000000,4.000000,4.000000,4.000000,4.000000,4.000000,4.000000,4.000000,4.000000,4.000000,4.000000,4.000000,100.000000,,,,,,,,,,,,,,,,,,,,,,,,,,,,,,,,,,,,,,,,,,,,,,,
1665776765.022826,1665776765.023326,82.000000,0.000000,4287.179688,4301.666504,4301.153809,4296.410156,4292.179688,4279.230957,4308.589844,4321.922852,4296.153809,4281.153809,4475.128418,4490.256348,4372.307617,4393.846191,2571.000000,2.000000,49.000000,,,,0.000000,4.000000,4.000000,4.000000,4.000000,4.000000,4.000000,4.000000,4.000000,4.000000,4.000000,4.000000,4.000000,4.000000,4.000000,100.000000,,,,,,,,,,,,,,,,,,,,,,,,,,,,,,,,,,,,,,,,,,,,,,,
1665776765.030635,1665776765.031134,83.000000,0.000000,4291.922852,4305.384766,4300.256348,4294.102539,4293.461426,4280.000000,4309.358887,4326.666504,4298.589844,4281.410156,4472.307617,4485.384766,4371.025879,4395.641113,2738.000000,2.000000,49.000000,,,,0.000000,4.000000,4.000000,4.000000,4.000000,4.000000,4.000000,4.000000,4.000000,4.000000,4.000000,4.000000,4.000000,4.000000,4.000000,100.000000,,,,,,,,,,,,,,,,,,,,,,,,,,,,,,,,,,,,,,,,,,,,,,,
1665776765.038443,1665776765.038843,84.000000,0.000000,4293.333496,4301.538574,4296.153809,4296.666504,4289.743652,4276.794922,4308.589844,4326.538574,4296.153809,4278.461426,4463.846191,4474.102539,4362.436035,4392.436035,2844.000000,2.000000,49.000000,,,,0.000000,4.000000,4.000000,4.000000,4.000000,4.000000,4.000000,4.000000,4.000000,4.000000,4.000000,4.000000,4.000000,4.000000,4.000000,100.000000,,,,,,,,,,,,,,,,,,,,,,,,,,,,,,,,,,,,,,,,,,,,,,,
1665776765.046251,1665776765.046651,85.000000,0.000000,4293.333496,4300.512695,4295.128418,4301.025879,4293.974121,4280.512695,4310.897461,4320.384766,4294.615234,4277.820313,4462.563965,4472.563965,4363.589844,4391.922852,2992.000000,2.000000,49.000000,,,,0.000000,4.000000,4.000000,4.000000,4.000000,4.000000,4.000000,4.000000,4.000000,4.000000,4.000000,4.000000,4.000000,4.000000,4.000000,100.000000,,,,,,,,,,,,,,,,,,,,,,,,,,,,,,,,,,,,,,,,,,,,,,,
1665776765.054060,1665776765.054360,86.000000,0.000000,4293.077148,4303.461426,4293.846191,4295.256348,4296.538574,4282.948730,4309.358887,4311.025879,4294.871582,4280.256348,4463.717773,4477.051270,4372.948730,4399.487305,2571.000000,2.000000,49.000000,,,,0.000000,4.000000,4.000000,4.000000,4.000000,4.000000,4.000000,4.000000,4.000000,4.000000,4.000000,4.000000,4.000000,4.000000,4.000000,100.000000,,,,,,,,,,,,,,,,,,,,,,,,,,,,,,,,,,,,,,,,,,,,,,,
1665776765.061868,1665776765.062268,87.000000,0.000000,4285.384766,4300.000000,4291.666504,4282.179688,4287.948730,4274.743652,4299.615234,4306.666504,4289.230957,4279.487305,4459.487305,4474.871582,4372.436035,4398.846191,2738.000000,2.000000,49.000000,,,,0.000000,4.000000,4.000000,4.000000,4.000000,4.000000,4.000000,4.000000,4.000000,4.000000,4.000000,4.000000,4.000000,4.000000,4.000000,100.000000,,,,,,,,,,,,,,,,,,,,,,,,,,,,,,,,,,,,,,,,,,,,,,,
1665776765.069677,1665776765.070077,88.000000,0.000000,4280.512695,4294.487305,4291.282227,4281.153809,4285.512695,4272.436035,4296.153809,4310.000000,4281.538574,4279.358887,4461.025879,4476.410156,4369.487305,4393.333496,2844.000000,2.000000,49.000000,,,,0.000000,4.000000,4.000000,4.000000,4.000000,4.000000,4.000000,4.000000,4.000000,4.000000,4.000000,4.000000,4.000000,4.000000,4.000000,100.000000,,,,,,,,,,,,,,,,,,,,,,,,,,,,,,,,,,,,,,,,,,,,,,,
1665776765.077485,1665776765.077985,89.000000,0.000000,4289.230957,4294.230957,4293.077148,4291.666504,4292.436035,4279.230957,4303.589844,4315.256348,4280.641113,4280.384766,4470.128418,4487.692383,4376.538574,4403.205078,2992.000000,2.000000,49.000000,,,,0.000000,4.000000,4.000000,4.000000,4.000000,4.000000,4.000000,4.000000,4.000000,4.000000,4.000000,4.000000,4.000000,4.000000,4.000000,100.000000,,,,,,,,,,,,,,,,,,,,,,,,,,,,,,,,,,,,,,,,,,,,,,,
1665776765.085293,1665776765.085793,90.000000,0.000000,4297.051270,4296.025879,4298.333496,4296.410156,4292.436035,4281.025879,4309.871582,4321.666504,4283.333496,4280.000000,4478.846191,4493.589844,4379.743652,4412.820313,2571.000000,2.000000,49.000000,,,,0.000000,4.000000,4.000000,4.000000,4.000000,4.000000,4.000000,4.000000,4.000000,4.000000,4.000000,4.000000,4.000000,4.000000,4.000000,100.000000,,,,,,,,,,,,,,,,,,,,,,,,,,,,,,,,,,,,,,,,,,,,,,,
1665776765.093102,1665776765.093702,91.000000,0.000000,4289.487305,4297.436035,4306.410156,4292.948730,4291.025879,4276.922852,4310.769043,4327.436035,4279.358887,4280.641113,4481.025879,4493.589844,4376.153809,4410.256348,2738.000000,2.000000,49.000000,,,,0.000000,4.000000,4.000000,4.000000,4.000000,4.000000,4.000000,4.000000,4.000000,4.000000,4.000000,4.000000,4.000000,4.000000,4.000000,100.000000,,,,,,,,,,,,,,,,,,,,,,,,,,,,,,,,,,,,,,,,,,,,,,,
1665776765.100910,1665776765.101510,92.000000,0.000000,4285.769043,4298.846191,4312.692383,4294.487305,4292.692383,4275.641113,4309.743652,4328.205078,4277.948730,4281.153809,4482.692383,4496.794922,4380.000000,4411.025879,2844.000000,2.000000,49.000000,,,,0.000000,4.000000,4.000000,4.000000,4.000000,4.000000,4.000000,4.000000,4.000000,4.000000,4.000000,4.000000,4.000000,4.000000,4.000000,100.000000,,,,,,,,,,,,,,,,,,,,,,,,,,,,,,,,,,,,,,,,,,,,,,,
1665776765.108719,1665776765.109418,93.000000,0.000000,4294.358887,4302.820313,4314.743652,4301.922852,4293.077148,4276.922852,4312.948730,4328.974121,4279.743652,4280.769043,4488.077148,4498.589844,4387.563965,4414.615234,2992.000000,2.000000,49.000000,,,,0.000000,4.000000,4.000000,4.000000,4.000000,4.000000,4.000000,4.000000,4.000000,4.000000,4.000000,4.000000,4.000000,4.000000,4.000000,100.000000,,,,,,,,,,,,,,,,,,,,,,,,,,,,,,,,,,,,,,,,,,,,,,,
1665776765.116527,1665776765.117227,94.000000,0.000000,4296.153809,4301.666504,4308.333496,4301.282227,4294.102539,4279.743652,4317.051270,4327.948730,4271.410156,4281.410156,4484.487305,4491.666504,4384.102539,4411.410156,2571.000000,2.000000,49.000000,,,,0.000000,4.000000,4.000000,4.000000,4.000000,4.000000,4.000000,4.000000,4.000000,4.000000,4.000000,4.000000,4.000000,4.000000,4.000000,100.000000,,,,,,,,,,,,,,,,,,,,,,,,,,,,,,,,,,,,,,,,,,,,,,,
1665776765.124336,1665776765.125135,95.000000,0.000000,4288.077148,4295.641113,4297.820313,4295.384766,4296.410156,4280.897461,4312.436035,4318.717773,4262.307617,4279.871582,4469.615234,4482.179688,4376.538574,4401.410156,2738.000000,2.000000,49.000000,,,,0.000000,4.000000,4.000000,4.000000,4.000000,4.000000,4.000000,4.000000,4.000000,4.000000,4.000000,4.000000,4.000000,4.000000,4.000000,100.000000,,,,,,,,,,,,,,,,,,,,,,,,,,,,,,,,,,,,,,,,,,,,,,,
1665776765.132144,1665776765.132944,96.000000,0.000000,4283.205078,4293.205078,4292.948730,4291.794922,4292.692383,4275.641113,4303.333496,4309.230957,4261.794922,4279.358887,4459.743652,4475.897461,4371.538574,4391.410156,2844.000000,2.000000,49.000000,,,,0.000000,4.000000,4.000000,4.000000,4.000000,4.000000,4.000000,4.000000,4.000000,4.000000,4.000000,4.000000,4.000000,4.000000,4.000000,100.000000,,,,,,,,,,,,,,,,,,,,,,,,,,,,,,,,,,,,,,,,,,,,,,,
1665776765.139952,1665776765.140852,97.000000,0.000000,4281.538574,4297.820313,4292.307617,4292.307617,4290.512695,4275.641113,4301.538574,4310.769043,4264.358887,4284.743652,4465.512695,4472.948730,4370.769043,4387.692383,2992.000000,2.000000,49.000000,,,,0.000000,4.000000,4.000000,4.000000,4.000000,4.000000,4.000000,4.000000,4.000000,4.000000,4.000000,4.000000,4.000000,4.000000,4.000000,100.000000,,,,,,,,,,,,,,,,,,,,,,,,,,,,,,,,,,,,,,,,,,,,,,,
1665776765.147761,1665776765.148660,98.000000,0.000000,4282.948730,4299.487305,4292.307617,4293.077148,4295.769043,4276.666504,4301.538574,4315.128418,4264.871582,4284.743652,4474.102539,4476.922852,4375.769043,4394.358887,2571.000000,2.000000,49.000000,,,,0.000000,4.000000,4.000000,4.000000,4.000000,4.000000,4.000000,4.000000,4.000000,4.000000,4.000000,4.000000,4.000000,4.000000,4.000000,100.000000,,,,,,,,,,,,,,,,,,,,,,,,,,,,,,,,,,,,,,,,,,,,,,,
1665776765.155569,1665776765.156569,99.000000,0.000000,4292.051270,4299.487305,4297.436035,4298.461426,4292.436035,4268.077148,4296.153809,4311.666504,4264.615234,4284.230957,4475.384766,4485.384766,4379.487305,4406.410156,2738.000000,2.000000,49.000000,,,,0.000000,4.000000,4.000000,4.000000,4.000000,4.000000,4.000000,4.000000,4.000000,4.000000,4.000000,4.000000,4.000000,4.000000,4.000000,100.000000,,,,,,,,,,,,,,,,,,,,,,,,,,,,,,,,,,,,,,,,,,,,,,,
1665776765.163378,1665776765.164377,100.000000,0.000000,4296.025879,4305.000000,4305.128418,4303.077148,4283.589844,4262.179688,4293.461426,4309.102539,4266.922852,4288.333496,4472.820313,4489.358887,4376.410156,4410.769043,2844.000000,2.000000,49.000000,,,,0.000000,4.000000,4.000000,4.000000,4.000000,4.000000,4.000000,4.000000,4.000000,4.000000,4.000000,4.000000,4.000000,4.000000,4.000000,100.000000,,,,,,,,,,,,,,,,,,,,,,,,,,,,,,,,,,,,,,,,,,,,,,,
1665776765.171186,1665776765.172286,101.000000,0.000000,4296.025879,4311.153809,4313.205078,4297.179688,4284.487305,4264.358887,4298.717773,4313.717773,4274.615234,4291.538574,4475.128418,4489.615234,4376.922852,4410.641113,2992.000000,2.000000,49.000000,,,,0.000000,4.000000,4.000000,4.000000,4.000000,4.000000,4.000000,4.000000,4.000000,4.000000,4.000000,4.000000,4.000000,4.000000,4.000000,100.000000,,,,,,,,,,,,,,,,,,,,,,,,,,,,,,,,,,,,,,,,,,,,,,,
1665776765.178995,1665776765.180094,102.000000,0.000000,4308.333496,4315.769043,4320.769043,4297.051270,4290.128418,4268.846191,4307.563965,4321.153809,4282.051270,4290.769043,4484.102539,4494.615234,4386.922852,4415.000000,2571.000000,2.000000,49.000000,,,,0.000000,4.000000,4.000000,4.000000,4.000000,4.000000,4.000000,4.000000,4.000000,4.000000,4.000000,4.000000,4.000000,4.000000,4.000000,100.000000,,,,,,,,,,,,,,,,,,,,,,,,,,,,,,,,,,,,,,,,,,,,,,,
1665776765.186803,1665776765.188002,103.000000,0.000000,4315.897461,4317.051270,4317.563965,4309.487305,4291.153809,4274.615234,4311.922852,4323.461426,4280.641113,4288.846191,4481.025879,4499.230957,4388.974121,4419.102539,2738.000000,2.000000,49.000000,,,,0.000000,4.000000,4.000000,4.000000,4.000000,4.000000,4.000000,4.000000,4.000000,4.000000,4.000000,4.000000,4.000000,4.000000,4.000000,100.000000,,,,,,,,,,,,,,,,,,,,,,,,,,,,,,,,,,,,,,,,,,,,,,,
1665776765.194611,1665776765.195811,104.000000,0.000000,4303.461426,4315.384766,4309.487305,4313.717773,4293.205078,4277.436035,4309.230957,4320.000000,4277.179688,4286.025879,4471.538574,4491.153809,4380.641113,4416.282227,2844.000000,2.000000,49.000000,,,,0.000000,4.000000,4.000000,4.000000,4.000000,4.000000,4.000000,4.000000,4.000000,4.000000,4.000000,4.000000,4.000000,4.000000,4.000000,100.000000,,,,,,,,,,,,,,,,,,,,,,,,,,,,,,,,,,,,,,,,,,,,,,,
1665776765.202420,1665776765.203619,105.000000,0.000000,4295.384766,4309.615234,4307.948730,4306.410156,4296.282227,4277.307617,4306.794922,4322.436035,4279.102539,4284.230957,4473.205078,4481.410156,4376.025879,4414.358887,2992.000000,2.000000,49.000000,,,,0.000000,4.000000,4.000000,4.000000,4.000000,4.000000,4.000000,4.000000,4.000000,4.000000,4.000000,4.000000,4.000000,4.000000,4.000000,100.000000,,,,,,,,,,,,,,,,,,,,,,,,,,,,,,,,,,,,,,,,,,,,,,,
1665776765.210228,1665776765.211428,106.000000,0.000000,4291.282227,4298.077148,4299.102539,4294.615234,4292.692383,4274.743652,4300.897461,4323.589844,4278.077148,4284.487305,4473.974121,4472.436035,4372.051270,4412.820313,2571.000000,2.000000,49.000000,,,,0.000000,4.000000,4.000000,4.000000,4.000000,4.000000,4.000000,4.000000,4.000000,4.000000,4.000000,4.000000,4.000000,4.000000,4.000000,100.000000,,,,,,,,,,,,,,,,,,,,,,,,,,,,,,,,,,,,,,,,,,,,,,,
1665776765.218037,1665776765.219136,107.000000,0.000000,4282.820313,4287.563965,4283.205078,4285.897461,4289.871582,4267.307617,4294.871582,4315.769043,4270.641113,4282.563965,4466.025879,4465.512695,4364.230957,4403.461426,2738.000000,2.000000,49.000000,,,,0.000000,4.000000,4.000000,4.000000,4.000000,4.000000,4.000000,4.000000,4.000000,4.000000,4.000000,4.000000,4.000000,4.000000,4.000000,100.000000,,,,,,,,,,,,,,,,,,,,,,,,,,,,,,,,,,,,,,,,,,,,,,,
1665776765.225845,1665776765.226945,108.000000,0.000000,4287.563965,4289.743652,4286.922852,4286.282227,4294.743652,4263.846191,4294.871582,4311.025879,4265.256348,4282.051270,4464.743652,4470.128418,4362.948730,4403.974121,2844.000000,2.000000,49.000000,,,,0.000000,4.000000,4.000000,4.000000,4.000000,4.000000,4.000000,4.000000,4.000000,4.000000,4.000000,4.000000,4.000000,4.000000,4.000000,100.000000,,,,,,,,,,,,,,,,,,,,,,,,,,,,,,,,,,,,,,,,,,,,,,,
1665776765.233653,1665776765.234653,109.000000,0.000000,4296.538574,4297.692383,4302.051270,4288.717773,4297.179688,4266.153809,4294.743652,4310.384766,4265.769043,4283.077148,4466.794922,4480.384766,4368.846191,4415.384766,2992.000000,2.000000,49.000000,,,,0.000000,4.000000,4.000000,4.000000,4.000000,4.000000,4.000000,4.000000,4.000000,4.000000,4.000000,4.000000,4.000000,4.000000,4.000000,100.000000,,,,,,,,,,,,,,,,,,,,,,,,,,,,,,,,,,,,,,,,,,,,,,,
1665776765.241462,1665776765.242462,110.000000,0.000000,4292.820313,4296.153809,4305.128418,4283.717773,4296.282227,4266.666504,4296.282227,4308.974121,4264.230957,4281.282227,4462.948730,4485.641113,4370.769043,4414.743652,2571.000000,2.000000,49.000000,,,,0.000000,4.000000,4.000000,4.000000,4.000000,4.000000,4.000000,4.000000,4.000000,4.000000,4.000000,4.000000,4.000000,4.000000,4.000000,100.000000,,,,,,,,,,,,,,,,,,,,,,,,,,,,,,,,,,,,,,,,,,,,,,,
1665776765.249270,1665776765.250170,111.000000,0.000000,4294.871582,4297.307617,4306.153809,4286.153809,4299.358887,4271.282227,4306.282227,4313.461426,4260.897461,4279.871582,4461.025879,4489.230957,4369.615234,4406.282227,2738.000000,2.000000,49.000000,,,,0.000000,4.000000,4.000000,4.000000,4.000000,4.000000,4.000000,4.000000,4.000000,4.000000,4.000000,4.000000,4.000000,4.000000,4.000000,100.000000,,,,,,,,,,,,,,,,,,,,,,,,,,,,,,,,,,,,,,,,,,,,,,,
1665776765.257079,1665776765.257979,112.000000,0.000000,4306.153809,4308.333496,4310.641113,4304.230957,4307.307617,4280.897461,4315.000000,4321.153809,4261.538574,4281.666504,4462.307617,4491.282227,4370.641113,4409.743652,2844.000000,2.000000,49.000000,,,,0.000000,4.000000,4.000000,4.000000,4.000000,4.000000,4.000000,4.000000,4.000000,4.000000,4.000000,4.000000,4.000000,4.000000,4.000000,100.000000,,,,,,,,,,,,,,,,,,,,,,,,,,,,,,,,,,,,,,,,,,,,,,,
1665776765.264887,1665776765.265687,113.000000,0.000000,4307.179688,4310.384766,4309.358887,4309.487305,4311.282227,4282.563965,4312.436035,4318.589844,4260.641113,4284.871582,4459.871582,4481.666504,4367.563965,4418.333496,2992.000000,2.000000,49.000000,,,,0.000000,4.000000,4.000000,4.000000,4.000000,4.000000,4.000000,4.000000,4.000000,4.000000,4.000000,4.000000,4.000000,4.000000,4.000000,100.000000,,,,,,,,,,,,,,,,,,,,,,,,,,,,,,,,,,,,,,,,,,,,,,,
1665776765.272695,1665776765.273496,114.000000,0.000000,4306.025879,4306.538574,4307.307617,4298.205078,4310.769043,4278.461426,4309.487305,4315.384766,4258.846191,4282.051270,4460.000000,4474.615234,4365.256348,4419.102539,2571.000000,2.000000,49.000000,,,,0.000000,4.000000,4.000000,4.000000,4.000000,4.000000,4.000000,4.000000,4.000000,4.000000,4.000000,4.000000,4.000000,4.000000,4.000000,100.000000,,,,,,,,,,,,,,,,,,,,,,,,,,,,,,,,,,,,,,,,,,,,,,,
1665776765.280504,1665776765.281404,115.000000,0.000000,4312.692383,4309.615234,4310.769043,4296.153809,4311.410156,4282.948730,4312.948730,4323.589844,4262.179688,4279.615234,4469.487305,4485.641113,4368.205078,4418.333496,2738.000000,2.000000,49.000000,,,,0.000000,4.000000,4.000000,4.000000,4.000000,4.000000,4.000000,4.000000,4.000000,4.000000,4.000000,4.000000,4.000000,4.000000,4.000000,100.000000,,,,,,,,,,,,,,,,,,,,,,,,,,,,,,,,,,,,,,,,,,,,,,,
1665776765.288312,1665776765.289213,116.000000,0.000000,4316.538574,4306.282227,4310.384766,4299.230957,4312.948730,4285.512695,4312.820313,4329.615234,4265.000000,4282.307617,4478.974121,4497.436035,4368.589844,4424.230957,2844.000000,2.000000,49.000000,,,,0.000000,4.000000,4.000000,4.000000,4.000000,4.000000,4.000000,4.000000,4.000000,4.000000,4.000000,4.000000,4.000000,4.000000,4.000000,100.000000,,,,,,,,,,,,,,,,,,,,,,,,,,,,,,,,,,,,,,,,,,,,,,,
1665776765.296121,1665776765.296921,117.000000,0.000000,4310.641113,4297.179688,4307.692383,4295.512695,4307.179688,4269.871582,4307.692383,4321.538574,4261.666504,4281.153809,4473.205078,4494.358887,4365.769043,4429.615234,2992.000000,2.000000,49.000000,,,,0.000000,4.000000,4.000000,4.000000,4.000000,4.000000,4.000000,4.000000,4.000000,4.000000,4.000000,4.000000,4.000000,4.000000,4.000000,100.000000,,,,,,,,,,,,,,,,,,,,,,,,,,,,,,,,,,,,,,,,,,,,,,,
1665776765.303929,1665776765.304730,118.000000,0.000000,4306.538574,4302.179688,4311.282227,4291.025879,4299.743652,4260.384766,4307.436035,4314.230957,4256.538574,4278.205078,4465.512695,4491.666504,4369.230957,4428.717773,2571.000000,2.000000,49.000000,,,,0.000000,4.000000,4.000000,4.000000,4.000000,4.000000,4.000000,4.000000,4.000000,4.000000,4.000000,4.000000,4.000000,4.000000,4.000000,100.000000,1.000000,100.000000,4.000000,4.000000,4.000000,4.000000,4.000000,4.000000,4.000000,4.000000,4.000000,4.000000,4.000000,4.000000,4.000000,4.000000,1.000000,0.702861,-0.532504,-1.466301,0.116532,1.000000,0.030870,2.475690,2.148477,12.748143,0.079066,1.000000,0.213205,33.244045,-96.649155,447.160706,1.000000,0.271643,0.130385,-0.018005,0.432543,1.000000,0.321367,3.388899,-5.185653,19.115961,1.000000,0.217128,0.217128,0.000000,1.000000
1665776765.311737,1665776765.312438,119.000000,0.000000,4313.461426,4312.051270,4315.512695,4295.000000,4298.077148,4275.128418,4313.205078,4320.000000,4261.282227,4282.948730,4473.589844,4498.333496,4376.410156,4429.615234,2738.000000,2.000000,49.000000,,,,0.000000,4.000000,4.000000,4.000000,4.000000,4.000000,4.000000,4.000000,4.000000,4.000000,4.000000,4.000000,4.000000,4.000000,4.000000,100.000000,,,,,,,,,,,,,,,,,,,,,,,,,,,,,,,,,,,,,,,,,,,,,,,
1665776765.319546,1665776765.320346,120.000000,0.000000,4317.692383,4304.487305,4310.769043,4296.538574,4300.128418,4278.333496,4309.102539,4320.256348,4262.948730,4287.692383,4472.307617,4490.384766,4373.333496,4427.563965,2844.000000,2.000000,49.000000,,,,0.000000,4.000000,4.000000,4.000000,4.000000,4.000000,4.000000,4.000000,4.000000,4.000000,4.000000,4.000000,4.000000,4.000000,4.000000,100.000000,,,,,,,,,,,,,,,,,,,,,,,,,,,,,,,,,,,,,,,,,,,,,,,
1665776765.327354,1665776765.328155,121.000000,0.000000,4311.410156,4294.358887,4300.769043,4294.358887,4301.666504,4262.692383,4297.436035,4310.000000,4254.358887,4283.974121,4458.205078,4474.102539,4365.000000,4415.769043,2992.000000,2.000000,49.000000,,,,0.000000,4.000000,4.000000,4.000000,4.000000,4.000000,4.000000,4.000000,4.000000,4.000000,4.000000,4.000000,4.000000,4.000000,4.000000,100.000000,,,,,,,,,,,,,,,,,,,,,,,,,,,,,,,,,,,,,,,,,,,,,,,
1665776765.335163,1665776765.336063,122.000000,0.000000,4306.922852,4295.000000,4293.717773,4290.769043,4301.025879,4260.897461,4294.358887,4307.179688,4248.461426,4283.846191,4457.307617,4469.615234,4362.307617,4404.230957,2571.000000,2.000000,49.000000,,,,0.000000,4.000000,4.000000,4.000000,4.000000,4.000000,4.000000,4.000000,4.000000,4.000000,4.000000,4.000000,4.000000,4.000000,4.000000,100.000000,,,,,,,,,,,,,,,,,,,,,,,,,,,,,,,,,,,,,,,,,,,,,,,
1665776765.342971,1665776765.343872,123.000000,0.000000,4307.820313,4294.358887,4291.282227,4288.717773,4298.589844,4265.384766,4293.717773,4309.615234,4248.974121,4288.333496,4458.846191,4472.436035,4362.179688,4403.717773,2738.000000,2.000000,49.000000,,,,0.000000,4.000000,4.000000,4.000000,4.000000,4.000000,4.000000,4.000000,4.000000,4.000000,4.000000,4.000000,4.000000,4.000000,4.000000,100.000000,,,,,,,,,,,,,,,,,,,,,,,,,,,,,,,,,,,,,,,,,,,,,,,
1665776765.350779,1665776765.351780,124.000000,0.000000,4311.410156,4292.563965,4295.128418,4292.692383,4299.615234,4265.128418,4294.358887,4313.333496,4253.205078,4288.717773,4459.871582,4473.974121,4366.025879,4408.589844,2844.000000,2.000000,49.000000,,,,0.000000,4.000000,4.000000,4.000000,4.000000,4.000000,4.000000,4.000000,4.000000,4.000000,4.000000,4.000000,4.000000,4.000000,4.000000,100.000000,,,,,,,,,,,,,,,,,,,,,,,,,,,,,,,,,,,,,,,,,,,,,,,
1665776765.358588,1665776765.359588,125.000000,0.000000,4317.051270,4300.512695,4305.641113,4298.077148,4303.077148,4275.256348,4302.179688,4316.282227,4260.512695,4286.538574,4473.077148,4477.307617,4375.256348,4418.974121,2992.000000,2.000000,49.000000,,,,0.000000,4.000000,4.000000,4.000000,4.000000,4.000000,4.000000,4.000000,4.000000,4.000000,4.000000,4.000000,4.000000,4.000000,4.000000,100.000000,,,,,,,,,,,,,,,,,,,,,,,,,,,,,,,,,,,,,,,,,,,,,,,
1665776765.366396,1665776765.367497,126.000000,0.000000,4319.230957,4310.641113,4314.358887,4298.589844,4303.333496,4279.102539,4304.102539,4312.179688,4265.384766,4285.897461,4478.461426,4482.563965,4378.974121,4421.025879,2571.000000,2.000000,49.000000,,,,0.000000,4.000000,4.000000,4.000000,4.000000,4.000000,4.000000,4.000000,4.000000,4.000000,4.000000,4.000000,4.000000,4.000000,4.000000,100.000000,,,,,,,,,,,,,,,,,,,,,,,,,,,,,,,,,,,,,,,,,,,,,,,
1665776765.374205,1665776765.375305,127.000000,0.000000,4322.948730,4313.717773,4320.512695,4296.794922,4304.487305,4268.333496,4299.871582,4306.666504,4261.153809,4288.461426,4469.871582,4486.794922,4377.051270,4420.000000,49.000000,2.000000,49.000000,,,,0.000000,4.000000,4.000000,4.000000,4.000000,4.000000,4.000000,4.000000,4.000000,4.000000,4.000000,4.000000,4.000000,4.000000,4.000000,100.000000,,,,,,,,,,,,,,,,,,,,,,,,,,,,,,,,,,,,,,,,,,,,,,,
1665776765.382013,1665776765.383114,0.000000,0.000000,4342.692383,4322.563965,4331.282227,4308.461426,4311.794922,4270.000000,4306.153809,4310.384766,4258.974121,4291.153809,4474.230957,4498.205078,4383.717773,4438.589844,2221.000000,2.000000,49.000000,,,,0.000000,4.000000,4.000000,4.000000,4.000000,4.000000,4.000000,4.000000,4.000000,4.000000,4.000000,4.000000,4.000000,4.000000,4.000000,100.000000,,,,,,,,,,,,,,,,,,,,,,,,,,,,,,,,,,,,,,,,,,,,,,,
1665776765.389821,1665776765.390922,1.000000,0.000000,4355.897461,4330.641113,4335.512695,4325.256348,4314.487305,4280.128418,4309.358887,4311.922852,4260.256348,4287.563965,4479.743652,4509.871582,4391.282227,4451.538574,2127.000000,2.000000,49.000000,,,,0.000000,4.000000,4.000000,4.000000,4.000000,4.000000,4.000000,4.000000,4.000000,4.000000,4.000000,4.000000,4.000000,4.000000,4.000000,100.000000,,,,,,,,,,,,,,,,,,,,,,,,,,,,,,,,,,,,,,,,,,,,,,,
1665776765.397630,1665776765.398631,2.000000,0.000000,4346.666504,4326.282227,4327.436035,4321.538574,4309.102539,4278.077148,4302.563965,4310.641113,4260.000000,4284.487305,4473.974121,4506.794922,4385.384766,4444.871582,1922.000000,2.000000,49.000000,,,,0.000000,4.000000,4.000000,4.000000,4.000000,4.000000,4.000000,4.000000,4.000000,4.000000,4.000000,4.000000,4.000000,4.000000,4.000000,100.000000,,,,,,,,,,,,,,,,,,,,,,,,,,,,,,,,,,,,,,,,,,,,,,,
1665776765.405438,1665776765.406439,3.000000,0.000000,4337.820313,4325.128418,4324.230957,4313.461426,4306.025879,4269.102539,4305.641113,4318.333496,4263.077148,4291.025879,4478.461426,4496.410156,4379.487305,4443.333496,2277.000000,2.000000,49.000000,,,,0.000000,4.000000,4.000000,4.000000,4.000000,4.000000,4.000000,4.000000,4.000000,4.000000,4.000000,4.000000,4.000000,4.000000,4.000000,100.000000,,,,,,,,,,,,,,,,,,,,,,,,,,,,,,,,,,,,,,,,,,,,,,,
1665776765.413247,1665776765.414148,4.000000,0.000000,4340.256348,4327.563965,4326.794922,4318.846191,4310.769043,4266.153809,4312.179688,4321.666504,4265.769043,4292.563965,4485.128418,4491.922852,4380.256348,4440.000000,2216.000000,2.000000,49.000000,,,,0.000000,4.000000,4.000000,4.000000,4.000000,4.000000,4.000000,4.000000,4.000000,4.000000,4.000000,4.000000,4.000000,4.000000,4.000000,100.000000,,,,,,,,,,,,,,,,,,,,,,,,,,,,,,,,,,,,,,,,,,,,,,,
1665776765.421055,1665776765.421956,5.000000,0.000000,4341.666504,4322.563965,4322.948730,4317.563965,4312.436035,4266.153809,4305.769043,4315.256348,4266.410156,4289.230957,4479.871582,4492.307617,4380.000000,4430.897461,2122.000000,2.000000,49.000000,,,,0.000000,4.000000,4.000000,4.000000,4.000000,4.000000,4.000000,4.000000,4.000000,4.000000,4.000000,4.000000,4.000000,4.000000,4.000000,100.000000,,,,,,,,,,,,,,,,,,,,,,,,,,,,,,,,,,,,,,,,,,,,,,,
1665776765.428864,1665776765.429665,6.000000,0.000000,4339.487305,4322.563965,4319.230957,4309.487305,4310.000000,4264.615234,4298.461426,4312.307617,4266.538574,4290.769043,4474.615234,4492.179688,4380.128418,4437.692383,1943.000000,2.000000,49.000000,,,,0.000000,4.000000,4.000000,4.000000,4.000000,4.000000,4.000000,4.000000,4.000000,4.000000,4.000000,4.000000,4.000000,4.000000,4.000000,100.000000,,,,,,,,,,,,,,,,,,,,,,,,,,,,,,,,,,,,,,,,,,,,,,,
1665776765.436672,1665776765.437473,7.000000,0.000000,4337.307617,4325.000000,4320.384766,4310.256348,4310.128418,4263.974121,4296.025879,4311.282227,4265.384766,4287.051270,4473.461426,4491.538574,4378.333496,4440.256348,2155.000000,2.000000,49.000000,,,,0.000000,4.000000,4.000000,4.000000,4.000000,4.000000,4.000000,4.000000,4.000000,4.000000,4.000000,4.000000,4.000000,4.000000,4.000000,100.000000,,,,,,,,,,,,,,,,,,,,,,,,,,,,,,,,,,,,,,,,,,,,,,,
1665776765.444480,1665776765.445182,8.000000,0.000000,4338.205078,4316.282227,4318.717773,4308.589844,4311.666504,4264.743652,4294.358887,4307.820313,4263.589844,4286.025879,4472.179688,4486.794922,4376.922852,4426.922852,2090.000000,2.000000,49.000000,,,,0.000000,4.000000,4.000000,4.000000,4.000000,4.000000,4.000000,4.000000,4.000000,4.000000,4.000000,4.000000,4.000000,4.000000,4.000000,100.000000,,,,,,,,,,,,,,,,,,,,,,,,,,,,,,,,,,,,,,,,,,,,,,,
1665776765.452289,1665776765.452990,9.000000,0.000000,4341.025879,4310.641113,4311.922852,4306.794922,4312.436035,4266.922852,4299.871582,4310.256348,4265.256348,4290.769043,4472.692383,4482.179688,4380.256348,4427.051270,1710.000000,2.000000,49.000000,,,,0.000000,4.000000,4.000000,4.000000,4.000000,4.000000,4.000000,4.000000,4.000000,4.000000,4.000000,4.000000,4.000000,4.000000,4.000000,100.000000,,,,,,,,,,,,,,,,,,,,,,,,,,,,,,,,,,,,,,,,,,,,,,,
1665776765.460097,1665776765.460699,10.000000,0.000000,4328.589844,4306.153809,4295.384766,4306.153809,4313.077148,4268.077148,4299.615234,4306.538574,4259.871582,4282.948730,4462.436035,4468.717773,4371.153809,4421.794922,2573.000000,2.000000,49.000000,,,,0.000000,4.000000,4.000000,4.000000,4.000000,4.000000,4.000000,4.000000,4.000000,4.000000,4.000000,4.000000,4.000000,4.000000,4.000000,100.000000,,,,,,,,,,,,,,,,,,,,,,,,,,,,,,,,,,,,,,,,,,,,,,,
1665776765.467906,1665776765.468507,11.000000,0.000000,4306.282227,4287.436035,4271.922852,4288.461426,4307.436035,4265.000000,4286.282227,4285.769043,4241.025879,4263.846191,4431.794922,4437.051270,4339.102539,4390.256348,2740.000000,2.000000,49.000000,,,,0.000000,4.000000,4.000000,4.000000,4.000000,4.000000,4.000000,4.000000,4.000000,4.000000,4.000000,4.000000,4.000000,4.000000,4.000000,100.000000,,,,,,,,,,,,,,,,,,,,,,,,,,,,,,,,,,,,,,,,,,,,,,,
1665776765.475714,1665776765.476216,12.000000,0.000000,4301.922852,4271.666504,4260.641113,4272.179688,4293.846191,4251.794922,4275.128418,4274.487305,4231.025879,4258.589844,4413.077148,4416.282227,4316.410156,4363.461426,2842.000000,2.000000,49.000000,,,,0.000000,4.000000,4.000000,4.000000,4.000000,4.000000,4.000000,4.000000,4.000000,4.000000,4.000000,4.000000,4.000000,4.000000,4.000000,100.000000,,,,,,,,,,,,,,,,,,,,,,,,,,,,,,,,,,,,,,,,,,,,,,,
1665776765.483522,1665776765.484024,13.000000,0.000000,4317.179688,4281.538574,4271.538574,4282.179688,4292.436035,4246.410156,4276.410156,4284.102539,4241.538574,4271.282227,4429.743652,4432.179688,4330.384766,4367.436035,2994.000000,2.000000,49.000000,,,,0.000000,4.000000,4.000000,4.000000,4.000000,4.000000,4.000000,4.000000,4.000000,4.000000,4.000000,4.000000,4.000000,4.000000,4.000000,100.000000,,,,,,,,,,,,,,,,,,,,,,,,,,,,,,,,,,,,,,,,,,,,,,,
1665776765.491331,1665776765.491733,14.000000,0.000000,4337.948730,4311.666504,4297.307617,4304.358887,4309.102539,4261.794922,4286.794922,4295.512695,4257.179688,4284.230957,4453.846191,4465.897461,4361.794922,4398.205078,2573.000000,2.000000,49.000000,,,,0.000000,4.000000,4.000000,4.000000,4.000000,4.000000,4.000000,4.000000,4.000000,4.000000,4.000000,4.000000,4.000000,4.000000,4.000000,100.000000,,,,,,,,,,,,,,,,,,,,,,,,,,,,,,,,,,,,,,,,,,,,,,,
1665776765.499139,1665776765.499541,15.000000,0.000000,4355.128418,4336.922852,4320.384766,4319.102539,4316.282227,4265.128418,4291.282227,4298.333496,4262.179688,4285.769043,4462.692383,4485.769043,4377.307617,4428.461426,2740.000000,2.000000,49.000000,,,,0.000000,4.000000,4.000000,4.000000,4.000000,4.000000,4.000000,4.000000,4.000000,4.000000,4.000000,4.000000,4.000000,4.000000,4.000000,100.000000,,,,,,,,,,,,,,,,,,,,,,,,,,,,,,,,,,,,,,,,,,,,,,,
1665776765.506948,1665776765.507250,16.000000,0.000000,4360.897461,4340.256348,4327.692383,4322.179688,4312.948730,4251.153809,4286.410156,4297.948730,4262.563965,4285.641113,4469.230957,4491.922852,4378.717773,4439.743652,0.000000,2.000000,49.000000,,,,0.000000,4.000000,4.000000,4.000000,4.000000,4.000000,4.000000,4.000000,4.000000,4.000000,4.000000,4.000000,4.000000,4.000000,4.000000,100.000000,,,,,,,,,,,,,,,,,,,,,,,,,,,,,,,,,,,,,,,,,,,,,,,
1665776765.514756,1665776765.515158,17.000000,0.000000,4362.820313,4331.922852,4327.820313,4318.589844,4315.512695,4250.769043,4284.358887,4300.256348,4265.512695,4291.025879,4478.589844,4494.615234,4380.641113,4438.205078,0.000000,2.000000,49.000000,,,,0.000000,4.000000,4.000000,4.000000,4.000000,4.000000,4.000000,4.000000,4.000000,4.000000,4.000000,4.000000,4.000000,4.000000,4.000000,100.000000,,,,,,,,,,,,,,,,,,,,,,,,,,,,,,,,,,,,,,,,,,,,,,,
1665776765.522565,1665776765.522966,18.000000,0.000000,4368.205078,4330.000000,4329.743652,4319.358887,4319.615234,4260.769043,4287.307617,4305.128418,4266.666504,4290.256348,4479.102539,4494.871582,4381.922852,4439.102539,0.000000,2.000000,49.000000,,,,0.000000,4.000000,4.000000,4.000000,4.000000,4.000000,4.000000,4.000000,4.000000,4.000000,4.000000,4.000000,4.000000,4.000000,4.000000,100.000000,,,,,,,,,,,,,,,,,,,,,,,,,,,,,,,,,,,,,,,,,,,,,,,
1665776765.530373,1665776765.530875,19.000000,0.000000,4364.230957,4326.794922,4324.358887,4317.948730,4321.538574,4262.436035,4290.000000,4308.717773,4267.563965,4282.948730,4474.230957,4492.820313,4377.307617,4437.436035,0.000000,2.000000,49.000000,,,,0.000000,4.000000,4.000000,4.000000,4.000000,4.000000,4.000000,4.000000,4.000000,4.000000,4.000000,4.000000,4.000000,4.000000,4.000000,100.000000,,,,,,,,,,,,,,,,,,,,,,,,,,,,,,,,,,,,,,,,,,,,,,,
1665776765.538181,1665776765.538683,20.000000,0.000000,4346.666504,4318.846191,4317.307617,4311.794922,4325.384766,4263.205078,4293.205078,4308.461426,4273.589844,4284.743652,4471.153809,4489.358887,4369.487305,4427.563965,0.000000,2.000000,49.000000,,,,0.000000,4.000000,4.000000,4.000000,4.000000,4.000000,4.000000,4.000000,4.000000,4.000000,4.000000,4.000000,4.000000,4.000000,4.000000,100.000000,,,,,,,,,,,,,,,,,,,,,,,,,,,,,,,,,,,,,,,,,,,,,,,
1665776765.545990,1665776765.546592,21.000000,0.000000,4338.846191,4313.717773,4314.358887,4307.563965,4320.641113,4265.384766,4298.461426,4302.948730,4280.000000,4288.205078,4466.282227,4484.230957,4363.461426,4414.743652,0.000000,2.000000,49.000000,,,,0.000000,4.000000,4.000000,4.000000,4.000000,4.000000,4.000000,4.000000,4.000000,4.000000,4.000000,4.000000,4.000000,4.000000,4.000000,100.000000,,,,,,,,,,,,,,,,,,,,,,,,,,,,,,,,,,,,,,,,,,,,,,,
1665776765.553798,1665776765.554400,22.000000,0.000000,4344.871582,4311.538574,4307.692383,4299.743652,4308.846191,4265.256348,4296.922852,4299.230957,4280.384766,4285.512695,4461.922852,4477.692383,4362.307617,4408.077148,0.000000,2.000000,49.000000,,,,0.000000,4.000000,4.000000,4.000000,4.000000,4.000000,4.000000,4.000000,4.000000,4.000000,4.000000,4.000000,4.000000,4.000000,4.000000,100.000000,,,,,,,,,,,,,,,,,,,,,,,,,,,,,,,,,,,,,,,,,,,,,,,
1665776765.561607,1665776765.562308,23.000000,0.000000,4339.230957,4307.179688,4295.641113,4292.307617,4309.102539,4267.692383,4297.692383,4300.384766,4279.358887,4285.641113,4456.666504,4468.589844,4361.282227,4405.897461,0.000000,2.000000,49.000000,,,,0.000000,4.000000,4.000000,4.000000,4.000000,4.000000,4.000000,4.000000,4.000000,4.000000,4.000000,4.000000,4.000000,4.000000,4.000000,100.000000,,,,,,,,,,,,,,,,,,,,,,,,,,,,,,,,,,,,,,,,,,,,,,,
1665776765.569415,1665776765.570217,24.000000,0.000000,4327.563965,4298.333496,4282.692383,4290.512695,4314.615234,4269.230957,4301.410156,4299.487305,4282.948730,4288.205078,4449.743652,4458.846191,4355.769043,4398.589844,0.000000,2.000000,49.000000,,,,0.000000,4.000000,4.000000,4.000000,4.000000,4.000000,4.000000,4.000000,4.000000,4.000000,4.000000,4.000000,4.000000,4.000000,4.000000,100.000000,,,,,,,,,,,,,,,,,,,,,,,,,,,,,,,,,,,,,,,,,,,,,,,
1665776765.577223,1665776765.578026,25.000000,0.000000,4335.384766,4295.000000,4279.102539,4290.256348,4310.256348,4263.589844,4291.410156,4296.922852,4281.153809,4287.307617,4453.333496,4457.179688,4355.128418,4398.589844,0.000000,2.000000,49.000000,,,,0.000000,4.000000,4.000000,4.000000,4.000000,4.000000,4.000000,4.000000,4.000000,4.000000,4.000000,4.000000,4.000000,4.000000,4.000000,100.000000,,,,,,,,,,,,,,,,,,,,,,,,,,,,,,,,,,,,,,,,,,,,,,,
1665776765.585032,1665776765.585834,26.000000,0.000000,4349.871582,4306.282227,4288.717773,4291.282227,4303.974121,4255.384766,4278.717773,4291.538574,4269.358887,4284.358887,4462.307617,4463.846191,4363.974121,4415.641113,0.000000,2.000000,49.000000,,,,0.000000,4.000000,4.000000,4.000000,4.000000,4.000000,4.000000,4.000000,4.000000,4.000000,4.000000,4.000000,4.000000,4.000000,4.000000,100.000000,,,,,,,,,,,,,,,,,,,,,,,,,,,,,,,,,,,,,,,,,,,,,,,
1665776765.592840,1665776765.593743,27.000000,0.000000,4349.487305,4317.051270,4295.769043,4295.641113,4305.000000,4247.820313,4274.358887,4285.000000,4263.077148,4286.794922,4462.179688,4465.384766,4371.025879,4427.820313,0.000000,2.000000,49.000000,,,,0.000000,4.000000,4.000000,4.000000,4.000000,4.000000,4.000000,4.000000,4.000000,4.000000,4.000000,4.000000,4.000000,4.000000,4.000000,100.000000,,,,,,,,,,,,,,,,,,,,,,,,,,,,,,,,,,,,,,,,,,,,,,,
1665776765.600649,1665776765.601551,28.000000,0.000000,4344.230957,4316.153809,4295.000000,4302.179688,4303.717773,4246.922852,4277.820313,4286.282227,4261.922852,4287.948730,4457.692383,4461.025879,4370.641113,4416.666504,0.000000,2.000000,49.000000,,,,0.000000,4.000000,4.000000,4.000000,4.000000,4.000000,4.000000,4.000000,4.000000,4.000000,4.000000,4.000000,4.000000,4.000000,4.000000,100.000000,,,,,,,,,,,,,,,,,,,,,,,,,,,,,,,,,,,,,,,,,,,,,,,
1665776765.608457,1665776765.609260,29.000000,0.000000,4336.794922,4311.025879,4295.769043,4304.871582,4298.205078,4254.615234,4284.743652,4297.179688,4254.487305,4286.922852,4458.461426,4460.128418,4365.384766,4400.769043,0.000000,2.000000,49.000000,,,,0.000000,4.000000,4.000000,4.000000,4.000000,4.000000,4.000000,4.000000,4.000000,4.000000,4.000000,4.000000,4.000000,4.000000,4.000000,100.000000,,,,,,,,,,,,,,,,,,,,,,,,,,,,,,,,,,,,,,,,,,,,,,,
1665776765.616265,1665776765.617068,30.000000,0.000000,4319.871582,4303.205078,4288.717773,4295.000000,4296.666504,4262.436035,4291.153809,4303.846191,4248.461426,4286.410156,4455.256348,4463.333496,4360.128418,4396.410156,0.000000,2.000000,49.000000,,,,0.000000,4.000000,4.000000,4.000000,4.000000,4.000000,4.000000,4.000000,4.000000,4.000000,4.000000,4.000000,4.000000,4.000000,4.000000,100.000000,,,,,,,,,,,,,,,,,,,,,,,,,,,,,,,,,,,,,,,,,,,,,,,
1665776765.624074,1665776765.624777,31.000000,0.000000,4302.051270,4294.230957,4269.871582,4278.846191,4294.743652,4262.563965,4295.769043,4303.974121,4248.589844,4282.307617,4444.871582,4459.871582,4356.794922,4392.307617,0.000000,2.000000,49.000000,,,,0.000000,4.000000,4.000000,4.000000,4.000000,4.000000,4.000000,4.000000,4.000000,4.000000,4.000000,4.000000,4.000000,4.000000,4.000000,100.000000,,,,,,,,,,,,,,,,,,,,,,,,,,,,,,,,,,,,,,,,,,,,,,,
1665776765.631882,1665776765.632585,32.000000,0.000000,4292.436035,4292.692383,4261.410156,4275.128418,4289.102539,4261.666504,4301.153809,4306.282227,4245.769043,4280.000000,4438.333496,4451.794922,4351.025879,4381.666504,0.000000,2.000000,49.000000,,,,0.000000,4.000000,4.000000,4.000000,4.000000,4.000000,4.000000,4.000000,4.000000,4.000000,4.000000,4.000000,4.000000,4.000000,4.000000,100.000000,,,,,,,,,,,,,,,,,,,,,,,,,,,,,,,,,,,,,,,,,,,,,,,
1665776765.639691,1665776765.640294,33.000000,0.000000,4293.461426,4293.846191,4264.487305,4277.307617,4286.282227,4267.179688,4306.025879,4306.922852,4241.666504,4279.743652,4439.743652,4453.717773,4347.436035,4375.128418,0.000000,2.000000,49.000000,,,,0.000000,4.000000,4.000000,4.000000,4.000000,4.000000,4.000000,4.000000,4.000000,4.000000,4.000000,4.000000,4.000000,4.000000,4.000000,100.000000,,,,,,,,,,,,,,,,,,,,,,,,,,,,,,,,,,,,,,,,,,,,,,,
1665776765.647499,1665776765.648202,34.000000,0.000000,4293.974121,4290.769043,4263.461426,4274.230957,4283.077148,4268.333496,4298.846191,4302.051270,4238.077148,4278.205078,4438.205078,4454.871582,4347.436035,4378.461426,0.000000,2.000000,49.000000,,,,0.000000,4.000000,4.000000,4.000000,4.000000,4.000000,4.000000,4.000000,4.000000,4.000000,4.000000,4.000000,4.000000,4.000000,4.000000,100.000000,,,,,,,,,,,,,,,,,,,,,,,,,,,,,,,,,,,,,,,,,,,,,,,
1665776765.655307,1665776765.656010,35.000000,0.000000,4287.179688,4290.256348,4265.897461,4273.974121,4284.358887,4260.897461,4292.179688,4297.563965,4231.410156,4276.025879,4435.000000,4450.641113,4345.512695,4383.333496,0.000000,2.000000,49.000000,,,,0.000000,4.000000,4.000000,4.000000,4.000000,4.000000,4.000000,4.000000,4.000000,4.000000,4.000000,4.000000,4.000000,4.000000,4.000000,100.000000,,,,,,,,,,,,,,,,,,,,,,,,,,,,,,,,,,,,,,,,,,,,,,,
1665776765.663116,1665776765.663919,36.000000,0.000000,4283.974121,4295.384766,4276.410156,4277.563965,4290.256348,4264.230957,4302.563965,4304.743652,4231.666504,4278.077148,4443.333496,4455.384766,4344.871582,4386.282227,0.000000,2.000000,49.000000,,,,0.000000,4.000000,4.000000,4.000000,4.000000,4.000000,4.000000,4.000000,4.000000,4.000000,4.000000,4.000000,4.000000,4.000000,4.000000,100.000000,,,,,,,,,,,,,,,,,,,,,,,,,,,,,,,,,,,,,,,,,,,,,,,
1665776765.670924,1665776765.671727,37.000000,0.000000,4286.025879,4297.051270,4281.025879,4280.256348,4286.025879,4268.333496,4311.025879,4313.974121,4236.794922,4278.846191,4451.538574,4464.230957,4348.846191,4385.641113,0.000000,2.000000,49.000000,,,,0.000000,4.000000,4.000000,4.000000,4.000000,4.000000,4.000000,4.000000,4.000000,4.000000,4.000000,4.000000,4.000000,4.000000,4.000000,100.000000,,,,,,,,,,,,,,,,,,,,,,,,,,,,,,,,,,,,,,,,,,,,,,,
1665776765.678733,1665776765.679536,38.000000,0.000000,4289.615234,4295.769043,4278.205078,4273.589844,4278.589844,4257.051270,4301.025879,4305.897461,4235.641113,4274.230957,4442.436035,4462.563965,4347.948730,4381.666504,0.000000,2.000000,49.000000,,,,0.000000,4.000000,4.000000,4.000000,4.000000,4.000000,4.000000,4.000000,4.000000,4.000000,4.000000,4.000000,4.000000,4.000000,4.000000,100.000000,,,,,,,,,,,,,,,,,,,,,,,,,,,,,,,,,,,,,,,,,,,,,,,
1665776765.686541,1665776765.687244,39.000000,0.000000,4290.897461,4295.512695,4278.974121,4266.025879,4279.743652,4253.589844,4292.307617,4297.307617,4233.589844,4272.179688,4436.922852,4458.205078,4342.820313,4377.820313,0.000000,2.000000,49.000000,,,,0.000000,4.000000,4.000000,4.000000,4.000000,4.000000,4.000000,4.000000,4.000000,4.000000,4.000000,4.000000,4.000000,4.000000,4.000000,100.000000,,,,,,,,,,,,,,,,,,,,,,,,,,,,,,,,,,,,,,,,,,,,,,,
1665776765.694349,1665776765.695053,40.000000,0.000000,4289.102539,4296.153809,4282.307617,4269.230957,4281.794922,4264.102539,4296.538574,4304.615234,4234.743652,4275.128418,4448.077148,4465.128418,4346.794922,4377.948730,0.000000,2.000000,49.000000,,,,0.000000,4.000000,4.000000,4.000000,4.000000,4.000000,4.000000,4.000000,4.000000,4.000000,4.000000,4.000000,4.000000,4.000000,4.000000,100.000000,,,,,,,,,,,,,,,,,,,,,,,,,,,,,,,,,,,,,,,,,,,,,,,
1665776765.702158,1665776765.702761,41.000000,0.000000,4288.717773,4294.871582,4280.769043,4272.307617,4278.205078,4267.179688,4297.948730,4310.769043,4235.384766,4276.282227,4450.128418,4474.358887,4352.307617,4382.051270,0.000000,2.000000,49.000000,,,,0.000000,4.000000,4.000000,4.000000,4.000000,4.000000,4.000000,4.000000,4.000000,4.000000,4.000000,4.000000,4.000000,4.000000,4.000000,100.000000,,,,,,,,,,,,,,,,,,,,,,,,,,,,,,,,,,,,,,,,,,,,,,,
1665776765.709966,1665776765.710670,42.000000,0.000000,4292.692383,4293.077148,4278.589844,4271.794922,4279.615234,4261.922852,4293.717773,4303.846191,4233.205078,4273.974121,4442.820313,4471.922852,4348.974121,4383.846191,0.000000,2.000000,49.000000,,,,0.000000,4.000000,4.000000,4.000000,4.000000,4.000000,4.000000,4.000000,4.000000,4.000000,4.000000,4.000000,4.000000,4.000000,4.000000,100.000000,,,,,,,,,,,,,,,,,,,,,,,,,,,,,,,,,,,,,,,,,,,,,,,
1665776765.717775,1665776765.718478,43.000000,0.000000,4298.333496,4294.230957,4282.179688,4277.179688,4283.205078,4254.358887,4292.436035,4295.256348,4232.307617,4272.051270,4441.666504,4459.230957,4345.128418,4383.205078,0.000000,2.000000,49.000000,,,,0.000000,4.000000,4.000000,4.000000,4.000000,4.000000,4.000000,4.000000,4.000000,4.000000,4.000000,4.000000,4.000000,4.000000,4.000000,100.000000,,,,,,,,,,,,,,,,,,,,,,,,,,,,,,,,,,,,,,,,,,,,,,,
1665776765.725583,1665776765.726386,44.000000,0.000000,4302.948730,4301.410156,4290.256348,4284.102539,4277.820313,4248.717773,4292.179688,4295.897461,4237.179688,4273.333496,4442.820313,4455.128418,4348.205078,4387.436035,0.000000,2.000000,49.000000,,,,0.000000,4.000000,4.000000,4.000000,4.000000,4.000000,4.000000,4.000000,4.000000,4.000000,4.000000,4.000000,4.000000,4.000000,4.000000,100.000000,,,,,,,,,,,,,,,,,,,,,,,,,,,,,,,,,,,,,,,,,,,,,,,
1665776765.733391,1665776765.734195,45.000000,0.000000,4305.000000,4310.641113,4298.333496,4281.538574,4276.922852,4257.051270,4296.538574,4304.358887,4243.846191,4278.205078,4442.692383,4467.051270,4353.589844,4393.077148,0.000000,2.000000,49.000000,,,,0.000000,4.000000,4.000000,4.000000,4.000000,4.000000,4.000000,4.000000,4.000000,4.000000,4.000000,4.000000,4.000000,4.000000,4.000000,100.000000,,,,,,,,,,,,,,,,,,,,,,,,,,,,,,,,,,,,,,,,,,,,,,,
1665776765.741200,1665776765.742103,46.000000,0.000000,4300.256348,4309.102539,4295.897461,4278.077148,4286.153809,4268.846191,4303.974121,4307.820313,4247.820313,4282.436035,4446.025879,4471.794922,4353.589844,4385.000000,0.000000,2.000000,49.000000,,,,0.000000,4.000000,4.000000,4.000000,4.000000,4.000000,4.000000,4.000000,4.000000,4.000000,4.000000,4.000000,4.000000,4.000000,4.000000,100.000000,,,,,,,,,,,,,,,,,,,,,,,,,,,,,,,,,,,,,,,,,,,,,,,
1665776765.749008,1665776765.749912,47.000000,0.000000,4294.743652,4300.384766,4285.384766,4279.615234,4288.205078,4264.230957,4305.128418,4302.563965,4247.436035,4276.666504,4443.077148,4461.538574,4348.077148,4376.025879,0.000000,2.000000,49.000000,,,,0.000000,4.000000,4.000000,4.000000,4.000000,4.000000,4.000000,4.000000,4.000000,4.000000,4.000000,4.000000,4.000000,4.000000,4.000000,100.000000,,,,,,,,,,,,,,,,,,,,,,,,,,,,,,,,,,,,,,,,,,,,,,,
1665776765.756817,1665776765.757820,48.000000,0.000000,4292.948730,4302.051270,4280.897461,4279.358887,4283.974121,4260.641113,4302.436035,4302.051270,4245.641113,4273.461426,4437.436035,4461.666504,4346.794922,4382.948730,0.000000,2.000000,49.000000,,,,0.000000,4.000000,4.000000,4.000000,4.000000,4.000000,4.000000,4.000000,4.000000,4.000000,4.000000,4.000000,4.000000,4.000000,4.000000,100.000000,,,,,,,,,,,,,,,,,,,,,,,,,,,,,,,,,,,,,,,,,,,,,,,
1665776765.764625,1665776765.765628,49.000000,0.000000,4298.717773,4307.692383,4283.205078,4279.102539,4287.051270,4270.128418,4305.256348,4309.230957,4250.769043,4284.102539,4448.974121,4475.000000,4353.717773,4389.230957,0.000000,2.000000,49.000000,,,,0.000000,4.000000,4.000000,4.000000,4.000000,4.000000,4.000000,4.000000,4.000000,4.000000,4.000000,4.000000,4.000000,4.000000,4.000000,100.000000,,,,,,,,,,,,,,,,,,,,,,,,,,,,,,,,,,,,,,,,,,,,,,,
1665776765.772434,1665776765.773337,50.000000,0.000000,4303.846191,4304.230957,4281.794922,4280.128418,4286.410156,4271.922852,4306.282227,4312.051270,4261.794922,4287.692383,4461.538574,4478.974121,4359.230957,4390.128418,0.000000,2.000000,49.000000,,,,0.000000,4.000000,4.000000,4.000000,4.000000,4.000000,4.000000,4.000000,4.000000,4.000000,4.000000,4.000000,4.000000,4.000000,4.000000,100.000000,,,,,,,,,,,,,,,,,,,,,,,,,,,,,,,,,,,,,,,,,,,,,,,
1665776765.780242,1665776765.781145,51.000000,0.000000,4298.333496,4297.563965,4280.897461,4280.000000,4279.102539,4263.974121,4297.051270,4309.615234,4263.974121,4280.128418,4457.051270,4474.102539,4360.128418,4394.358887,0.000000,2.000000,49.000000,,,,0.000000,4.000000,4.000000,4.000000,4.000000,4.000000,4.000000,4.000000,4.000000,4.000000,4.000000,4.000000,4.000000,4.000000,4.000000,100.000000,,,,,,,,,,,,,,,,,,,,,,,,,,,,,,,,,,,,,,,,,,,,,,,
1665776765.788050,1665776765.788854,52.000000,0.000000,4298.589844,4299.743652,4289.102539,4281.153809,4279.358887,4261.025879,4292.436035,4310.256348,4263.589844,4278.077148,4458.846191,4475.128418,4360.897461,4397.179688,0.000000,2.000000,49.000000,,,,0.000000,4.000000,4.000000,4.000000,4.000000,4.000000,4.000000,4.000000,4.000000,4.000000,4.000000,4.000000,4.000000,4.000000,4.000000,100.000000,,,,,,,,,,,,,,,,,,,,,,,,,,,,,,,,,,,,,,,,,,,,,,,
1665776765.795859,1665776765.796662,53.000000,0.000000,4308.589844,4303.846191,4296.794922,4281.666504,4283.077148,4265.384766,4303.205078,4312.820313,4269.487305,4283.205078,4470.128418,4478.846191,4361.538574,4398.846191,0.000000,2.000000,49.000000,,,,0.000000,4.000000,4.000000,4.000000,4.000000,4.000000,4.000000,4.000000,4.000000,4.000000,4.000000,4.000000,4.000000,4.000000,4.000000,100.000000,,,,,,,,,,,,,,,,,,,,,,,,,,,,,,,,,,,,,,,,,,,,,,,
1665776765.803667,1665776765.804371,54.000000,0.000000,4304.358887,4301.794922,4292.948730,4275.128418,4281.153809,4266.153809,4309.230957,4311.922852,4270.384766,4282.563965,4464.358887,4479.102539,4359.230957,4398.077148,0.000000,2.000000,49.000000,,,,0.000000,4.000000,4.000000,4.000000,4.000000,4.000000,4.000000,4.000000,4.000000,4.000000,4.000000,4.000000,4.000000,4.000000,4.000000,100.000000,1.000000,91.666664,4.000000,4.000000,4.000000,4.000000,4.000000,4.000000,4.000000,4.000000,4.000000,3.000000,4.000000,4.000000,4.000000,4.000000,1.000000,0.707672,-0.236554,-1.465822,0.116663,1.000000,0.030455,2.471294,2.148477,12.748143,0.076985,1.000000,0.216291,34.484627,-97.421707,446.481995,1.000000,0.273007,0.101538,-0.017847,0.432125,1.000000,0.325467,3.567764,-5.207992,19.099220,1.000000,0.216081,0.216081,0.000000,1.000000
1665776765.811476,1665776765.812279,55.000000,0.000000,4292.563965,4301.025879,4286.410156,4273.974121,4278.974121,4263.461426,4305.641113,4309.487305,4269.615234,4279.487305,4454.102539,4476.794922,4359.615234,4390.384766,0.000000,2.000000,49.000000,,,,0.000000,4.000000,4.000000,4.000000,4.000000,4.000000,4.000000,4.000000,4.000000,4.000000,4.000000,4.000000,4.000000,4.000000,4.000000,100.000000,,,,,,,,,,,,,,,,,,,,,,,,,,,,,,,,,,,,,,,,,,,,,,,
1665776765.819284,1665776765.820088,56.000000,0.000000,4297.436035,4305.769043,4284.102539,4282.692383,4284.102539,4267.051270,4305.256348,4310.128418,4276.282227,4279.487305,4460.641113,4475.128418,4363.077148,4381.410156,0.000000,2.000000,49.000000,,,,0.000000,4.000000,4.000000,4.000000,4.000000,4.000000,4.000000,4.000000,4.000000,4.000000,4.000000,4.000000,4.000000,4.000000,4.000000,100.000000,,,,,,,,,,,,,,,,,,,,,,,,,,,,,,,,,,,,,,,,,,,,,,,
1665776765.827093,1665776765.827896,57.000000,0.000000,4305.769043,4309.102539,4281.794922,4283.461426,4288.461426,4271.025879,4306.025879,4310.256348,4281.410156,4277.563965,4463.589844,4475.641113,4362.563965,4382.948730,0.000000,2.000000,49.000000,,,,0.000000,4.000000,4.000000,4.000000,4.000000,4.000000,4.000000,4.000000,4.000000,4.000000,4.000000,4.000000,4.000000,4.000000,4.000000,100.000000,,,,,,,,,,,,,,,,,,,,,,,,,,,,,,,,,,,,,,,,,,,,,,,
1665776765.834901,1665776765.835605,58.000000,0.000000,4304.487305,4306.153809,4278.974121,4279.230957,4285.128418,4270.128418,4303.717773,4311.025879,4286.794922,4283.077148,4460.384766,4475.769043,4362.692383,4390.128418,0.000000,2.000000,49.000000,,,,0.000000,4.000000,4.000000,4.000000,4.000000,4.000000,4.000000,4.000000,4.000000,4.000000,4.000000,4.000000,4.000000,4.000000,4.000000,100.000000,,,,,,,,,,,,,,,,,,,,,,,,,,,,,,,,,,,,,,,,,,,,,,,
1665776765.842709,1665776765.843413,59.000000,0.000000,4301.666504,4307.307617,4280.384766,4285.256348,4282.692383,4266.410156,4301.922852,4313.717773,4296.922852,4290.641113,4469.102539,4474.743652,4364.615234,4389.615234,0.000000,2.000000,49.000000,,,,0.000000,4.000000,4.000000,4.000000,4.000000,4.000000,4.000000,4.000000,4.000000,4.000000,4.000000,4.000000,4.000000,4.000000,4.000000,100.000000,,,,,,,,,,,,,,,,,,,,,,,,,,,,,,,,,,,,,,,,,,,,,,,
1665776765.850518,1665776765.851122,60.000000,0.000000,4301.666504,4309.487305,4281.922852,4288.077148,4284.871582,4262.563965,4301.410156,4313.717773,4300.128418,4288.461426,4476.025879,4469.230957,4362.179688,4383.846191,0.000000,2.000000,49.000000,,,,0.000000,4.000000,4.000000,4.000000,4.000000,4.000000,4.000000,4.000000,4.000000,4.000000,4.000000,4.000000,4.000000,4.000000,4.000000,100.000000,,,,,,,,,,,,,,,,,,,,,,,,,,,,,,,,,,,,,,,,,,,,,,,
1665776765.858326,1665776765.858930,61.000000,0.000000,4302.563965,4309.358887,4283.589844,4279.230957,4285.000000,4265.256348,4303.077148,4317.179688,4294.871582,4285.384766,4473.205078,4467.563965,4362.820313,4387.948730,0.000000,2.000000,49.000000,,,,0.000000,4.000000,4.000000,4.000000,4.000000,4.000000,4.000000,4.000000,4.000000,4.000000,4.000000,4.000000,4.000000,4.000000,4.000000,100.000000,,,,,,,,,,,,,,,,,,,,,,,,,,,,,,,,,,,,,,,,,,,,,,,
1665776765.866135,1665776765.866639,62.000000,0.000000,4303.717773,4310.384766,4291.666504,4281.025879,4285.769043,4274.615234,4309.102539,4322.436035,4287.051270,4285.256348,4474.487305,4483.461426,4369.487305,4398.717773,0.000000,2.000000,49.000000,,,,0.000000,4.000000,4.000000,4.000000,4.000000,4.000000,4.000000,4.000000,4.000000,4.000000,4.000000,4.000000,4.000000,4.000000,4.000000,100.000000,,,,,,,,,,,,,,,,,,,,,,,,,,,,,,,,,,,,,,,,,,,,,,,
1665776765.873943,1665776765.874447,63.000000,0.000000,4304.102539,4310.897461,4296.922852,4291.794922,4291.153809,4279.102539,4311.794922,4321.410156,4279.743652,4283.717773,4477.051270,4495.769043,4372.692383,4403.717773,0.000000,2.000000,49.000000,,,,0.000000,4.000000,4.000000,4.000000,4.000000,4.000000,4.000000,4.000000,4.000000,4.000000,4.000000,4.000000,4.000000,4.000000,4.000000,100.000000,,,,,,,,,,,,,,,,,,,,,,,,,,,,,,,,,,,,,,,,,,,,,,,
1665776765.881751,1665776765.882156,64.000000,0.000000,4308.205078,4311.666504,4294.871582,4290.128418,4295.641113,4278.077148,4310.256348,4318.717773,4279.102539,4282.051270,4476.538574,4484.487305,4372.692383,4404.743652,2226.000000,2.000000,49.000000,,,,0.000000,4.000000,4.000000,4.000000,4.000000,4.000000,4.000000,4.000000,4.000000,4.000000,4.000000,4.000000,4.000000,4.000000,4.000000,100.000000,,,,,,,,,,,,,,,,,,,,,,,,,,,,,,,,,,,,,,,,,,,,,,,
1665776765.889560,1665776765.890064,65.000000,0.000000,4310.769043,4311.666504,4292.563965,4286.153809,4296.153809,4277.179688,4308.077148,4316.153809,4282.179688,4282.179688,4479.102539,4474.743652,4374.743652,4408.333496,2150.000000,2.000000,49.000000,,,,0.000000,4.000000,4.000000,4.000000,4.000000,4.000000,4.000000,4.000000,4.000000,4.000000,4.000000,4.000000,4.000000,4.000000,4.000000,100.000000,,,,,,,,,,,,,,,,,,,,,,,,,,,,,,,,,,,,,,,,,,,,,,,
1665776765.897368,1665776765.897872,66.000000,0.000000,4301.025879,4308.974121,4288.717773,4290.256348,4291.410156,4269.358887,4302.948730,4309.871582,4280.384766,4279.743652,4474.871582,4477.948730,4369.358887,4405.641113,1925.000000,2.000000,49.000000,,,,0.000000,4.000000,4.000000,4.000000,4.000000,4.000000,4.000000,4.000000,4.000000,4.000000,4.000000,4.000000,4.000000,4.000000,4.000000,100.000000,,,,,,,,,,,,,,,,,,,,,,,,,,,,,,,,,,,,,,,,,,,,,,,
1665776765.905177,1665776765.905781,67.000000,0.000000,4293.205078,4305.641113,4285.512695,4287.692383,4286.538574,4260.512695,4297.179688,4307.051270,4277.948730,4278.333496,4463.205078,4477.820313,4361.666504,4400.641113,2282.000000,2.000000,49.000000,,,,0.000000,4.000000,4.000000,4.000000,4.000000,4.000000,4.000000,4.000000,4.000000,4.000000,4.000000,4.000000,4.000000,4.000000,4.000000,100.000000,,,,,,,,,,,,,,,,,,,,,,,,,,,,,,,,,,,,,,,,,,,,,,,
1665776765.912985,1665776765.913589,68.000000,0.000000,4295.897461,4307.436035,4289.358887,4281.666504,4289.487305,4267.179688,4301.538574,4311.666504,4284.487305,4279.743652,4461.794922,4475.000000,4362.436035,4401.794922,2217.000000,2.000000,49.000000,,,,0.000000,4.000000,4.000000,4.000000,4.000000,4.000000,4.000000,4.000000,4.000000,4.000000,4.000000,4.000000,4.000000,4.000000,4.000000,100.000000,,,,,,,,,,,,,,,,,,,,,,,,,,,,,,,,,,,,,,,,,,,,,,,
1665776765.920793,1665776765.921498,69.000000,0.000000,4297.179688,4308.589844,4293.717773,4280.384766,4294.615234,4274.102539,4309.487305,4313.589844,4292.179688,4277.051270,4464.358887,4475.384766,4360.384766,4401.025879,2132.000000,2.000000,49.000000,,,,0.000000,4.000000,4.000000,4.000000,4.000000,4.000000,4.000000,4.000000,4.000000,4.000000,4.000000,4.000000,4.000000,4.000000,4.000000,100.000000,,,,,,,,,,,,,,,,,,,,,,,,,,,,,,,,,,,,,,,,,,,,,,,
1665776765.928602,1665776765.929306,70.000000,0.000000,4295.000000,4308.717773,4294.487305,4281.538574,4289.615234,4267.051270,4304.487305,4311.282227,4288.717773,4276.794922,4460.384766,4475.897461,4355.897461,4397.563965,1938.000000,2.000000,49.000000,,,,0.000000,4.000000,4.000000,4.000000,4.000000,4.000000,4.000000,4.000000,4.000000,4.000000,4.000000,4.000000,4.000000,4.000000,4.000000,100.000000,,,,,,,,,,,,,,,,,,,,,,,,,,,,,,,,,,,,,,,,,,,,,,,
1665776765.936410,1665776765.937214,71.000000,0.000000,4294.871582,4311.538574,4294.230957,4286.794922,4283.333496,4262.948730,4299.358887,4308.077148,4279.487305,4279.230957,4461.025879,4476.025879,4360.000000,4399.615234,2160.000000,2.000000,49.000000,,,,0.000000,4.000000,4.000000,4.000000,4.000000,4.000000,4.000000,4.000000,4.000000,4.000000,4.000000,4.000000,4.000000,4.000000,4.000000,100.000000,,,,,,,,,,,,,,,,,,,,,,,,,,,,,,,,,,,,,,,,,,,,,,,
1665776765.944219,1665776765.945023,72.000000,0.000000,4295.256348,4310.384766,4294.230957,4293.077148,4291.922852,4271.794922,4307.563965,4308.589844,4280.769043,4280.769043,4465.000000,4478.461426,4366.410156,4410.641113,2090.000000,2.000000,49.000000,,,,0.000000,4.000000,4.000000,4.000000,4.000000,4.000000,4.000000,4.000000,4.000000,4.000000,4.000000,4.000000,4.000000,4.000000,4.000000,100.000000,,,,,,,,,,,,,,,,,,,,,,,,,,,,,,,,,,,,,,,,,,,,,,,
1665776765.952027,1665776765.952931,73.000000,0.000000,4299.102539,4311.410156,4293.974121,4294.743652,4303.077148,4280.256348,4313.077148,4314.230957,4289.615234,4281.025879,4465.000000,4478.333496,4363.846191,4412.820313,1710.000000,2.000000,49.000000,,,,0.000000,4.000000,4.000000,4.000000,4.000000,4.000000,4.000000,4.000000,4.000000,4.000000,4.000000,4.000000,4.000000,4.000000,4.000000,100.000000,,,,,,,,,,,,,,,,,,,,,,,,,,,,,,,,,,,,,,,,,,,,,,,
1665776765.959835,1665776765.960740,74.000000,0.000000,4305.641113,4317.436035,4297.692383,4298.077148,4301.282227,4280.256348,4308.974121,4315.000000,4292.692383,4280.897461,4465.897461,4475.897461,4360.256348,4401.410156,2573.000000,2.000000,49.000000,,,,0.000000,4.000000,4.000000,4.000000,4.000000,4.000000,4.000000,4.000000,4.000000,4.000000,4.000000,4.000000,4.000000,4.000000,4.000000,100.000000,,,,,,,,,,,,,,,,,,,,,,,,,,,,,,,,,,,,,,,,,,,,,,,
1665776765.967644,1665776765.968648,75.000000,0.000000,4305.769043,4317.948730,4296.538574,4301.153809,4297.307617,4281.410156,4307.307617,4312.692383,4295.897461,4282.307617,4467.948730,4476.922852,4363.333496,4396.282227,2762.000000,2.000000,49.000000,,,,0.000000,4.000000,4.000000,4.000000,4.000000,4.000000,4.000000,4.000000,4.000000,4.000000,4.000000,4.000000,4.000000,4.000000,4.000000,100.000000,,,,,,,,,,,,,,,,,,,,,,,,,,,,,,,,,,,,,,,,,,,,,,,
1665776765.975452,1665776765.976456,76.000000,0.000000,4298.077148,4313.974121,4284.743652,4296.538574,4300.128418,4277.179688,4303.205078,4310.128418,4293.333496,4280.384766,4462.436035,4468.846191,4362.179688,4400.384766,2855.000000,2.000000,49.000000,,,,0.000000,4.000000,4.000000,4.000000,4.000000,4.000000,4.000000,4.000000,4.000000,4.000000,4.000000,4.000000,4.000000,4.000000,4.000000,100.000000,,,,,,,,,,,,,,,,,,,,,,,,,,,,,,,,,,,,,,,,,,,,,,,
1665776765.983261,1665776765.984165,77.000000,0.000000,4295.128418,4316.282227,4283.461426,4295.512695,4298.333496,4266.025879,4295.769043,4305.000000,4283.717773,4277.563965,4457.820313,4457.692383,4357.307617,4401.922852,3004.000000,2.000000,49.000000,,,,0.000000,4.000000,4.000000,4.000000,4.000000,4.000000,4.000000,4.000000,4.000000,4.000000,4.000000,4.000000,4.000000,4.000000,4.000000,100.000000,,,,,,,,,,,,,,,,,,,,,,,,,,,,,,,,,,,,,,,,,,,,,,,
1665776765.991069,1665776765.991973,78.000000,0.000000,4305.256348,4324.615234,4295.897461,4299.358887,4296.153809,4267.820313,4299.743652,4308.717773,4286.538574,4280.897461,4466.794922,4466.025879,4364.615234,4401.922852,2573.000000,2.000000,49.000000,,,,0.000000,4.000000,4.000000,4.000000,4.000000,4.000000,4.000000,4.000000,4.000000,4.000000,4.000000,4.000000,4.000000,4.000000,4.000000,100.000000,,,,,,,,,,,,,,,,,,,,,,,,,,,,,,,,,,,,,,,,,,,,,,,
1665776765.998877,1665776765.999682,79.000000,0.000000,4313.077148,4327.436035,4300.512695,4297.692383,4296.025879,4277.051270,4308.589844,4320.128418,4297.692383,4287.179688,4473.333496,4480.897461,4374.487305,4406.153809,2762.000000,2.000000,49.000000,,,,0.000000,4.000000,4.000000,4.000000,4.000000,4.000000,4.000000,4.000000,4.000000,4.000000,4.000000,4.000000,4.000000,4.000000,4.000000,100.000000,,,,,,,,,,,,,,,,,,,,,,,,,,,,,,,,,,,,,,,,,,,,,,,
1665776766.006686,1665776766.007490,80.000000,0.000000,4309.871582,4326.410156,4301.025879,4298.717773,4296.282227,4279.615234,4310.000000,4319.487305,4299.871582,4290.384766,4467.051270,4479.487305,4374.615234,4410.512695,2855.000000,2.000000,49.000000,,,,0.000000,4.000000,4.000000,4.000000,4.000000,4.000000,4.000000,4.000000,4.000000,4.000000,4.000000,4.000000,4.000000,4.000000,4.000000,100.000000,,,,,,,,,,,,,,,,,,,,,,,,,,,,,,,,,,,,,,,,,,,,,,,
1665776766.014494,1665776766.015199,81.000000,0.000000,4307.436035,4326.410156,4307.051270,4304.487305,4299.871582,4276.538574,4305.897461,4310.512695,4294.615234,4287.307617,4463.077148,4476.666504,4373.717773,4411.922852,3004.000000,2.000000,49.000000,,,,0.000000,4.000000,4.000000,4.000000,4.000000,4.000000,4.000000,4.000000,4.000000,4.000000,4.000000,4.000000,4.000000,4.000000,4.000000,100.000000,,,,,,,,,,,,,,,,,,,,,,,,,,,,,,,,,,,,,,,,,,,,,,,
1665776766.022303,1665776766.023007,82.000000,0.000000,4307.051270,4319.871582,4302.436035,4303.077148,4301.282227,4271.666504,4301.538574,4311.410156,4296.282227,4281.410156,4468.974121,4484.102539,4374.487305,4411.025879,2573.000000,2.000000,49.000000,,,,0.000000,4.000000,4.000000,4.000000,4.000000,4.000000,4.000000,4.000000,4.000000,4.000000,4.000000,4.000000,4.000000,4.000000,4.000000,100.000000,,,,,,,,,,,,,,,,,,,,,,,,,,,,,,,,,,,,,,,,,,,,,,,
1665776766.030111,1665776766.030716,83.000000,0.000000,4308.205078,4312.436035,4294.102539,4298.077148,4301.922852,4274.615234,4306.153809,4318.974121,4304.871582,4279.102539,4475.256348,4488.974121,4373.717773,4412.179688,2762.000000,2.000000,49.000000,,,,0.000000,4.000000,4.000000,4.000000,4.000000,4.000000,4.000000,4.000000,4.000000,4.000000,4.000000,4.000000,4.000000,4.000000,4.000000,100.000000,,,,,,,,,,,,,,,,,,,,,,,,,,,,,,,,,,,,,,,,,,,,,,,
1665776766.037919,1665776766.038524,84.000000,0.000000,4313.589844,4313.974121,4299.615234,4299.487305,4305.000000,4282.179688,4313.461426,4322.051270,4311.025879,4284.871582,4475.384766,4491.153809,4373.846191,4418.974121,2855.000000,2.000000,49.000000,,,,0.000000,4.000000,4.000000,4.000000,4.000000,4.000000,4.000000,4.000000,4.000000,4.000000,4.000000,4.000000,4.000000,4.000000,4.000000,100.000000,,,,,,,,,,,,,,,,,,,,,,,,,,,,,,,,,,,,,,,,,,,,,,,
1665776766.045728,1665776766.046233,85.000000,0.000000,4316.282227,4319.615234,4305.256348,4300.769043,4306.410156,4279.230957,4311.153809,4322.692383,4313.589844,4290.512695,4477.179688,4493.974121,4375.000000,4427.051270,3004.000000,2.000000,49.000000,,,,0.000000,4.000000,4.000000,4.000000,4.000000,4.000000,4.000000,4.000000,4.000000,4.000000,4.000000,4.000000,4.000000,4.000000,4.000000,100.000000,,,,,,,,,,,,,,,,,,,,,,,,,,,,,,,,,,,,,,,,,,,,,,,
1665776766.053536,1665776766.054041,86.000000,0.000000,4311.025879,4320.897461,4303.077148,4303.974121,4306.922852,4276.794922,4311.153809,4323.589844,4320.000000,4292.692383,4480.256348,4494.487305,4376.922852,4430.000000,2573.000000,2.000000,49.000000,,,,0.000000,4.000000,4.000000,4.000000,4.000000,4.000000,4.000000,4.000000,4.000000,4.000000,4.000000,4.000000,4.000000,4.000000,4.000000,100.000000,,,,,,,,,,,,,,,,,,,,,,,,,,,,,,,,,,,,,,,,,,,,,,,
1665776766.061345,1665776766.061750,87.000000,0.000000,4303.333496,4315.384766,4297.307617,4301.410156,4306.410156,4278.077148,4316.794922,4321.025879,4327.820313,4292.179688,4477.948730,4494.102539,4378.717773,4421.666504,2762.000000,2.000000,49.000000,,,,0.000000,4.000000,4.000000,4.000000,4.000000,4.000000,4.000000,4.000000,4.000000,4.000000,4.000000,4.000000,4.000000,4.000000,4.000000,100.000000,,,,,,,,,,,,,,,,,,,,,,,,,,,,,,,,,,,,,,,,,,,,,,,
1665776766.069153,1665776766.069558,88.000000,0.000000,4299.487305,4310.128418,4290.641113,4284.230957,4299.871582,4267.563965,4310.384766,4315.384766,4326.666504,4287.820313,4474.102539,4491.282227,4375.769043,4409.230957,2855.000000,2.000000,49.000000,,,,0.000000,4.000000,4.000000,4.000000,4.000000,4.000000,4.000000,4.000000,4.000000,4.000000,4.000000,4.000000,4.000000,4.000000,4.000000,100.000000,,,,,,,,,,,,,,,,,,,,,,,,,,,,,,,,,,,,,,,,,,,,,,,
1665776766.076962,1665776766.077267,89.000000,0.000000,4301.922852,4310.384766,4291.282227,4284.871582,4296.025879,4263.461426,4301.025879,4312.948730,4325.000000,4287.051270,4477.051270,4491.794922,4375.512695,4418.846191,3004.000000,2.000000,49.000000,,,,0.000000,4.000000,4.000000,4.000000,4.000000,4.000000,4.000000,4.000000,4.000000,4.000000,4.000000,4.000000,4.000000,4.000000,4.000000,100.000000,,,,,,,,,,,,,,,,,,,,,,,,,,,,,,,,,,,,,,,,,,,,,,,
1665776766.084770,1665776766.085175,90.000000,0.000000,4301.282227,4308.333496,4294.230957,4303.589844,4300.384766,4271.282227,4302.692383,4312.179688,4326.282227,4286.153809,4474.230957,4493.077148,4377.307617,4434.487305,2573.000000,2.000000,49.000000,,,,0.000000,4.000000,4.000000,4.000000,4.000000,4.000000,4.000000,4.000000,4.000000,4.000000,4.000000,4.000000,4.000000,4.000000,4.000000,100.000000,,,,,,,,,,,,,,,,,,,,,,,,,,,,,,,,,,,,,,,,,,,,,,,
1665776766.092578,1665776766.092984,91.000000,0.000000,4293.589844,4302.051270,4286.922852,4300.769043,4299.102539,4266.025879,4298.717773,4308.846191,4326.538574,4279.871582,4466.025879,4482.948730,4371.025879,4422.307617,2762.000000,2.000000,49.000000,,,,0.000000,4.000000,4.000000,4.000000,4.000000,4.000000,4.000000,4.000000,4.000000,4.000000,4.000000,4.000000,4.000000,4.000000,4.000000,100.000000,,,,,,,,,,,,,,,,,,,,,,,,,,,,,,,,,,,,,,,,,,,,,,,
1665776766.100387,1665776766.100892,92.000000,0.000000,4298.077148,4307.563965,4285.641113,4290.256348,4298.589844,4260.769043,4291.410156,4309.487305,4333.077148,4279.487305,4468.846191,4475.897461,4367.692383,4408.846191,2855.000000,2.000000,49.000000,,,,0.000000,4.000000,4.000000,4.000000,4.000000,4.000000,4.000000,4.000000,4.000000,4.000000,4.000000,4.000000,4.000000,4.000000,4.000000,100.000000,,,,,,,,,,,,,,,,,,,,,,,,,,,,,,,,,,,,,,,,,,,,,,,
