title:Psychopy_Andrew_Earphones_Closed, start timestamp:1665770644.087256, stop timestamp:1665770705.094190, headset type:EPOCX, headset serial:E2020A42, headset firmware:720, channels:86, sampling rate:eeg_128;pm_2, samples:7814      , version:2.1, 
Timestamp,OriginalTimestamp,EEG.Counter,EEG.Interpolated,EEG.AF3,EEG.F7,EEG.F3,EEG.FC5,EEG.T7,EEG.P7,EEG.O1,EEG.O2,EEG.P8,EEG.T8,EEG.FC6,EEG.F4,EEG.F8,EEG.AF4,EEG.RawCq,EEG.Battery,EEG.BatteryPercent,MarkerIndex,MarkerType,MarkerValueInt,EEG.MarkerHardware,CQ.AF3,CQ.F7,CQ.F3,CQ.FC5,CQ.T7,CQ.P7,CQ.O1,CQ.O2,CQ.P8,CQ.T8,CQ.FC6,CQ.F4,CQ.F8,CQ.AF4,CQ.Overall,EQ.SampleRateQuality,EQ.OVERALL,EQ.AF3,EQ.F7,EQ.F3,EQ.FC5,EQ.T7,EQ.P7,EQ.O1,EQ.O2,EQ.P8,EQ.T8,EQ.FC6,EQ.F4,EQ.F8,EQ.AF4,PM.Engagement.IsActive,PM.Engagement.Scaled,PM.Engagement.Raw,PM.Engagement.Min,PM.Engagement.Max,PM.Excitement.IsActive,PM.Excitement.Scaled,PM.Excitement.Raw,PM.Excitement.Min,PM.Excitement.Max,PM.LongTermExcitement,PM.Stress.IsActive,PM.Stress.Scaled,PM.Stress.Raw,PM.Stress.Min,PM.Stress.Max,PM.Relaxation.IsActive,PM.Relaxation.Scaled,PM.Relaxation.Raw,PM.Relaxation.Min,PM.Relaxation.Max,PM.Interest.IsActive,PM.Interest.Scaled,PM.Interest.Raw,PM.Interest.Min,PM.Interest.Max,PM.Focus.IsActive,PM.Focus.Scaled,PM.Focus.Raw,PM.Focus.Min,PM.Focus.Max
1665770644.087256,1665770644.088012,85.000000,0.000000,4296.282227,4283.589844,4267.307617,4267.051270,4277.436035,4265.641113,4276.922852,4288.333496,4264.102539,4239.615234,4368.717773,4287.692383,4356.410156,4377.051270,1234.000000,2.000000,54.000000,,,,0.000000,4.000000,4.000000,4.000000,4.000000,4.000000,4.000000,4.000000,4.000000,4.000000,4.000000,4.000000,4.000000,4.000000,4.000000,100.000000,,,,,,,,,,,,,,,,,,,,,,,,,,,,,,,,,,,,,,,,,,,,,,,
1665770644.095065,1665770644.095920,86.000000,0.000000,4326.282227,4296.153809,4283.205078,4276.666504,4277.820313,4264.743652,4278.589844,4283.846191,4264.487305,4248.077148,4384.487305,4291.153809,4388.333496,4406.410156,2725.000000,2.000000,54.000000,,,,0.000000,4.000000,4.000000,4.000000,4.000000,4.000000,4.000000,4.000000,4.000000,4.000000,4.000000,4.000000,4.000000,4.000000,4.000000,100.000000,,,,,,,,,,,,,,,,,,,,,,,,,,,,,,,,,,,,,,,,,,,,,,,
1665770644.102873,1665770644.103729,87.000000,0.000000,4351.666504,4309.487305,4303.589844,4289.871582,4277.820313,4263.717773,4282.563965,4292.436035,4270.384766,4252.179688,4405.512695,4299.230957,4407.820313,4431.666504,2301.000000,2.000000,54.000000,,,,0.000000,4.000000,4.000000,4.000000,4.000000,4.000000,4.000000,4.000000,4.000000,4.000000,4.000000,4.000000,4.000000,4.000000,4.000000,100.000000,,,,,,,,,,,,,,,,,,,,,,,,,,,,,,,,,,,,,,,,,,,,,,,
1665770644.110681,1665770644.111637,88.000000,0.000000,4368.717773,4317.179688,4315.128418,4298.077148,4279.615234,4265.256348,4282.051270,4300.000000,4280.128418,4261.153809,4417.692383,4305.897461,4418.589844,4447.692383,3056.000000,2.000000,54.000000,,,,0.000000,4.000000,4.000000,4.000000,4.000000,4.000000,4.000000,4.000000,4.000000,4.000000,4.000000,4.000000,4.000000,4.000000,4.000000,100.000000,,,,,,,,,,,,,,,,,,,,,,,,,,,,,,,,,,,,,,,,,,,,,,,
1665770644.118490,1665770644.119446,89.000000,0.000000,4381.666504,4320.000000,4318.846191,4298.717773,4279.230957,4265.000000,4281.666504,4298.077148,4284.230957,4269.615234,4427.563965,4309.743652,4441.410156,4468.205078,1234.000000,2.000000,54.000000,,,,0.000000,4.000000,4.000000,4.000000,4.000000,4.000000,4.000000,4.000000,4.000000,4.000000,4.000000,4.000000,4.000000,4.000000,4.000000,100.000000,,,,,,,,,,,,,,,,,,,,,,,,,,,,,,,,,,,,,,,,,,,,,,,
1665770644.126298,1665770644.127154,90.000000,0.000000,4386.153809,4314.871582,4322.820313,4295.897461,4277.436035,4261.538574,4279.487305,4297.692383,4283.717773,4267.948730,4433.589844,4310.256348,4455.769043,4481.666504,2725.000000,2.000000,54.000000,,,,0.000000,4.000000,4.000000,4.000000,4.000000,4.000000,4.000000,4.000000,4.000000,4.000000,4.000000,4.000000,4.000000,4.000000,4.000000,100.000000,,,,,,,,,,,,,,,,,,,,,,,,,,,,,,,,,,,,,,,,,,,,,,,
1665770644.134107,1665770644.134963,91.000000,0.000000,4389.358887,4312.692383,4326.666504,4293.846191,4277.179688,4261.666504,4271.794922,4298.717773,4281.410156,4263.846191,4430.128418,4310.897461,4444.487305,4478.333496,2301.000000,2.000000,54.000000,,,,0.000000,4.000000,4.000000,4.000000,4.000000,4.000000,4.000000,4.000000,4.000000,4.000000,4.000000,4.000000,4.000000,4.000000,4.000000,100.000000,,,,,,,,,,,,,,,,,,,,,,,,,,,,,,,,,,,,,,,,,,,,,,,
1665770644.141915,1665770644.142671,92.000000,0.000000,4399.615234,4324.743652,4330.000000,4298.461426,4274.615234,4262.563965,4265.000000,4293.333496,4276.538574,4262.948730,4425.769043,4310.897461,4441.025879,4481.410156,3056.000000,2.000000,54.000000,,,,0.000000,4.000000,4.000000,4.000000,4.000000,4.000000,4.000000,4.000000,4.000000,4.000000,4.000000,4.000000,4.000000,4.000000,4.000000,100.000000,,,,,,,,,,,,,,,,,,,,,,,,,,,,,,,,,,,,,,,,,,,,,,,
1665770644.149723,1665770644.150480,93.000000,0.000000,4400.128418,4321.282227,4328.717773,4297.179688,4268.589844,4255.256348,4264.230957,4291.025879,4275.384766,4264.871582,4429.871582,4315.000000,4458.974121,4493.333496,1234.000000,2.000000,54.000000,,,,0.000000,4.000000,4.000000,4.000000,4.000000,4.000000,4.000000,4.000000,4.000000,4.000000,4.000000,4.000000,4.000000,4.000000,4.000000,100.000000,1.000000,75.000000,4.000000,4.000000,3.000000,4.000000,4.000000,4.000000,4.000000,3.000000,4.000000,4.000000,4.000000,4.000000,4.000000,3.000000,1.000000,0.139848,-1.026634,-1.407491,0.709781,1.000000,0.039292,3.337178,2.970610,12.299853,0.338182,1.000000,0.435440,90.812439,-80.418571,301.740692,1.000000,0.697059,0.303839,0.085256,0.260020,1.000000,0.423916,5.435922,-4.389390,18.371691,1.000000,0.265949,0.265949,0.000000,1.000000
1665770644.157532,1665770644.158188,94.000000,0.000000,4385.128418,4299.358887,4318.589844,4284.230957,4263.589844,4247.179688,4267.307617,4294.743652,4276.538574,4266.410156,4435.128418,4319.102539,4462.307617,4488.974121,2725.000000,2.000000,54.000000,,,,0.000000,4.000000,4.000000,4.000000,4.000000,4.000000,4.000000,4.000000,4.000000,4.000000,4.000000,4.000000,4.000000,4.000000,4.000000,100.000000,,,,,,,,,,,,,,,,,,,,,,,,,,,,,,,,,,,,,,,,,,,,,,,
1665770644.165340,1665770644.166096,95.000000,0.000000,4379.358887,4298.461426,4312.563965,4280.512695,4267.051270,4249.358887,4273.077148,4294.871582,4274.102539,4261.794922,4431.282227,4317.820313,4446.410156,4478.717773,2301.000000,2.000000,54.000000,,,,0.000000,4.000000,4.000000,4.000000,4.000000,4.000000,4.000000,4.000000,4.000000,4.000000,4.000000,4.000000,4.000000,4.000000,4.000000,100.000000,,,,,,,,,,,,,,,,,,,,,,,,,,,,,,,,,,,,,,,,,,,,,,,
1665770644.173149,1665770644.173905,96.000000,0.000000,4383.589844,4313.333496,4316.794922,4292.051270,4272.820313,4253.333496,4277.563965,4295.897461,4273.974121,4258.846191,4425.641113,4317.563965,4443.461426,4482.563965,3056.000000,2.000000,54.000000,,,,0.000000,4.000000,4.000000,4.000000,4.000000,4.000000,4.000000,4.000000,4.000000,4.000000,4.000000,4.000000,4.000000,4.000000,4.000000,100.000000,,,,,,,,,,,,,,,,,,,,,,,,,,,,,,,,,,,,,,,,,,,,,,,
1665770644.180957,1665770644.181813,97.000000,0.000000,4382.948730,4313.846191,4322.436035,4296.153809,4269.871582,4249.871582,4277.692383,4304.487305,4280.897461,4263.589844,4431.538574,4323.333496,4452.692383,4485.897461,1234.000000,2.000000,54.000000,,,,0.000000,4.000000,4.000000,4.000000,4.000000,4.000000,4.000000,4.000000,4.000000,4.000000,4.000000,4.000000,4.000000,4.000000,4.000000,100.000000,,,,,,,,,,,,,,,,,,,,,,,,,,,,,,,,,,,,,,,,,,,,,,,
1665770644.188765,1665770644.189622,98.000000,0.000000,4381.025879,4309.487305,4324.743652,4289.358887,4265.128418,4248.077148,4281.666504,4308.333496,4284.871582,4263.077148,4431.153809,4325.256348,4447.051270,4477.563965,2725.000000,2.000000,54.000000,,,,0.000000,4.000000,4.000000,4.000000,4.000000,4.000000,4.000000,4.000000,4.000000,4.000000,4.000000,4.000000,4.000000,4.000000,4.000000,100.000000,,,,,,,,,,,,,,,,,,,,,,,,,,,,,,,,,,,,,,,,,,,,,,,
1665770644.196574,1665770644.197530,99.000000,0.000000,4378.333496,4312.948730,4321.410156,4286.666504,4267.436035,4250.000000,4278.974121,4299.487305,4277.563965,4251.153809,4410.897461,4317.948730,4431.794922,4470.256348,2301.000000,2.000000,54.000000,,,,0.000000,4.000000,4.000000,4.000000,4.000000,4.000000,4.000000,4.000000,4.000000,4.000000,4.000000,4.000000,4.000000,4.000000,4.000000,100.000000,,,,,,,,,,,,,,,,,,,,,,,,,,,,,,,,,,,,,,,,,,,,,,,
1665770644.204382,1665770644.205339,100.000000,0.000000,4369.487305,4305.256348,4311.794922,4282.563965,4266.410156,4248.846191,4268.974121,4292.692383,4271.153809,4244.487305,4400.769043,4311.538574,4426.538574,4471.025879,3056.000000,2.000000,54.000000,,,,0.000000,4.000000,4.000000,4.000000,4.000000,4.000000,4.000000,4.000000,4.000000,4.000000,4.000000,4.000000,4.000000,4.000000,4.000000,100.000000,,,,,,,,,,,,,,,,,,,,,,,,,,,,,,,,,,,,,,,,,,,,,,,
1665770644.212191,1665770644.213147,101.000000,0.000000,4365.641113,4295.897461,4310.769043,4279.358887,4262.307617,4248.333496,4270.512695,4295.256348,4276.410156,4246.794922,4409.102539,4311.410156,4428.717773,4472.692383,1234.000000,2.000000,54.000000,,,,0.000000,4.000000,4.000000,4.000000,4.000000,4.000000,4.000000,4.000000,4.000000,4.000000,4.000000,4.000000,4.000000,4.000000,4.000000,100.000000,,,,,,,,,,,,,,,,,,,,,,,,,,,,,,,,,,,,,,,,,,,,,,,
1665770644.219999,1665770644.220856,102.000000,0.000000,4378.205078,4312.051270,4323.205078,4288.077148,4263.717773,4249.743652,4274.871582,4296.922852,4282.820313,4249.102539,4412.436035,4312.436035,4437.051270,4474.871582,2725.000000,2.000000,54.000000,,,,0.000000,4.000000,4.000000,4.000000,4.000000,4.000000,4.000000,4.000000,4.000000,4.000000,4.000000,4.000000,4.000000,4.000000,4.000000,100.000000,,,,,,,,,,,,,,,,,,,,,,,,,,,,,,,,,,,,,,,,,,,,,,,
1665770644.227807,1665770644.228664,103.000000,0.000000,4390.384766,4325.769043,4330.641113,4296.922852,4264.743652,4250.256348,4272.820313,4295.512695,4282.948730,4256.282227,4411.282227,4314.743652,4444.743652,4479.487305,2301.000000,2.000000,54.000000,,,,0.000000,4.000000,4.000000,4.000000,4.000000,4.000000,4.000000,4.000000,4.000000,4.000000,4.000000,4.000000,4.000000,4.000000,4.000000,100.000000,,,,,,,,,,,,,,,,,,,,,,,,,,,,,,,,,,,,,,,,,,,,,,,
1665770644.235616,1665770644.236373,104.000000,0.000000,4389.102539,4318.077148,4329.615234,4296.538574,4268.205078,4250.000000,4274.487305,4296.666504,4282.051270,4264.487305,4415.769043,4316.153809,4446.410156,4481.025879,3056.000000,2.000000,54.000000,,,,0.000000,4.000000,4.000000,4.000000,4.000000,4.000000,4.000000,4.000000,4.000000,4.000000,4.000000,4.000000,4.000000,4.000000,4.000000,100.000000,,,,,,,,,,,,,,,,,,,,,,,,,,,,,,,,,,,,,,,,,,,,,,,
1665770644.243424,1665770644.244181,105.000000,0.000000,4381.538574,4308.974121,4328.717773,4293.461426,4275.256348,4250.512695,4279.487305,4297.692383,4282.820313,4263.846191,4417.563965,4315.512695,4445.769043,4479.743652,1234.000000,2.000000,54.000000,,,,0.000000,4.000000,4.000000,4.000000,4.000000,4.000000,4.000000,4.000000,4.000000,4.000000,4.000000,4.000000,4.000000,4.000000,4.000000,100.000000,,,,,,,,,,,,,,,,,,,,,,,,,,,,,,,,,,,,,,,,,,,,,,,
1665770644.251233,1665770644.251890,106.000000,0.000000,4373.846191,4304.102539,4324.615234,4289.230957,4271.538574,4250.256348,4272.436035,4297.820313,4282.563965,4263.717773,4414.230957,4315.897461,4447.307617,4475.512695,2725.000000,2.000000,54.000000,,,,0.000000,4.000000,4.000000,4.000000,4.000000,4.000000,4.000000,4.000000,4.000000,4.000000,4.000000,4.000000,4.000000,4.000000,4.000000,100.000000,,,,,,,,,,,,,,,,,,,,,,,,,,,,,,,,,,,,,,,,,,,,,,,
1665770644.259041,1665770644.259798,107.000000,0.000000,4367.051270,4297.692383,4313.077148,4283.589844,4267.307617,4249.615234,4265.769043,4296.922852,4280.384766,4266.025879,4411.025879,4315.384766,4442.051270,4466.025879,2301.000000,2.000000,54.000000,,,,0.000000,4.000000,4.000000,4.000000,4.000000,4.000000,4.000000,4.000000,4.000000,4.000000,4.000000,4.000000,4.000000,4.000000,4.000000,100.000000,,,,,,,,,,,,,,,,,,,,,,,,,,,,,,,,,,,,,,,,,,,,,,,
1665770644.266849,1665770644.267606,108.000000,0.000000,4364.358887,4294.230957,4306.282227,4280.897461,4275.512695,4250.769043,4270.384766,4295.384766,4278.333496,4257.820313,4406.025879,4312.948730,4430.897461,4458.589844,3056.000000,2.000000,54.000000,,,,0.000000,4.000000,4.000000,4.000000,4.000000,4.000000,4.000000,4.000000,4.000000,4.000000,4.000000,4.000000,4.000000,4.000000,4.000000,100.000000,,,,,,,,,,,,,,,,,,,,,,,,,,,,,,,,,,,,,,,,,,,,,,,
1665770644.274658,1665770644.275515,109.000000,0.000000,4363.205078,4295.000000,4313.077148,4281.025879,4280.512695,4252.820313,4271.025879,4294.615234,4279.230957,4249.230957,4401.025879,4314.615234,4428.205078,4460.128418,1234.000000,2.000000,54.000000,,,,0.000000,4.000000,4.000000,4.000000,4.000000,4.000000,4.000000,4.000000,4.000000,4.000000,4.000000,4.000000,4.000000,4.000000,4.000000,100.000000,,,,,,,,,,,,,,,,,,,,,,,,,,,,,,,,,,,,,,,,,,,,,,,
1665770644.282466,1665770644.283323,110.000000,0.000000,4362.948730,4301.922852,4321.153809,4286.025879,4278.974121,4252.179688,4266.538574,4294.230957,4278.717773,4250.512695,4397.563965,4319.615234,4426.025879,4461.282227,2725.000000,2.000000,54.000000,,,,0.000000,4.000000,4.000000,4.000000,4.000000,4.000000,4.000000,4.000000,4.000000,4.000000,4.000000,4.000000,4.000000,4.000000,4.000000,100.000000,,,,,,,,,,,,,,,,,,,,,,,,,,,,,,,,,,,,,,,,,,,,,,,
1665770644.290274,1665770644.291231,111.000000,0.000000,4369.743652,4312.436035,4325.641113,4294.743652,4280.897461,4249.102539,4264.871582,4293.717773,4276.922852,4250.000000,4396.922852,4321.282227,4423.333496,4459.615234,2301.000000,2.000000,54.000000,,,,0.000000,4.000000,4.000000,4.000000,4.000000,4.000000,4.000000,4.000000,4.000000,4.000000,4.000000,4.000000,4.000000,4.000000,4.000000,100.000000,,,,,,,,,,,,,,,,,,,,,,,,,,,,,,,,,,,,,,,,,,,,,,,
1665770644.298083,1665770644.299040,112.000000,0.000000,4373.205078,4314.102539,4326.282227,4297.820313,4282.563965,4249.743652,4266.025879,4290.897461,4277.436035,4248.333496,4399.615234,4323.589844,4426.153809,4463.589844,3056.000000,2.000000,54.000000,,,,0.000000,4.000000,4.000000,4.000000,4.000000,4.000000,4.000000,4.000000,4.000000,4.000000,4.000000,4.000000,4.000000,4.000000,4.000000,100.000000,,,,,,,,,,,,,,,,,,,,,,,,,,,,,,,,,,,,,,,,,,,,,,,
1665770644.305891,1665770644.306948,113.000000,0.000000,4363.333496,4307.948730,4320.512695,4290.512695,4279.487305,4246.922852,4261.282227,4288.461426,4274.230957,4250.128418,4395.000000,4323.717773,4422.563965,4464.615234,1234.000000,2.000000,54.000000,,,,0.000000,4.000000,4.000000,4.000000,4.000000,4.000000,4.000000,4.000000,4.000000,4.000000,4.000000,4.000000,4.000000,4.000000,4.000000,100.000000,,,,,,,,,,,,,,,,,,,,,,,,,,,,,,,,,,,,,,,,,,,,,,,
1665770644.313700,1665770644.314757,114.000000,0.000000,4353.333496,4310.769043,4310.769043,4282.436035,4273.589844,4235.384766,4250.512695,4280.897461,4263.846191,4243.461426,4380.641113,4315.769043,4408.717773,4453.333496,2725.000000,2.000000,54.000000,,,,0.000000,4.000000,4.000000,4.000000,4.000000,4.000000,4.000000,4.000000,4.000000,4.000000,4.000000,4.000000,4.000000,4.000000,4.000000,100.000000,,,,,,,,,,,,,,,,,,,,,,,,,,,,,,,,,,,,,,,,,,,,,,,
1665770644.321508,1665770644.322465,115.000000,0.000000,4352.820313,4312.051270,4302.179688,4279.487305,4264.871582,4227.436035,4237.051270,4267.948730,4258.974121,4236.922852,4375.512695,4307.820313,4408.974121,4448.589844,2301.000000,2.000000,54.000000,,,,0.000000,4.000000,4.000000,4.000000,4.000000,4.000000,4.000000,4.000000,4.000000,4.000000,4.000000,4.000000,4.000000,4.000000,4.000000,100.000000,,,,,,,,,,,,,,,,,,,,,,,,,,,,,,,,,,,,,,,,,,,,,,,
1665770644.329316,1665770644.330274,116.000000,0.000000,4350.769043,4300.769043,4298.205078,4276.025879,4260.384766,4229.871582,4235.769043,4266.666504,4267.179688,4244.487305,4382.179688,4306.666504,4419.871582,4456.538574,3056.000000,2.000000,54.000000,,,,0.000000,4.000000,4.000000,4.000000,4.000000,4.000000,4.000000,4.000000,4.000000,4.000000,4.000000,4.000000,4.000000,4.000000,4.000000,100.000000,,,,,,,,,,,,,,,,,,,,,,,,,,,,,,,,,,,,,,,,,,,,,,,
1665770644.337125,1665770644.337982,117.000000,0.000000,4348.333496,4294.358887,4301.410156,4273.077148,4264.230957,4232.307617,4245.512695,4275.128418,4275.256348,4250.384766,4384.230957,4306.794922,4416.025879,4461.282227,1234.000000,2.000000,54.000000,,,,0.000000,4.000000,4.000000,4.000000,4.000000,4.000000,4.000000,4.000000,4.000000,4.000000,4.000000,4.000000,4.000000,4.000000,4.000000,100.000000,,,,,,,,,,,,,,,,,,,,,,,,,,,,,,,,,,,,,,,,,,,,,,,
1665770644.344933,1665770644.345791,118.000000,0.000000,4354.871582,4302.051270,4309.358887,4277.563965,4265.512695,4232.692383,4250.128418,4276.410156,4273.333496,4243.846191,4379.487305,4306.410156,4407.051270,4456.410156,2725.000000,2.000000,54.000000,,,,0.000000,4.000000,4.000000,4.000000,4.000000,4.000000,4.000000,4.000000,4.000000,4.000000,4.000000,4.000000,4.000000,4.000000,4.000000,100.000000,,,,,,,,,,,,,,,,,,,,,,,,,,,,,,,,,,,,,,,,,,,,,,,
1665770644.352741,1665770644.353499,119.000000,0.000000,4365.384766,4311.922852,4318.846191,4287.307617,4265.000000,4241.410156,4257.051270,4276.410156,4272.692383,4242.051270,4379.487305,4310.256348,4409.358887,4457.692383,2301.000000,2.000000,54.000000,,,,0.000000,4.000000,4.000000,4.000000,4.000000,4.000000,4.000000,4.000000,4.000000,4.000000,4.000000,4.000000,4.000000,4.000000,4.000000,100.000000,,,,,,,,,,,,,,,,,,,,,,,,,,,,,,,,,,,,,,,,,,,,,,,
1665770644.360550,1665770644.361308,120.000000,0.000000,4367.820313,4311.410156,4327.307617,4293.589844,4268.333496,4249.358887,4266.666504,4280.641113,4275.128418,4250.641113,4383.717773,4313.077148,4416.410156,4463.589844,3056.000000,2.000000,54.000000,,,,0.000000,4.000000,4.000000,4.000000,4.000000,4.000000,4.000000,4.000000,4.000000,4.000000,4.000000,4.000000,4.000000,4.000000,4.000000,100.000000,,,,,,,,,,,,,,,,,,,,,,,,,,,,,,,,,,,,,,,,,,,,,,,
1665770644.368358,1665770644.369016,121.000000,0.000000,4361.666504,4310.512695,4322.692383,4292.692383,4268.717773,4243.846191,4260.256348,4273.717773,4268.974121,4244.743652,4375.384766,4309.871582,4408.846191,4453.846191,1234.000000,2.000000,54.000000,,,,0.000000,4.000000,4.000000,4.000000,4.000000,4.000000,4.000000,4.000000,4.000000,4.000000,4.000000,4.000000,4.000000,4.000000,4.000000,100.000000,,,,,,,,,,,,,,,,,,,,,,,,,,,,,,,,,,,,,,,,,,,,,,,
1665770644.376167,1665770644.376825,122.000000,0.000000,4356.922852,4311.282227,4311.922852,4285.897461,4263.846191,4233.077148,4241.282227,4261.153809,4262.051270,4232.307617,4362.563965,4307.948730,4395.769043,4441.282227,2725.000000,2.000000,54.000000,,,,0.000000,4.000000,4.000000,4.000000,4.000000,4.000000,4.000000,4.000000,4.000000,4.000000,4.000000,4.000000,4.000000,4.000000,4.000000,100.000000,,,,,,,,,,,,,,,,,,,,,,,,,,,,,,,,,,,,,,,,,,,,,,,
1665770644.383975,1665770644.384533,123.000000,0.000000,4353.461426,4302.692383,4309.230957,4279.230957,4259.358887,4231.538574,4233.717773,4262.948730,4266.282227,4240.256348,4365.641113,4309.615234,4401.410156,4443.333496,2301.000000,2.000000,54.000000,,,,0.000000,4.000000,4.000000,4.000000,4.000000,4.000000,4.000000,4.000000,4.000000,4.000000,4.000000,4.000000,4.000000,4.000000,4.000000,100.000000,,,,,,,,,,,,,,,,,,,,,,,,,,,,,,,,,,,,,,,,,,,,,,,
1665770644.391783,1665770644.392342,124.000000,0.000000,4345.769043,4294.358887,4304.230957,4280.000000,4259.358887,4234.615234,4233.333496,4265.384766,4267.948730,4247.563965,4366.282227,4308.461426,4404.102539,4440.384766,3056.000000,2.000000,54.000000,,,,0.000000,4.000000,4.000000,4.000000,4.000000,4.000000,4.000000,4.000000,4.000000,4.000000,4.000000,4.000000,4.000000,4.000000,4.000000,100.000000,,,,,,,,,,,,,,,,,,,,,,,,,,,,,,,,,,,,,,,,,,,,,,,
1665770644.399592,1665770644.400050,125.000000,0.000000,4338.333496,4296.538574,4294.615234,4279.487305,4259.102539,4227.051270,4229.487305,4256.153809,4259.487305,4232.692383,4347.948730,4305.128418,4381.922852,4424.358887,1234.000000,2.000000,54.000000,,,,0.000000,4.000000,4.000000,4.000000,4.000000,4.000000,4.000000,4.000000,4.000000,4.000000,4.000000,4.000000,4.000000,4.000000,4.000000,100.000000,,,,,,,,,,,,,,,,,,,,,,,,,,,,,,,,,,,,,,,,,,,,,,,
1665770644.407400,1665770644.407859,126.000000,0.000000,4337.820313,4299.871582,4293.974121,4277.307617,4256.794922,4219.743652,4228.333496,4255.256348,4259.102539,4223.974121,4340.769043,4305.256348,4368.717773,4420.000000,2725.000000,2.000000,54.000000,,,,0.000000,4.000000,4.000000,4.000000,4.000000,4.000000,4.000000,4.000000,4.000000,4.000000,4.000000,4.000000,4.000000,4.000000,4.000000,100.000000,,,,,,,,,,,,,,,,,,,,,,,,,,,,,,,,,,,,,,,,,,,,,,,
1665770644.415208,1665770644.415567,127.000000,0.000000,4341.794922,4297.051270,4297.436035,4279.743652,4253.589844,4224.615234,4232.051270,4268.461426,4268.974121,4235.000000,4353.205078,4311.794922,4383.974121,4429.487305,54.000000,2.000000,54.000000,,,,0.000000,4.000000,4.000000,4.000000,4.000000,4.000000,4.000000,4.000000,4.000000,4.000000,4.000000,4.000000,4.000000,4.000000,4.000000,100.000000,,,,,,,,,,,,,,,,,,,,,,,,,,,,,,,,,,,,,,,,,,,,,,,
1665770644.423017,1665770644.423376,0.000000,0.000000,4338.333496,4294.871582,4291.922852,4276.922852,4249.615234,4229.358887,4237.563965,4271.922852,4270.384766,4236.282227,4354.487305,4316.282227,4386.410156,4428.717773,2449.000000,2.000000,54.000000,,,,0.000000,4.000000,4.000000,4.000000,4.000000,4.000000,4.000000,4.000000,4.000000,4.000000,4.000000,4.000000,4.000000,4.000000,4.000000,100.000000,,,,,,,,,,,,,,,,,,,,,,,,,,,,,,,,,,,,,,,,,,,,,,,
1665770644.430825,1665770644.431084,1.000000,0.000000,4328.846191,4296.666504,4289.102539,4267.948730,4248.974121,4226.153809,4241.538574,4264.358887,4264.615234,4228.717773,4349.487305,4315.897461,4372.179688,4424.615234,2154.000000,2.000000,54.000000,,,,0.000000,4.000000,4.000000,4.000000,4.000000,4.000000,4.000000,4.000000,4.000000,4.000000,4.000000,4.000000,4.000000,4.000000,4.000000,100.000000,,,,,,,,,,,,,,,,,,,,,,,,,,,,,,,,,,,,,,,,,,,,,,,
1665770644.438634,1665770644.438893,2.000000,0.000000,4325.000000,4292.179688,4289.102539,4262.307617,4249.487305,4228.589844,4240.256348,4264.871582,4265.769043,4230.128418,4354.358887,4315.128418,4376.025879,4429.487305,2358.000000,2.000000,54.000000,,,,0.000000,4.000000,4.000000,4.000000,4.000000,4.000000,4.000000,4.000000,4.000000,4.000000,4.000000,4.000000,4.000000,4.000000,4.000000,100.000000,,,,,,,,,,,,,,,,,,,,,,,,,,,,,,,,,,,,,,,,,,,,,,,
1665770644.446442,1665770644.446601,3.000000,0.000000,4326.410156,4284.102539,4284.743652,4263.717773,4248.846191,4231.153809,4234.358887,4266.922852,4269.358887,4230.256348,4354.358887,4315.769043,4382.179688,4427.051270,2369.000000,2.000000,54.000000,,,,0.000000,4.000000,4.000000,4.000000,4.000000,4.000000,4.000000,4.000000,4.000000,4.000000,4.000000,4.000000,4.000000,4.000000,4.000000,100.000000,,,,,,,,,,,,,,,,,,,,,,,,,,,,,,,,,,,,,,,,,,,,,,,
1665770644.454250,1665770644.454510,4.000000,0.000000,4321.538574,4280.641113,4281.153809,4266.282227,4246.282227,4221.922852,4232.307617,4256.282227,4265.641113,4219.615234,4342.051270,4310.641113,4368.333496,4415.769043,2381.000000,2.000000,54.000000,,,,0.000000,4.000000,4.000000,4.000000,4.000000,4.000000,4.000000,4.000000,4.000000,4.000000,4.000000,4.000000,4.000000,4.000000,4.000000,100.000000,,,,,,,,,,,,,,,,,,,,,,,,,,,,,,,,,,,,,,,,,,,,,,,
1665770644.462059,1665770644.462318,5.000000,0.000000,4311.666504,4276.666504,4278.974121,4258.461426,4243.974121,4215.256348,4233.589844,4247.051270,4263.205078,4210.000000,4332.436035,4300.512695,4353.974121,4410.512695,2386.000000,2.000000,54.000000,,,,0.000000,4.000000,4.000000,4.000000,4.000000,4.000000,4.000000,4.000000,4.000000,4.000000,4.000000,4.000000,4.000000,4.000000,4.000000,100.000000,,,,,,,,,,,,,,,,,,,,,,,,,,,,,,,,,,,,,,,,,,,,,,,
1665770644.469867,1665770644.470226,6.000000,0.000000,4310.256348,4273.205078,4278.974121,4249.358887,4245.641113,4217.563965,4231.922852,4249.230957,4265.000000,4214.230957,4333.205078,4297.307617,4355.641113,4412.692383,2234.000000,2.000000,54.000000,,,,0.000000,4.000000,4.000000,4.000000,4.000000,4.000000,4.000000,4.000000,4.000000,4.000000,4.000000,4.000000,4.000000,4.000000,4.000000,100.000000,,,,,,,,,,,,,,,,,,,,,,,,,,,,,,,,,,,,,,,,,,,,,,,
1665770644.477676,1665770644.478035,7.000000,0.000000,4317.436035,4282.820313,4281.282227,4257.563965,4247.051270,4217.563965,4230.641113,4253.205078,4264.487305,4216.666504,4332.948730,4299.871582,4362.051270,4412.436035,2409.000000,2.000000,54.000000,,,,0.000000,4.000000,4.000000,4.000000,4.000000,4.000000,4.000000,4.000000,4.000000,4.000000,4.000000,4.000000,4.000000,4.000000,4.000000,100.000000,,,,,,,,,,,,,,,,,,,,,,,,,,,,,,,,,,,,,,,,,,,,,,,
1665770644.485484,1665770644.485943,8.000000,0.000000,4321.666504,4292.692383,4282.563965,4268.846191,4247.179688,4219.615234,4232.820313,4259.615234,4270.769043,4218.717773,4335.128418,4303.461426,4365.384766,4412.948730,2284.000000,2.000000,54.000000,,,,0.000000,4.000000,4.000000,4.000000,4.000000,4.000000,4.000000,4.000000,4.000000,4.000000,4.000000,4.000000,4.000000,4.000000,4.000000,100.000000,,,,,,,,,,,,,,,,,,,,,,,,,,,,,,,,,,,,,,,,,,,,,,,
1665770644.493292,1665770644.493752,9.000000,0.000000,4319.615234,4281.153809,4282.563965,4260.128418,4247.692383,4227.307617,4233.589844,4266.153809,4281.153809,4229.743652,4344.358887,4306.922852,4366.794922,4415.641113,2374.000000,2.000000,54.000000,,,,0.000000,4.000000,4.000000,4.000000,4.000000,4.000000,4.000000,4.000000,4.000000,4.000000,4.000000,4.000000,4.000000,4.000000,4.000000,100.000000,,,,,,,,,,,,,,,,,,,,,,,,,,,,,,,,,,,,,,,,,,,,,,,
1665770644.501101,1665770644.501660,10.000000,0.000000,4311.666504,4265.128418,4278.846191,4248.717773,4242.179688,4225.897461,4231.282227,4258.333496,4275.000000,4228.205078,4338.461426,4306.666504,4355.256348,4405.256348,2710.000000,2.000000,54.000000,,,,0.000000,4.000000,4.000000,4.000000,4.000000,4.000000,4.000000,4.000000,4.000000,4.000000,4.000000,4.000000,4.000000,4.000000,4.000000,100.000000,,,,,,,,,,,,,,,,,,,,,,,,,,,,,,,,,,,,,,,,,,,,,,,
1665770644.508909,1665770644.509468,11.000000,0.000000,4301.025879,4264.358887,4268.717773,4250.512695,4237.563965,4215.000000,4228.461426,4245.256348,4258.846191,4212.307617,4319.743652,4302.436035,4337.563965,4386.282227,2287.000000,2.000000,54.000000,,,,0.000000,4.000000,4.000000,4.000000,4.000000,4.000000,4.000000,4.000000,4.000000,4.000000,4.000000,4.000000,4.000000,4.000000,4.000000,100.000000,,,,,,,,,,,,,,,,,,,,,,,,,,,,,,,,,,,,,,,,,,,,,,,
1665770644.516718,1665770644.517377,12.000000,0.000000,4298.077148,4268.333496,4262.692383,4255.384766,4245.384766,4218.974121,4232.051270,4252.436035,4263.077148,4211.410156,4320.384766,4306.282227,4340.128418,4387.436035,3089.000000,2.000000,54.000000,,,,0.000000,4.000000,4.000000,4.000000,4.000000,4.000000,4.000000,4.000000,4.000000,4.000000,4.000000,4.000000,4.000000,4.000000,4.000000,100.000000,,,,,,,,,,,,,,,,,,,,,,,,,,,,,,,,,,,,,,,,,,,,,,,
1665770644.524526,1665770644.525185,13.000000,0.000000,4297.307617,4264.487305,4264.615234,4256.025879,4250.897461,4229.230957,4237.307617,4268.077148,4277.563965,4223.333496,4335.256348,4315.769043,4356.282227,4396.794922,1277.000000,2.000000,54.000000,,,,0.000000,4.000000,4.000000,4.000000,4.000000,4.000000,4.000000,4.000000,4.000000,4.000000,4.000000,4.000000,4.000000,4.000000,4.000000,100.000000,,,,,,,,,,,,,,,,,,,,,,,,,,,,,,,,,,,,,,,,,,,,,,,
1665770644.532334,1665770644.533094,14.000000,0.000000,4290.128418,4260.000000,4264.615234,4255.897461,4243.717773,4223.717773,4235.512695,4268.461426,4272.692383,4215.000000,4331.282227,4315.897461,4345.128418,4386.025879,2710.000000,2.000000,54.000000,,,,0.000000,4.000000,4.000000,4.000000,4.000000,4.000000,4.000000,4.000000,4.000000,4.000000,4.000000,4.000000,4.000000,4.000000,4.000000,100.000000,,,,,,,,,,,,,,,,,,,,,,,,,,,,,,,,,,,,,,,,,,,,,,,
1665770644.540143,1665770644.540902,15.000000,0.000000,4294.615234,4272.051270,4270.897461,4261.794922,4242.692383,4215.512695,4232.563965,4262.436035,4262.051270,4198.846191,4319.230957,4312.436035,4323.077148,4378.846191,2287.000000,2.000000,54.000000,,,,0.000000,4.000000,4.000000,4.000000,4.000000,4.000000,4.000000,4.000000,4.000000,4.000000,4.000000,4.000000,4.000000,4.000000,4.000000,100.000000,,,,,,,,,,,,,,,,,,,,,,,,,,,,,,,,,,,,,,,,,,,,,,,
1665770644.547951,1665770644.548610,16.000000,0.000000,4311.794922,4287.692383,4287.436035,4268.333496,4250.512695,4218.077148,4233.846191,4261.410156,4265.384766,4205.000000,4328.333496,4316.410156,4338.461426,4396.282227,0.000000,2.000000,54.000000,,,,0.000000,4.000000,4.000000,4.000000,4.000000,4.000000,4.000000,4.000000,4.000000,4.000000,4.000000,4.000000,4.000000,4.000000,4.000000,100.000000,,,,,,,,,,,,,,,,,,,,,,,,,,,,,,,,,,,,,,,,,,,,,,,
1665770644.555760,1665770644.556519,17.000000,0.000000,4314.487305,4285.256348,4295.897461,4266.153809,4251.538574,4223.077148,4233.846191,4264.743652,4270.000000,4218.333496,4343.333496,4320.897461,4359.230957,4405.384766,0.000000,2.000000,54.000000,,,,0.000000,4.000000,4.000000,4.000000,4.000000,4.000000,4.000000,4.000000,4.000000,4.000000,4.000000,4.000000,4.000000,4.000000,4.000000,100.000000,,,,,,,,,,,,,,,,,,,,,,,,,,,,,,,,,,,,,,,,,,,,,,,
1665770644.563568,1665770644.564327,18.000000,0.000000,4309.743652,4278.717773,4294.743652,4264.102539,4248.589844,4226.025879,4232.179688,4263.461426,4265.897461,4215.769043,4336.025879,4320.128418,4344.743652,4397.051270,0.000000,2.000000,54.000000,,,,0.000000,4.000000,4.000000,4.000000,4.000000,4.000000,4.000000,4.000000,4.000000,4.000000,4.000000,4.000000,4.000000,4.000000,4.000000,100.000000,,,,,,,,,,,,,,,,,,,,,,,,,,,,,,,,,,,,,,,,,,,,,,,
1665770644.571376,1665770644.572136,19.000000,0.000000,4315.384766,4284.871582,4295.641113,4267.051270,4247.563965,4231.153809,4233.461426,4254.743652,4265.769043,4209.743652,4323.077148,4317.051270,4334.871582,4399.615234,0.000000,2.000000,54.000000,,,,0.000000,4.000000,4.000000,4.000000,4.000000,4.000000,4.000000,4.000000,4.000000,4.000000,4.000000,4.000000,4.000000,4.000000,4.000000,100.000000,,,,,,,,,,,,,,,,,,,,,,,,,,,,,,,,,,,,,,,,,,,,,,,
1665770644.579185,1665770644.579844,20.000000,0.000000,4321.794922,4290.897461,4297.436035,4267.051270,4247.436035,4229.230957,4235.769043,4250.128418,4274.487305,4214.871582,4327.307617,4314.102539,4349.102539,4406.538574,0.000000,2.000000,54.000000,,,,0.000000,4.000000,4.000000,4.000000,4.000000,4.000000,4.000000,4.000000,4.000000,4.000000,4.000000,4.000000,4.000000,4.000000,4.000000,100.000000,,,,,,,,,,,,,,,,,,,,,,,,,,,,,,,,,,,,,,,,,,,,,,,
1665770644.586993,1665770644.587653,21.000000,0.000000,4322.051270,4284.743652,4297.948730,4265.000000,4247.436035,4219.615234,4234.487305,4255.000000,4280.512695,4220.128418,4338.846191,4313.846191,4354.743652,4408.077148,0.000000,2.000000,54.000000,,,,0.000000,4.000000,4.000000,4.000000,4.000000,4.000000,4.000000,4.000000,4.000000,4.000000,4.000000,4.000000,4.000000,4.000000,4.000000,100.000000,,,,,,,,,,,,,,,,,,,,,,,,,,,,,,,,,,,,,,,,,,,,,,,
1665770644.594802,1665770644.595361,22.000000,0.000000,4321.794922,4276.025879,4296.666504,4262.563965,4244.615234,4219.358887,4229.743652,4259.487305,4280.128418,4218.333496,4342.563965,4315.384766,4347.179688,4408.974121,0.000000,2.000000,54.000000,,,,0.000000,4.000000,4.000000,4.000000,4.000000,4.000000,4.000000,4.000000,4.000000,4.000000,4.000000,4.000000,4.000000,4.000000,4.000000,100.000000,,,,,,,,,,,,,,,,,,,,,,,,,,,,,,,,,,,,,,,,,,,,,,,
1665770644.602610,1665770644.603270,23.000000,0.000000,4322.051270,4276.922852,4295.000000,4262.179688,4244.487305,4231.153809,4232.436035,4260.128418,4279.615234,4216.153809,4336.538574,4315.000000,4340.769043,4402.948730,0.000000,2.000000,54.000000,,,,0.000000,4.000000,4.000000,4.000000,4.000000,4.000000,4.000000,4.000000,4.000000,4.000000,4.000000,4.000000,4.000000,4.000000,4.000000,100.000000,,,,,,,,,,,,,,,,,,,,,,,,,,,,,,,,,,,,,,,,,,,,,,,
1665770644.610418,1665770644.611078,24.000000,0.000000,4318.846191,4284.487305,4292.948730,4265.641113,4255.641113,4242.179688,4244.871582,4267.051270,4284.871582,4222.051270,4333.589844,4315.128418,4343.589844,4397.179688,0.000000,2.000000,54.000000,,,,0.000000,4.000000,4.000000,4.000000,4.000000,4.000000,4.000000,4.000000,4.000000,4.000000,4.000000,4.000000,4.000000,4.000000,4.000000,100.000000,,,,,,,,,,,,,,,,,,,,,,,,,,,,,,,,,,,,,,,,,,,,,,,
1665770644.618227,1665770644.618986,25.000000,0.000000,4313.461426,4283.846191,4294.358887,4267.179688,4265.897461,4245.641113,4251.666504,4272.307617,4288.589844,4228.846191,4343.077148,4318.205078,4353.333496,4402.051270,0.000000,2.000000,54.000000,,,,0.000000,4.000000,4.000000,4.000000,4.000000,4.000000,4.000000,4.000000,4.000000,4.000000,4.000000,4.000000,4.000000,4.000000,4.000000,100.000000,,,,,,,,,,,,,,,,,,,,,,,,,,,,,,,,,,,,,,,,,,,,,,,
1665770644.626035,1665770644.626795,26.000000,0.000000,4311.666504,4276.538574,4294.230957,4265.000000,4262.563965,4250.000000,4249.487305,4269.615234,4283.333496,4228.589844,4348.589844,4317.820313,4353.589844,4403.589844,0.000000,2.000000,54.000000,,,,0.000000,4.000000,4.000000,4.000000,4.000000,4.000000,4.000000,4.000000,4.000000,4.000000,4.000000,4.000000,4.000000,4.000000,4.000000,100.000000,,,,,,,,,,,,,,,,,,,,,,,,,,,,,,,,,,,,,,,,,,,,,,,
1665770644.633843,1665770644.634703,27.000000,0.000000,4310.256348,4277.307617,4287.948730,4265.641113,4257.820313,4248.333496,4243.333496,4263.846191,4279.230957,4225.769043,4334.487305,4311.153809,4341.922852,4390.897461,0.000000,2.000000,54.000000,,,,0.000000,4.000000,4.000000,4.000000,4.000000,4.000000,4.000000,4.000000,4.000000,4.000000,4.000000,4.000000,4.000000,4.000000,4.000000,100.000000,,,,,,,,,,,,,,,,,,,,,,,,,,,,,,,,,,,,,,,,,,,,,,,
1665770644.641652,1665770644.642512,28.000000,0.000000,4302.563965,4284.743652,4282.820313,4266.538574,4257.051270,4237.179688,4234.230957,4256.922852,4279.230957,4223.077148,4323.461426,4310.512695,4334.871582,4380.897461,0.000000,2.000000,54.000000,,,,0.000000,4.000000,4.000000,4.000000,4.000000,4.000000,4.000000,4.000000,4.000000,4.000000,4.000000,4.000000,4.000000,4.000000,4.000000,100.000000,,,,,,,,,,,,,,,,,,,,,,,,,,,,,,,,,,,,,,,,,,,,,,,
1665770644.649460,1665770644.650420,29.000000,0.000000,4295.256348,4277.051270,4280.769043,4264.102539,4251.666504,4230.128418,4230.384766,4250.897461,4274.230957,4219.615234,4331.666504,4317.051270,4337.563965,4381.794922,0.000000,2.000000,54.000000,,,,0.000000,4.000000,4.000000,4.000000,4.000000,4.000000,4.000000,4.000000,4.000000,4.000000,4.000000,4.000000,4.000000,4.000000,4.000000,100.000000,1.000000,75.000000,3.000000,4.000000,3.000000,4.000000,4.000000,4.000000,4.000000,4.000000,4.000000,4.000000,4.000000,4.000000,4.000000,3.000000,1.000000,0.142567,-1.183137,-1.408557,0.710290,1.000000,0.067319,3.598650,2.970610,12.299853,0.330525,1.000000,0.433671,90.259636,-80.400925,301.712860,1.000000,0.697059,0.281200,0.085256,0.260020,1.000000,0.433911,6.212941,-4.388869,18.370253,1.000000,0.262038,0.262038,0.000000,1.000000
1665770644.657269,1665770644.658228,30.000000,0.000000,4292.820313,4263.589844,4277.820313,4263.205078,4248.205078,4229.230957,4234.230957,4248.205078,4269.743652,4215.384766,4334.743652,4318.589844,4335.769043,4378.717773,0.000000,2.000000,54.000000,,,,0.000000,4.000000,4.000000,4.000000,4.000000,4.000000,4.000000,4.000000,4.000000,4.000000,4.000000,4.000000,4.000000,4.000000,4.000000,100.000000,,,,,,,,,,,,,,,,,,,,,,,,,,,,,,,,,,,,,,,,,,,,,,,
1665770644.665077,1665770644.666137,31.000000,0.000000,4292.179688,4271.153809,4276.538574,4263.974121,4256.794922,4229.230957,4233.205078,4253.846191,4273.717773,4216.538574,4327.692383,4317.563965,4328.846191,4374.487305,0.000000,2.000000,54.000000,,,,0.000000,4.000000,4.000000,4.000000,4.000000,4.000000,4.000000,4.000000,4.000000,4.000000,4.000000,4.000000,4.000000,4.000000,4.000000,100.000000,,,,,,,,,,,,,,,,,,,,,,,,,,,,,,,,,,,,,,,,,,,,,,,
1665770644.672885,1665770644.673945,32.000000,0.000000,4296.410156,4282.948730,4281.025879,4263.717773,4264.358887,4228.717773,4230.512695,4263.077148,4279.615234,4223.846191,4338.589844,4323.205078,4340.128418,4386.794922,0.000000,2.000000,54.000000,,,,0.000000,4.000000,4.000000,4.000000,4.000000,4.000000,4.000000,4.000000,4.000000,4.000000,4.000000,4.000000,4.000000,4.000000,4.000000,100.000000,,,,,,,,,,,,,,,,,,,,,,,,,,,,,,,,,,,,,,,,,,,,,,,
1665770644.680694,1665770644.681854,33.000000,0.000000,4297.820313,4278.461426,4282.692383,4263.589844,4261.410156,4229.487305,4232.948730,4267.179688,4281.025879,4226.666504,4351.025879,4325.897461,4350.512695,4395.641113,0.000000,2.000000,54.000000,,,,0.000000,4.000000,4.000000,4.000000,4.000000,4.000000,4.000000,4.000000,4.000000,4.000000,4.000000,4.000000,4.000000,4.000000,4.000000,100.000000,,,,,,,,,,,,,,,,,,,,,,,,,,,,,,,,,,,,,,,,,,,,,,,
1665770644.688502,1665770644.689662,34.000000,0.000000,4293.205078,4277.436035,4276.282227,4263.717773,4258.205078,4227.820313,4230.384766,4259.743652,4277.563965,4216.025879,4334.230957,4318.717773,4330.897461,4381.666504,0.000000,2.000000,54.000000,,,,0.000000,4.000000,4.000000,4.000000,4.000000,4.000000,4.000000,4.000000,4.000000,4.000000,4.000000,4.000000,4.000000,4.000000,4.000000,100.000000,,,,,,,,,,,,,,,,,,,,,,,,,,,,,,,,,,,,,,,,,,,,,,,
1665770644.696310,1665770644.697570,35.000000,0.000000,4294.615234,4284.487305,4274.358887,4263.846191,4262.820313,4229.871582,4233.205078,4258.846191,4276.922852,4212.820313,4328.589844,4317.948730,4329.358887,4383.974121,0.000000,2.000000,54.000000,,,,0.000000,4.000000,4.000000,4.000000,4.000000,4.000000,4.000000,4.000000,4.000000,4.000000,4.000000,4.000000,4.000000,4.000000,4.000000,100.000000,,,,,,,,,,,,,,,,,,,,,,,,,,,,,,,,,,,,,,,,,,,,,,,
1665770644.704119,1665770644.705379,36.000000,0.000000,4297.307617,4280.641113,4275.897461,4263.461426,4266.410156,4236.025879,4242.179688,4266.153809,4281.282227,4220.769043,4345.512695,4324.230957,4353.974121,4401.666504,0.000000,2.000000,54.000000,,,,0.000000,4.000000,4.000000,4.000000,4.000000,4.000000,4.000000,4.000000,4.000000,4.000000,4.000000,4.000000,4.000000,4.000000,4.000000,100.000000,,,,,,,,,,,,,,,,,,,,,,,,,,,,,,,,,,,,,,,,,,,,,,,
1665770644.711927,1665770644.713087,37.000000,0.000000,4295.256348,4275.897461,4274.615234,4262.692383,4261.410156,4233.589844,4235.641113,4257.179688,4275.769043,4217.692383,4340.641113,4316.538574,4345.384766,4394.615234,0.000000,2.000000,54.000000,,,,0.000000,4.000000,4.000000,4.000000,4.000000,4.000000,4.000000,4.000000,4.000000,4.000000,4.000000,4.000000,4.000000,4.000000,4.000000,100.000000,,,,,,,,,,,,,,,,,,,,,,,,,,,,,,,,,,,,,,,,,,,,,,,
1665770644.719736,1665770644.720896,38.000000,0.000000,4303.077148,4279.615234,4277.692383,4264.102539,4258.077148,4233.461426,4227.820313,4245.641113,4271.410156,4213.974121,4332.563965,4306.794922,4332.051270,4388.205078,0.000000,2.000000,54.000000,,,,0.000000,4.000000,4.000000,4.000000,4.000000,4.000000,4.000000,4.000000,4.000000,4.000000,4.000000,4.000000,4.000000,4.000000,4.000000,100.000000,,,,,,,,,,,,,,,,,,,,,,,,,,,,,,,,,,,,,,,,,,,,,,,
1665770644.727544,1665770644.728604,39.000000,0.000000,4310.641113,4281.282227,4282.820313,4263.846191,4262.563965,4241.538574,4235.641113,4248.974121,4275.641113,4218.717773,4337.692383,4311.153809,4343.077148,4396.794922,0.000000,2.000000,54.000000,,,,0.000000,4.000000,4.000000,4.000000,4.000000,4.000000,4.000000,4.000000,4.000000,4.000000,4.000000,4.000000,4.000000,4.000000,4.000000,100.000000,,,,,,,,,,,,,,,,,,,,,,,,,,,,,,,,,,,,,,,,,,,,,,,
1665770644.735352,1665770644.736413,40.000000,0.000000,4302.948730,4278.717773,4282.179688,4261.922852,4264.230957,4239.871582,4238.974121,4250.384766,4271.025879,4215.897461,4331.794922,4311.794922,4336.794922,4392.051270,0.000000,2.000000,54.000000,,,,0.000000,4.000000,4.000000,4.000000,4.000000,4.000000,4.000000,4.000000,4.000000,4.000000,4.000000,4.000000,4.000000,4.000000,4.000000,100.000000,,,,,,,,,,,,,,,,,,,,,,,,,,,,,,,,,,,,,,,,,,,,,,,
1665770644.743161,1665770644.744121,41.000000,0.000000,4305.256348,4277.948730,4287.563965,4269.743652,4260.897461,4233.717773,4234.230957,4245.769043,4268.589844,4213.589844,4331.410156,4308.205078,4330.641113,4389.102539,0.000000,2.000000,54.000000,,,,0.000000,4.000000,4.000000,4.000000,4.000000,4.000000,4.000000,4.000000,4.000000,4.000000,4.000000,4.000000,4.000000,4.000000,4.000000,100.000000,,,,,,,,,,,,,,,,,,,,,,,,,,,,,,,,,,,,,,,,,,,,,,,
1665770644.750969,1665770644.752030,42.000000,0.000000,4327.051270,4288.717773,4303.205078,4280.512695,4263.077148,4238.717773,4241.538574,4255.256348,4279.615234,4225.256348,4350.128418,4322.820313,4350.512695,4403.717773,0.000000,2.000000,54.000000,,,,0.000000,4.000000,4.000000,4.000000,4.000000,4.000000,4.000000,4.000000,4.000000,4.000000,4.000000,4.000000,4.000000,4.000000,4.000000,100.000000,,,,,,,,,,,,,,,,,,,,,,,,,,,,,,,,,,,,,,,,,,,,,,,
1665770644.758778,1665770644.759838,43.000000,0.000000,4336.922852,4301.538574,4308.333496,4282.436035,4267.179688,4240.512695,4249.743652,4269.871582,4284.743652,4237.179688,4360.897461,4336.922852,4355.128418,4408.077148,0.000000,2.000000,54.000000,,,,0.000000,4.000000,4.000000,4.000000,4.000000,4.000000,4.000000,4.000000,4.000000,4.000000,4.000000,4.000000,4.000000,4.000000,4.000000,100.000000,,,,,,,,,,,,,,,,,,,,,,,,,,,,,,,,,,,,,,,,,,,,,,,
1665770644.766586,1665770644.767746,44.000000,0.000000,4324.615234,4294.230957,4299.615234,4278.461426,4266.282227,4233.077148,4241.282227,4270.128418,4281.025879,4231.922852,4357.948730,4332.948730,4340.128418,4399.102539,0.000000,2.000000,54.000000,,,,0.000000,4.000000,4.000000,4.000000,4.000000,4.000000,4.000000,4.000000,4.000000,4.000000,4.000000,4.000000,4.000000,4.000000,4.000000,100.000000,,,,,,,,,,,,,,,,,,,,,,,,,,,,,,,,,,,,,,,,,,,,,,,
1665770644.774394,1665770644.775555,45.000000,0.000000,4311.282227,4278.461426,4294.615234,4272.948730,4264.102539,4231.025879,4231.666504,4265.384766,4277.563965,4221.153809,4351.666504,4331.538574,4335.897461,4396.666504,0.000000,2.000000,54.000000,,,,0.000000,4.000000,4.000000,4.000000,4.000000,4.000000,4.000000,4.000000,4.000000,4.000000,4.000000,4.000000,4.000000,4.000000,4.000000,100.000000,,,,,,,,,,,,,,,,,,,,,,,,,,,,,,,,,,,,,,,,,,,,,,,
1665770644.782203,1665770644.783363,46.000000,0.000000,4307.692383,4277.051270,4291.794922,4264.102539,4262.307617,4230.897461,4231.794922,4259.743652,4268.077148,4217.051270,4343.077148,4334.358887,4332.436035,4397.179688,0.000000,2.000000,54.000000,,,,0.000000,4.000000,4.000000,4.000000,4.000000,4.000000,4.000000,4.000000,4.000000,4.000000,4.000000,4.000000,4.000000,4.000000,4.000000,100.000000,,,,,,,,,,,,,,,,,,,,,,,,,,,,,,,,,,,,,,,,,,,,,,,
1665770644.790011,1665770644.791072,47.000000,0.000000,4308.717773,4280.128418,4287.051270,4264.615234,4261.282227,4228.333496,4233.205078,4252.948730,4262.820313,4217.692383,4340.769043,4329.487305,4325.256348,4394.871582,0.000000,2.000000,54.000000,,,,0.000000,4.000000,4.000000,4.000000,4.000000,4.000000,4.000000,4.000000,4.000000,4.000000,4.000000,4.000000,4.000000,4.000000,4.000000,100.000000,,,,,,,,,,,,,,,,,,,,,,,,,,,,,,,,,,,,,,,,,,,,,,,
1665770644.797820,1665770644.798880,48.000000,0.000000,4310.384766,4279.743652,4287.307617,4271.794922,4261.666504,4230.000000,4229.487305,4247.948730,4267.436035,4216.410156,4346.025879,4327.948730,4329.230957,4394.487305,0.000000,2.000000,54.000000,,,,0.000000,4.000000,4.000000,4.000000,4.000000,4.000000,4.000000,4.000000,4.000000,4.000000,4.000000,4.000000,4.000000,4.000000,4.000000,100.000000,,,,,,,,,,,,,,,,,,,,,,,,,,,,,,,,,,,,,,,,,,,,,,,
1665770644.805628,1665770644.806589,49.000000,0.000000,4310.897461,4282.436035,4293.333496,4269.487305,4262.436035,4233.205078,4230.128418,4249.102539,4267.051270,4217.563965,4354.358887,4335.256348,4337.820313,4402.563965,0.000000,2.000000,54.000000,,,,0.000000,4.000000,4.000000,4.000000,4.000000,4.000000,4.000000,4.000000,4.000000,4.000000,4.000000,4.000000,4.000000,4.000000,4.000000,100.000000,,,,,,,,,,,,,,,,,,,,,,,,,,,,,,,,,,,,,,,,,,,,,,,
1665770644.813436,1665770644.814397,50.000000,0.000000,4311.666504,4283.846191,4299.871582,4268.333496,4264.230957,4235.000000,4239.871582,4256.794922,4271.794922,4227.179688,4365.256348,4338.205078,4344.871582,4413.717773,0.000000,2.000000,54.000000,,,,0.000000,4.000000,4.000000,4.000000,4.000000,4.000000,4.000000,4.000000,4.000000,4.000000,4.000000,4.000000,4.000000,4.000000,4.000000,100.000000,,,,,,,,,,,,,,,,,,,,,,,,,,,,,,,,,,,,,,,,,,,,,,,
1665770644.821245,1665770644.822106,51.000000,0.000000,4315.641113,4287.051270,4300.897461,4274.487305,4264.743652,4234.230957,4245.897461,4263.077148,4281.153809,4233.333496,4367.563965,4334.743652,4348.974121,4415.384766,0.000000,2.000000,54.000000,,,,0.000000,4.000000,4.000000,4.000000,4.000000,4.000000,4.000000,4.000000,4.000000,4.000000,4.000000,4.000000,4.000000,4.000000,4.000000,100.000000,,,,,,,,,,,,,,,,,,,,,,,,,,,,,,,,,,,,,,,,,,,,,,,
1665770644.829053,1665770644.830014,52.000000,0.000000,4321.153809,4294.358887,4299.230957,4280.384766,4261.922852,4234.102539,4245.000000,4265.897461,4284.487305,4232.692383,4364.743652,4332.820313,4348.077148,4412.051270,0.000000,2.000000,54.000000,,,,0.000000,4.000000,4.000000,4.000000,4.000000,4.000000,4.000000,4.000000,4.000000,4.000000,4.000000,4.000000,4.000000,4.000000,4.000000,100.000000,,,,,,,,,,,,,,,,,,,,,,,,,,,,,,,,,,,,,,,,,,,,,,,
1665770644.836861,1665770644.837823,53.000000,0.000000,4319.871582,4291.025879,4299.487305,4279.230957,4262.563965,4235.384766,4245.897461,4265.641113,4283.461426,4230.128418,4363.846191,4331.922852,4347.563965,4413.077148,0.000000,2.000000,54.000000,,,,0.000000,4.000000,4.000000,4.000000,4.000000,4.000000,4.000000,4.000000,4.000000,4.000000,4.000000,4.000000,4.000000,4.000000,4.000000,100.000000,,,,,,,,,,,,,,,,,,,,,,,,,,,,,,,,,,,,,,,,,,,,,,,
1665770644.844670,1665770644.845731,54.000000,0.000000,4312.948730,4282.307617,4294.358887,4269.615234,4262.820313,4234.358887,4247.563965,4259.358887,4275.128418,4221.410156,4354.615234,4328.589844,4343.205078,4408.461426,0.000000,2.000000,54.000000,,,,0.000000,4.000000,4.000000,4.000000,4.000000,4.000000,4.000000,4.000000,4.000000,4.000000,4.000000,4.000000,4.000000,4.000000,4.000000,100.000000,,,,,,,,,,,,,,,,,,,,,,,,,,,,,,,,,,,,,,,,,,,,,,,
1665770644.852478,1665770644.853540,55.000000,0.000000,4308.974121,4278.589844,4283.974121,4263.974121,4255.769043,4240.384766,4241.410156,4246.410156,4262.563965,4214.487305,4340.769043,4322.948730,4330.256348,4394.358887,0.000000,2.000000,54.000000,,,,0.000000,4.000000,4.000000,4.000000,4.000000,4.000000,4.000000,4.000000,4.000000,4.000000,4.000000,4.000000,4.000000,4.000000,4.000000,100.000000,,,,,,,,,,,,,,,,,,,,,,,,,,,,,,,,,,,,,,,,,,,,,,,
1665770644.860287,1665770644.861448,56.000000,0.000000,4304.487305,4272.179688,4276.794922,4260.384766,4248.077148,4247.307617,4232.563965,4238.717773,4258.589844,4215.128418,4338.846191,4318.974121,4322.179688,4385.384766,0.000000,2.000000,54.000000,,,,0.000000,4.000000,4.000000,4.000000,4.000000,4.000000,4.000000,4.000000,4.000000,4.000000,4.000000,4.000000,4.000000,4.000000,4.000000,100.000000,,,,,,,,,,,,,,,,,,,,,,,,,,,,,,,,,,,,,,,,,,,,,,,
1665770644.868095,1665770644.869256,57.000000,0.000000,4295.256348,4260.769043,4270.128418,4252.179688,4248.333496,4240.769043,4230.256348,4242.436035,4261.153809,4216.666504,4342.179688,4321.666504,4326.922852,4385.897461,0.000000,2.000000,54.000000,,,,0.000000,4.000000,4.000000,4.000000,4.000000,4.000000,4.000000,4.000000,4.000000,4.000000,4.000000,4.000000,4.000000,4.000000,4.000000,100.000000,,,,,,,,,,,,,,,,,,,,,,,,,,,,,,,,,,,,,,,,,,,,,,,
1665770644.875903,1665770644.876965,58.000000,0.000000,4290.000000,4260.384766,4263.205078,4252.563965,4255.384766,4232.436035,4231.025879,4246.666504,4261.410156,4221.538574,4340.897461,4327.179688,4330.000000,4384.743652,0.000000,2.000000,54.000000,,,,0.000000,4.000000,4.000000,4.000000,4.000000,4.000000,4.000000,4.000000,4.000000,4.000000,4.000000,4.000000,4.000000,4.000000,4.000000,100.000000,,,,,,,,,,,,,,,,,,,,,,,,,,,,,,,,,,,,,,,,,,,,,,,
1665770644.883712,1665770644.884773,59.000000,0.000000,4293.846191,4272.051270,4263.717773,4265.897461,4262.563965,4235.641113,4227.692383,4248.461426,4264.230957,4233.077148,4350.128418,4332.051270,4333.461426,4383.589844,0.000000,2.000000,54.000000,,,,0.000000,4.000000,4.000000,4.000000,4.000000,4.000000,4.000000,4.000000,4.000000,4.000000,4.000000,4.000000,4.000000,4.000000,4.000000,100.000000,,,,,,,,,,,,,,,,,,,,,,,,,,,,,,,,,,,,,,,,,,,,,,,
1665770644.891520,1665770644.892482,60.000000,0.000000,4295.000000,4275.384766,4267.692383,4268.333496,4263.205078,4234.615234,4223.717773,4250.256348,4267.692383,4237.179688,4363.846191,4333.974121,4340.641113,4385.128418,0.000000,2.000000,54.000000,,,,0.000000,4.000000,4.000000,4.000000,4.000000,4.000000,4.000000,4.000000,4.000000,4.000000,4.000000,4.000000,4.000000,4.000000,4.000000,100.000000,,,,,,,,,,,,,,,,,,,,,,,,,,,,,,,,,,,,,,,,,,,,,,,
1665770644.899329,1665770644.900290,61.000000,0.000000,4291.410156,4272.692383,4272.692383,4264.102539,4261.410156,4229.358887,4226.153809,4247.948730,4265.897461,4231.153809,4359.487305,4333.077148,4333.205078,4383.205078,0.000000,2.000000,54.000000,,,,0.000000,4.000000,4.000000,4.000000,4.000000,4.000000,4.000000,4.000000,4.000000,4.000000,4.000000,4.000000,4.000000,4.000000,4.000000,100.000000,,,,,,,,,,,,,,,,,,,,,,,,,,,,,,,,,,,,,,,,,,,,,,,
1665770644.907137,1665770644.907999,62.000000,0.000000,4296.538574,4281.282227,4281.538574,4275.897461,4264.615234,4240.256348,4237.051270,4248.333496,4267.051270,4230.256348,4354.871582,4334.871582,4325.769043,4383.846191,0.000000,2.000000,54.000000,,,,0.000000,4.000000,4.000000,4.000000,4.000000,4.000000,4.000000,4.000000,4.000000,4.000000,4.000000,4.000000,4.000000,4.000000,4.000000,100.000000,,,,,,,,,,,,,,,,,,,,,,,,,,,,,,,,,,,,,,,,,,,,,,,
1665770644.914945,1665770644.915807,63.000000,0.000000,4300.512695,4288.333496,4285.897461,4283.077148,4268.333496,4248.461426,4247.820313,4257.692383,4269.358887,4236.666504,4364.743652,4340.897461,4332.436035,4387.948730,0.000000,2.000000,54.000000,,,,0.000000,4.000000,4.000000,4.000000,4.000000,4.000000,4.000000,4.000000,4.000000,4.000000,4.000000,4.000000,4.000000,4.000000,4.000000,100.000000,,,,,,,,,,,,,,,,,,,,,,,,,,,,,,,,,,,,,,,,,,,,,,,
1665770644.922754,1665770644.923516,64.000000,0.000000,4288.717773,4276.153809,4277.563965,4270.769043,4264.487305,4238.205078,4248.077148,4260.128418,4267.307617,4230.512695,4359.743652,4336.025879,4329.102539,4382.179688,2449.000000,2.000000,54.000000,,,,0.000000,4.000000,4.000000,4.000000,4.000000,4.000000,4.000000,4.000000,4.000000,4.000000,4.000000,4.000000,4.000000,4.000000,4.000000,100.000000,,,,,,,,,,,,,,,,,,,,,,,,,,,,,,,,,,,,,,,,,,,,,,,
1665770644.930562,1665770644.931324,65.000000,0.000000,4276.538574,4264.102539,4266.666504,4259.743652,4257.051270,4234.358887,4245.769043,4251.666504,4264.871582,4216.794922,4344.743652,4327.820313,4317.948730,4374.358887,2155.000000,2.000000,54.000000,,,,0.000000,4.000000,4.000000,4.000000,4.000000,4.000000,4.000000,4.000000,4.000000,4.000000,4.000000,4.000000,4.000000,4.000000,4.000000,100.000000,,,,,,,,,,,,,,,,,,,,,,,,,,,,,,,,,,,,,,,,,,,,,,,
1665770644.938371,1665770644.939033,66.000000,0.000000,4278.205078,4263.717773,4262.948730,4260.384766,4255.384766,4245.256348,4247.692383,4249.615234,4265.641113,4221.666504,4351.025879,4332.692383,4323.461426,4379.358887,2358.000000,2.000000,54.000000,,,,0.000000,4.000000,4.000000,4.000000,4.000000,4.000000,4.000000,4.000000,4.000000,4.000000,4.000000,4.000000,4.000000,4.000000,4.000000,100.000000,,,,,,,,,,,,,,,,,,,,,,,,,,,,,,,,,,,,,,,,,,,,,,,
1665770644.946179,1665770644.946841,67.000000,0.000000,4279.358887,4264.487305,4265.512695,4263.333496,4262.179688,4249.615234,4250.897461,4251.666504,4265.769043,4230.897461,4360.769043,4334.487305,4328.589844,4382.563965,2369.000000,2.000000,54.000000,1,1,1,0.000000,4.000000,4.000000,4.000000,4.000000,4.000000,4.000000,4.000000,4.000000,4.000000,4.000000,4.000000,4.000000,4.000000,4.000000,100.000000,,,,,,,,,,,,,,,,,,,,,,,,,,,,,,,,,,,,,,,,,,,,,,,
1665770644.953987,1665770644.954550,68.000000,0.000000,4278.333496,4268.846191,4266.666504,4262.948730,4266.538574,4245.641113,4251.153809,4249.743652,4265.256348,4221.410156,4356.282227,4327.692383,4325.128418,4380.256348,2378.000000,2.000000,54.000000,,,,0.000000,4.000000,4.000000,4.000000,4.000000,4.000000,4.000000,4.000000,4.000000,4.000000,4.000000,4.000000,4.000000,4.000000,4.000000,100.000000,,,,,,,,,,,,,,,,,,,,,,,,,,,,,,,,,,,,,,,,,,,,,,,
1665770644.961796,1665770644.962358,69.000000,0.000000,4281.666504,4268.589844,4265.769043,4262.820313,4264.615234,4247.436035,4243.974121,4246.922852,4264.358887,4214.487305,4352.051270,4325.897461,4328.717773,4382.436035,2388.000000,2.000000,54.000000,,,,0.000000,4.000000,4.000000,4.000000,4.000000,4.000000,4.000000,4.000000,4.000000,4.000000,4.000000,4.000000,4.000000,4.000000,4.000000,100.000000,,,,,,,,,,,,,,,,,,,,,,,,,,,,,,,,,,,,,,,,,,,,,,,
1665770644.969604,1665770644.970067,70.000000,0.000000,4280.512695,4261.922852,4264.615234,4262.820313,4263.717773,4248.461426,4234.230957,4237.948730,4255.128418,4217.307617,4346.538574,4326.025879,4323.333496,4378.461426,2234.000000,2.000000,54.000000,,,,0.000000,4.000000,4.000000,4.000000,4.000000,4.000000,4.000000,4.000000,4.000000,4.000000,4.000000,4.000000,4.000000,4.000000,4.000000,100.000000,,,,,,,,,,,,,,,,,,,,,,,,,,,,,,,,,,,,,,,,,,,,,,,
1665770644.977413,1665770644.977875,71.000000,0.000000,4276.922852,4262.179688,4261.538574,4263.974121,4264.487305,4245.897461,4231.666504,4231.153809,4249.871582,4215.897461,4341.666504,4323.205078,4311.666504,4369.358887,2409.000000,2.000000,54.000000,,,,0.000000,4.000000,4.000000,4.000000,4.000000,4.000000,4.000000,4.000000,4.000000,4.000000,4.000000,4.000000,4.000000,4.000000,4.000000,100.000000,,,,,,,,,,,,,,,,,,,,,,,,,,,,,,,,,,,,,,,,,,,,,,,
1665770644.985221,1665770644.985584,72.000000,0.000000,4278.589844,4266.538574,4262.436035,4266.538574,4264.230957,4247.692383,4235.641113,4242.179688,4259.871582,4223.589844,4352.692383,4326.794922,4320.512695,4372.436035,2281.000000,2.000000,54.000000,,,,0.000000,4.000000,4.000000,4.000000,4.000000,4.000000,4.000000,4.000000,4.000000,4.000000,4.000000,4.000000,4.000000,4.000000,4.000000,100.000000,,,,,,,,,,,,,,,,,,,,,,,,,,,,,,,,,,,,,,,,,,,,,,,
1665770644.993029,1665770644.993392,73.000000,0.000000,4282.436035,4262.948730,4264.743652,4268.077148,4265.641113,4250.641113,4241.410156,4253.846191,4269.743652,4236.025879,4362.051270,4330.384766,4331.538574,4376.666504,2373.000000,2.000000,54.000000,,,,0.000000,4.000000,4.000000,4.000000,4.000000,4.000000,4.000000,4.000000,4.000000,4.000000,4.000000,4.000000,4.000000,4.000000,4.000000,100.000000,,,,,,,,,,,,,,,,,,,,,,,,,,,,,,,,,,,,,,,,,,,,,,,
1665770645.000838,1665770645.001101,74.000000,0.000000,4276.025879,4257.820313,4260.512695,4267.820313,4266.794922,4248.077148,4246.025879,4251.410156,4266.410156,4226.666504,4351.538574,4326.025879,4318.333496,4367.563965,2713.000000,2.000000,54.000000,,,,0.000000,4.000000,4.000000,4.000000,4.000000,4.000000,4.000000,4.000000,4.000000,4.000000,4.000000,4.000000,4.000000,4.000000,4.000000,100.000000,,,,,,,,,,,,,,,,,,,,,,,,,,,,,,,,,,,,,,,,,,,,,,,
1665770645.008646,1665770645.009009,75.000000,0.000000,4265.641113,4258.333496,4258.333496,4265.897461,4265.000000,4243.461426,4245.000000,4250.641113,4260.512695,4213.589844,4344.487305,4326.538574,4304.871582,4361.794922,2282.000000,2.000000,54.000000,,,,0.000000,4.000000,4.000000,4.000000,4.000000,4.000000,4.000000,4.000000,4.000000,4.000000,4.000000,4.000000,4.000000,4.000000,4.000000,100.000000,,,,,,,,,,,,,,,,,,,,,,,,,,,,,,,,,,,,,,,,,,,,,,,
1665770645.016454,1665770645.016818,76.000000,0.000000,4269.102539,4261.922852,4263.717773,4265.512695,4263.846191,4245.128418,4248.589844,4261.282227,4263.077148,4221.922852,4355.897461,4335.384766,4312.948730,4370.000000,3079.000000,2.000000,54.000000,,,,0.000000,4.000000,4.000000,4.000000,4.000000,4.000000,4.000000,4.000000,4.000000,4.000000,4.000000,4.000000,4.000000,4.000000,4.000000,100.000000,,,,,,,,,,,,,,,,,,,,,,,,,,,,,,,,,,,,,,,,,,,,,,,
1665770645.024263,1665770645.024726,77.000000,0.000000,4280.512695,4263.077148,4268.205078,4266.282227,4265.769043,4250.000000,4258.974121,4267.307617,4266.025879,4234.743652,4367.948730,4341.153809,4322.436035,4378.589844,1252.000000,2.000000,54.000000,,,,0.000000,4.000000,4.000000,4.000000,4.000000,4.000000,4.000000,4.000000,4.000000,4.000000,4.000000,4.000000,4.000000,4.000000,4.000000,100.000000,,,,,,,,,,,,,,,,,,,,,,,,,,,,,,,,,,,,,,,,,,,,,,,
1665770645.032071,1665770645.032534,78.000000,0.000000,4279.871582,4257.948730,4265.512695,4264.615234,4266.282227,4250.897461,4255.641113,4257.436035,4262.179688,4230.384766,4364.102539,4340.512695,4317.307617,4376.153809,2713.000000,2.000000,54.000000,,,,0.000000,4.000000,4.000000,4.000000,4.000000,4.000000,4.000000,4.000000,4.000000,4.000000,4.000000,4.000000,4.000000,4.000000,4.000000,100.000000,,,,,,,,,,,,,,,,,,,,,,,,,,,,,,,,,,,,,,,,,,,,,,,
1665770645.039880,1665770645.040443,79.000000,0.000000,4266.666504,4256.153809,4262.051270,4263.717773,4262.307617,4249.102539,4245.897461,4240.641113,4248.589844,4218.461426,4350.641113,4335.256348,4305.000000,4366.538574,2282.000000,2.000000,54.000000,,,,0.000000,4.000000,4.000000,4.000000,4.000000,4.000000,4.000000,4.000000,4.000000,4.000000,4.000000,4.000000,4.000000,4.000000,4.000000,100.000000,,,,,,,,,,,,,,,,,,,,,,,,,,,,,,,,,,,,,,,,,,,,,,,
1665770645.047688,1665770645.048251,80.000000,0.000000,4264.487305,4263.589844,4262.563965,4264.615234,4263.077148,4249.743652,4244.358887,4230.384766,4235.384766,4210.769043,4344.358887,4330.256348,4303.974121,4363.333496,3079.000000,2.000000,54.000000,,,,0.000000,4.000000,4.000000,4.000000,4.000000,4.000000,4.000000,4.000000,4.000000,4.000000,4.000000,4.000000,4.000000,4.000000,4.000000,100.000000,,,,,,,,,,,,,,,,,,,,,,,,,,,,,,,,,,,,,,,,,,,,,,,
1665770645.055496,1665770645.056160,81.000000,0.000000,4275.000000,4265.769043,4263.461426,4265.000000,4271.025879,4251.410156,4239.230957,4228.589844,4236.282227,4213.717773,4353.333496,4331.282227,4313.205078,4372.051270,1252.000000,2.000000,54.000000,,,,0.000000,4.000000,4.000000,4.000000,4.000000,4.000000,4.000000,4.000000,4.000000,4.000000,4.000000,4.000000,4.000000,4.000000,4.000000,100.000000,,,,,,,,,,,,,,,,,,,,,,,,,,,,,,,,,,,,,,,,,,,,,,,
1665770645.063305,1665770645.063968,82.000000,0.000000,4281.282227,4263.205078,4268.333496,4269.615234,4272.307617,4248.461426,4234.743652,4237.307617,4252.179688,4227.692383,4372.051270,4337.563965,4324.102539,4380.384766,2713.000000,2.000000,54.000000,,,,0.000000,4.000000,4.000000,4.000000,4.000000,4.000000,4.000000,4.000000,4.000000,4.000000,4.000000,4.000000,4.000000,4.000000,4.000000,100.000000,,,,,,,,,,,,,,,,,,,,,,,,,,,,,,,,,,,,,,,,,,,,,,,
1665770645.071113,1665770645.071876,83.000000,0.000000,4282.563965,4272.820313,4275.384766,4279.358887,4266.794922,4244.102539,4243.205078,4252.307617,4267.179688,4236.410156,4382.051270,4341.153809,4329.487305,4382.436035,2282.000000,2.000000,54.000000,,,,0.000000,4.000000,4.000000,4.000000,4.000000,4.000000,4.000000,4.000000,4.000000,4.000000,4.000000,4.000000,4.000000,4.000000,4.000000,100.000000,,,,,,,,,,,,,,,,,,,,,,,,,,,,,,,,,,,,,,,,,,,,,,,
1665770645.078921,1665770645.079685,84.000000,0.000000,4281.153809,4280.000000,4275.641113,4281.410156,4266.025879,4246.538574,4251.410156,4262.436035,4269.487305,4234.743652,4375.384766,4337.436035,4325.769043,4381.025879,3079.000000,2.000000,54.000000,,,,0.000000,4.000000,4.000000,4.000000,4.000000,4.000000,4.000000,4.000000,4.000000,4.000000,4.000000,4.000000,4.000000,4.000000,4.000000,100.000000,,,,,,,,,,,,,,,,,,,,,,,,,,,,,,,,,,,,,,,,,,,,,,,
1665770645.086730,1665770645.087593,85.000000,0.000000,4271.025879,4270.256348,4264.615234,4272.179688,4266.794922,4247.948730,4250.000000,4259.615234,4266.666504,4232.307617,4360.641113,4330.256348,4315.512695,4369.102539,1252.000000,2.000000,54.000000,,,,0.000000,4.000000,4.000000,4.000000,4.000000,4.000000,4.000000,4.000000,4.000000,4.000000,4.000000,4.000000,4.000000,4.000000,4.000000,100.000000,,,,,,,,,,,,,,,,,,,,,,,,,,,,,,,,,,,,,,,,,,,,,,,
1665770645.094538,1665770645.095402,86.000000,0.000000,4260.641113,4260.384766,4250.128418,4264.358887,4263.974121,4247.692383,4248.974121,4251.794922,4265.897461,4226.794922,4350.641113,4327.692383,4301.666504,4351.922852,2713.000000,2.000000,54.000000,,,,0.000000,4.000000,4.000000,4.000000,4.000000,4.000000,4.000000,4.000000,4.000000,4.000000,4.000000,4.000000,4.000000,4.000000,4.000000,100.000000,,,,,,,,,,,,,,,,,,,,,,,,,,,,,,,,,,,,,,,,,,,,,,,
1665770645.102347,1665770645.103110,87.000000,0.000000,4261.794922,4254.615234,4248.846191,4264.871582,4264.358887,4257.948730,4250.769043,4247.307617,4262.948730,4219.102539,4348.205078,4327.051270,4295.000000,4349.743652,2282.000000,2.000000,54.000000,,,,0.000000,4.000000,4.000000,4.000000,4.000000,4.000000,4.000000,4.000000,4.000000,4.000000,4.000000,4.000000,4.000000,4.000000,4.000000,100.000000,,,,,,,,,,,,,,,,,,,,,,,,,,,,,,,,,,,,,,,,,,,,,,,
1665770645.110155,1665770645.110919,88.000000,0.000000,4265.128418,4248.974121,4256.666504,4265.769043,4265.128418,4269.230957,4251.153809,4240.641113,4254.230957,4217.948730,4344.871582,4323.717773,4296.282227,4354.230957,3079.000000,2.000000,54.000000,,,,0.000000,4.000000,4.000000,4.000000,4.000000,4.000000,4.000000,4.000000,4.000000,4.000000,4.000000,4.000000,4.000000,4.000000,4.000000,100.000000,,,,,,,,,,,,,,,,,,,,,,,,,,,,,,,,,,,,,,,,,,,,,,,
1665770645.117963,1665770645.118627,89.000000,0.000000,4268.461426,4253.077148,4260.512695,4263.077148,4262.179688,4267.563965,4250.256348,4230.384766,4242.820313,4217.307617,4340.769043,4322.307617,4292.820313,4350.512695,1252.000000,2.000000,54.000000,,,,0.000000,4.000000,4.000000,4.000000,4.000000,4.000000,4.000000,4.000000,4.000000,4.000000,4.000000,4.000000,4.000000,4.000000,4.000000,100.000000,,,,,,,,,,,,,,,,,,,,,,,,,,,,,,,,,,,,,,,,,,,,,,,
1665770645.125772,1665770645.126436,90.000000,0.000000,4277.820313,4264.487305,4266.410156,4267.692383,4268.077148,4264.871582,4252.436035,4226.922852,4232.436035,4211.410156,4345.512695,4328.333496,4290.641113,4352.436035,2713.000000,2.000000,54.000000,,,,0.000000,4.000000,4.000000,4.000000,4.000000,4.000000,4.000000,4.000000,4.000000,4.000000,4.000000,4.000000,4.000000,4.000000,4.000000,100.000000,,,,,,,,,,,,,,,,,,,,,,,,,,,,,,,,,,,,,,,,,,,,,,,
1665770645.133580,1665770645.134144,91.000000,0.000000,4290.384766,4273.333496,4280.000000,4283.205078,4279.871582,4267.307617,4255.000000,4229.230957,4227.563965,4215.641113,4355.897461,4335.384766,4300.000000,4364.102539,2282.000000,2.000000,54.000000,,,,0.000000,4.000000,4.000000,4.000000,4.000000,4.000000,4.000000,4.000000,4.000000,4.000000,4.000000,4.000000,4.000000,4.000000,4.000000,100.000000,,,,,,,,,,,,,,,,,,,,,,,,,,,,,,,,,,,,,,,,,,,,,,,
1665770645.141389,1665770645.141953,92.000000,0.000000,4297.051270,4284.102539,4284.743652,4289.871582,4282.436035,4265.769043,4251.666504,4229.615234,4236.282227,4225.769043,4362.436035,4336.538574,4309.102539,4369.743652,3079.000000,2.000000,54.000000,,,,0.000000,4.000000,4.000000,4.000000,4.000000,4.000000,4.000000,4.000000,4.000000,4.000000,4.000000,4.000000,4.000000,4.000000,4.000000,100.000000,,,,,,,,,,,,,,,,,,,,,,,,,,,,,,,,,,,,,,,,,,,,,,,
1665770645.149197,1665770645.149661,93.000000,0.000000,4297.051270,4293.461426,4279.615234,4288.205078,4283.589844,4261.410156,4248.333496,4237.179688,4248.717773,4236.153809,4373.974121,4340.256348,4309.743652,4373.461426,1252.000000,2.000000,54.000000,,,,0.000000,4.000000,4.000000,4.000000,4.000000,4.000000,4.000000,4.000000,4.000000,4.000000,4.000000,4.000000,4.000000,4.000000,4.000000,100.000000,1.000000,75.000000,3.000000,4.000000,3.000000,4.000000,4.000000,4.000000,4.000000,4.000000,4.000000,4.000000,4.000000,4.000000,4.000000,3.000000,1.000000,0.145067,-0.806902,-1.409601,0.710785,1.000000,0.051652,3.452482,2.970610,12.299853,0.322679,1.000000,0.428376,88.606560,-80.383873,301.684845,1.000000,0.697059,0.197126,0.085256,0.260020,1.000000,0.452654,6.931876,-4.388137,18.368793,1.000000,0.254854,0.254854,0.000000,1.000000
1665770645.157005,1665770645.157470,94.000000,0.000000,4298.333496,4300.769043,4285.128418,4299.487305,4293.846191,4254.615234,4250.256348,4250.128418,4250.384766,4245.897461,4385.641113,4350.256348,4312.820313,4381.794922,2713.000000,2.000000,54.000000,,,,0.000000,4.000000,4.000000,4.000000,4.000000,4.000000,4.000000,4.000000,4.000000,4.000000,4.000000,4.000000,4.000000,4.000000,4.000000,100.000000,,,,,,,,,,,,,,,,,,,,,,,,,,,,,,,,,,,,,,,,,,,,,,,
1665770645.164814,1665770645.165178,95.000000,0.000000,4304.487305,4307.820313,4295.128418,4312.307617,4297.436035,4244.615234,4249.102539,4255.512695,4252.436035,4246.025879,4385.256348,4351.922852,4312.051270,4381.538574,2282.000000,2.000000,54.000000,,,,0.000000,4.000000,4.000000,4.000000,4.000000,4.000000,4.000000,4.000000,4.000000,4.000000,4.000000,4.000000,4.000000,4.000000,4.000000,100.000000,,,,,,,,,,,,,,,,,,,,,,,,,,,,,,,,,,,,,,,,,,,,,,,
1665770645.172622,1665770645.172987,96.000000,0.000000,4304.358887,4306.922852,4295.512695,4305.897461,4290.000000,4247.307617,4247.820313,4261.666504,4262.948730,4240.384766,4383.846191,4344.487305,4303.974121,4376.153809,3079.000000,2.000000,54.000000,,,,0.000000,4.000000,4.000000,4.000000,4.000000,4.000000,4.000000,4.000000,4.000000,4.000000,4.000000,4.000000,4.000000,4.000000,4.000000,100.000000,,,,,,,,,,,,,,,,,,,,,,,,,,,,,,,,,,,,,,,,,,,,,,,
1665770645.180431,1665770645.180695,97.000000,0.000000,4290.000000,4297.820313,4285.769043,4293.974121,4285.897461,4262.692383,4255.769043,4265.641113,4267.692383,4237.179688,4376.153809,4342.051270,4295.128418,4371.282227,1252.000000,2.000000,54.000000,,,,0.000000,4.000000,4.000000,4.000000,4.000000,4.000000,4.000000,4.000000,4.000000,4.000000,4.000000,4.000000,4.000000,4.000000,4.000000,100.000000,,,,,,,,,,,,,,,,,,,,,,,,,,,,,,,,,,,,,,,,,,,,,,,
1665770645.188239,1665770645.188603,98.000000,0.000000,4273.333496,4284.871582,4269.871582,4284.358887,4283.717773,4271.922852,4263.589844,4257.179688,4267.051270,4233.717773,4358.846191,4338.205078,4286.025879,4361.666504,2713.000000,2.000000,54.000000,,,,0.000000,4.000000,4.000000,4.000000,4.000000,4.000000,4.000000,4.000000,4.000000,4.000000,4.000000,4.000000,4.000000,4.000000,4.000000,100.000000,,,,,,,,,,,,,,,,,,,,,,,,,,,,,,,,,,,,,,,,,,,,,,,
1665770645.196047,1665770645.196412,99.000000,0.000000,4271.410156,4278.461426,4261.666504,4276.025879,4279.358887,4274.615234,4265.512695,4249.743652,4265.641113,4232.179688,4357.436035,4328.461426,4286.538574,4353.717773,2282.000000,2.000000,54.000000,,,,0.000000,4.000000,4.000000,4.000000,4.000000,4.000000,4.000000,4.000000,4.000000,4.000000,4.000000,4.000000,4.000000,4.000000,4.000000,100.000000,,,,,,,,,,,,,,,,,,,,,,,,,,,,,,,,,,,,,,,,,,,,,,,
1665770645.203856,1665770645.204320,100.000000,0.000000,4281.922852,4288.974121,4268.205078,4279.230957,4279.230957,4280.000000,4266.794922,4247.307617,4256.666504,4230.384766,4364.871582,4326.282227,4291.538574,4357.692383,3079.000000,2.000000,54.000000,,,,0.000000,4.000000,4.000000,4.000000,4.000000,4.000000,4.000000,4.000000,4.000000,4.000000,4.000000,4.000000,4.000000,4.000000,4.000000,100.000000,,,,,,,,,,,,,,,,,,,,,,,,,,,,,,,,,,,,,,,,,,,,,,,
1665770645.211664,1665770645.212129,101.000000,0.000000,4286.282227,4294.487305,4277.820313,4285.897461,4281.025879,4282.307617,4267.820313,4238.333496,4245.128418,4222.820313,4358.974121,4330.512695,4290.897461,4364.487305,1252.000000,2.000000,54.000000,,,,0.000000,4.000000,4.000000,4.000000,4.000000,4.000000,4.000000,4.000000,4.000000,4.000000,4.000000,4.000000,4.000000,4.000000,4.000000,100.000000,,,,,,,,,,,,,,,,,,,,,,,,,,,,,,,,,,,,,,,,,,,,,,,
1665770645.219473,1665770645.220037,102.000000,0.000000,4288.717773,4284.743652,4280.256348,4288.846191,4282.563965,4280.256348,4266.794922,4227.948730,4235.128418,4220.000000,4358.333496,4331.538574,4292.563965,4365.641113,2713.000000,2.000000,54.000000,,,,0.000000,4.000000,4.000000,4.000000,4.000000,4.000000,4.000000,4.000000,4.000000,4.000000,4.000000,4.000000,4.000000,4.000000,4.000000,100.000000,,,,,,,,,,,,,,,,,,,,,,,,,,,,,,,,,,,,,,,,,,,,,,,
1665770645.227281,1665770645.227845,103.000000,0.000000,4292.692383,4283.589844,4280.641113,4290.641113,4286.794922,4277.051270,4267.179688,4218.461426,4219.743652,4221.922852,4361.666504,4328.205078,4289.102539,4362.820313,2282.000000,2.000000,54.000000,,,,0.000000,4.000000,4.000000,4.000000,4.000000,4.000000,4.000000,4.000000,4.000000,4.000000,4.000000,4.000000,4.000000,4.000000,4.000000,100.000000,,,,,,,,,,,,,,,,,,,,,,,,,,,,,,,,,,,,,,,,,,,,,,,
1665770645.235089,1665770645.235754,104.000000,0.000000,4284.487305,4283.717773,4277.692383,4284.358887,4282.692383,4268.077148,4261.410156,4212.563965,4210.128418,4214.230957,4353.205078,4327.307617,4275.641113,4355.384766,3079.000000,2.000000,54.000000,,,,0.000000,4.000000,4.000000,4.000000,4.000000,4.000000,4.000000,4.000000,4.000000,4.000000,4.000000,4.000000,4.000000,4.000000,4.000000,100.000000,,,,,,,,,,,,,,,,,,,,,,,,,,,,,,,,,,,,,,,,,,,,,,,
1665770645.242898,1665770645.243562,105.000000,0.000000,4275.128418,4273.846191,4274.102539,4279.102539,4274.487305,4258.846191,4250.128418,4220.512695,4220.897461,4217.307617,4355.897461,4332.948730,4280.128418,4351.025879,1252.000000,2.000000,54.000000,,,,0.000000,4.000000,4.000000,4.000000,4.000000,4.000000,4.000000,4.000000,4.000000,4.000000,4.000000,4.000000,4.000000,4.000000,4.000000,100.000000,,,,,,,,,,,,,,,,,,,,,,,,,,,,,,,,,,,,,,,,,,,,,,,
1665770645.250706,1665770645.251471,106.000000,0.000000,4285.897461,4282.563965,4281.410156,4293.974121,4282.692383,4260.000000,4251.666504,4242.307617,4241.538574,4237.179688,4377.179688,4342.820313,4303.846191,4362.307617,2713.000000,2.000000,54.000000,,,,0.000000,4.000000,4.000000,4.000000,4.000000,4.000000,4.000000,4.000000,4.000000,4.000000,4.000000,4.000000,4.000000,4.000000,4.000000,100.000000,,,,,,,,,,,,,,,,,,,,,,,,,,,,,,,,,,,,,,,,,,,,,,,
1665770645.258515,1665770645.259279,107.000000,0.000000,4301.922852,4300.512695,4295.641113,4310.769043,4295.384766,4263.333496,4262.692383,4261.410156,4259.487305,4251.153809,4394.743652,4352.436035,4309.615234,4377.051270,2282.000000,2.000000,54.000000,,,,0.000000,4.000000,4.000000,4.000000,4.000000,4.000000,4.000000,4.000000,4.000000,4.000000,4.000000,4.000000,4.000000,4.000000,4.000000,100.000000,,,,,,,,,,,,,,,,,,,,,,,,,,,,,,,,,,,,,,,,,,,,,,,
1665770645.266323,1665770645.267088,108.000000,0.000000,4303.974121,4297.948730,4301.922852,4310.512695,4293.846191,4261.538574,4265.384766,4273.205078,4273.717773,4257.563965,4406.666504,4361.922852,4312.692383,4384.102539,3079.000000,2.000000,54.000000,,,,0.000000,4.000000,4.000000,4.000000,4.000000,4.000000,4.000000,4.000000,4.000000,4.000000,4.000000,4.000000,4.000000,4.000000,4.000000,100.000000,,,,,,,,,,,,,,,,,,,,,,,,,,,,,,,,,,,,,,,,,,,,,,,
1665770645.274131,1665770645.274896,109.000000,0.000000,4302.820313,4295.384766,4305.384766,4310.384766,4290.641113,4264.871582,4262.051270,4277.692383,4282.307617,4265.256348,4416.025879,4366.538574,4326.794922,4386.922852,1252.000000,2.000000,54.000000,,,,0.000000,4.000000,4.000000,4.000000,4.000000,4.000000,4.000000,4.000000,4.000000,4.000000,4.000000,4.000000,4.000000,4.000000,4.000000,100.000000,,,,,,,,,,,,,,,,,,,,,,,,,,,,,,,,,,,,,,,,,,,,,,,
1665770645.281940,1665770645.282605,110.000000,0.000000,4302.563965,4305.384766,4310.641113,4315.128418,4295.256348,4277.307617,4267.051270,4276.666504,4285.000000,4268.846191,4417.179688,4365.256348,4328.205078,4389.487305,2713.000000,2.000000,54.000000,,,,0.000000,4.000000,4.000000,4.000000,4.000000,4.000000,4.000000,4.000000,4.000000,4.000000,4.000000,4.000000,4.000000,4.000000,4.000000,100.000000,,,,,,,,,,,,,,,,,,,,,,,,,,,,,,,,,,,,,,,,,,,,,,,
1665770645.289748,1665770645.290413,111.000000,0.000000,4296.922852,4302.307617,4303.717773,4311.153809,4295.641113,4285.769043,4276.153809,4270.128418,4276.538574,4264.358887,4408.717773,4359.358887,4313.717773,4382.179688,2282.000000,2.000000,54.000000,,,,0.000000,4.000000,4.000000,4.000000,4.000000,4.000000,4.000000,4.000000,4.000000,4.000000,4.000000,4.000000,4.000000,4.000000,4.000000,100.000000,,,,,,,,,,,,,,,,,,,,,,,,,,,,,,,,,,,,,,,,,,,,,,,
1665770645.297556,1665770645.298122,112.000000,0.000000,4290.769043,4292.563965,4293.205078,4306.794922,4291.922852,4288.077148,4281.538574,4257.179688,4260.000000,4253.717773,4392.563965,4350.512695,4298.974121,4367.563965,3079.000000,2.000000,54.000000,,,,0.000000,4.000000,4.000000,4.000000,4.000000,4.000000,4.000000,4.000000,4.000000,4.000000,4.000000,4.000000,4.000000,4.000000,4.000000,100.000000,,,,,,,,,,,,,,,,,,,,,,,,,,,,,,,,,,,,,,,,,,,,,,,
1665770645.305365,1665770645.306030,113.000000,0.000000,4293.974121,4297.436035,4301.153809,4309.487305,4293.461426,4292.436035,4286.922852,4247.563965,4247.307617,4243.077148,4389.358887,4349.615234,4297.179688,4369.102539,1252.000000,2.000000,54.000000,,,,0.000000,4.000000,4.000000,4.000000,4.000000,4.000000,4.000000,4.000000,4.000000,4.000000,4.000000,4.000000,4.000000,4.000000,4.000000,100.000000,,,,,,,,,,,,,,,,,,,,,,,,,,,,,,,,,,,,,,,,,,,,,,,
1665770645.313173,1665770645.313838,114.000000,0.000000,4302.692383,4307.820313,4313.717773,4310.897461,4296.282227,4295.128418,4293.205078,4237.820313,4233.717773,4233.846191,4396.410156,4351.282227,4304.487305,4382.051270,2713.000000,2.000000,54.000000,,,,0.000000,4.000000,4.000000,4.000000,4.000000,4.000000,4.000000,4.000000,4.000000,4.000000,4.000000,4.000000,4.000000,4.000000,4.000000,100.000000,,,,,,,,,,,,,,,,,,,,,,,,,,,,,,,,,,,,,,,,,,,,,,,
1665770645.320982,1665770645.321747,115.000000,0.000000,4308.717773,4312.692383,4316.410156,4310.641113,4297.692383,4295.641113,4292.948730,4229.102539,4220.641113,4230.128418,4395.512695,4347.051270,4309.743652,4382.563965,2282.000000,2.000000,54.000000,,,,0.000000,4.000000,4.000000,4.000000,4.000000,4.000000,4.000000,4.000000,4.000000,4.000000,4.000000,4.000000,4.000000,4.000000,4.000000,100.000000,,,,,,,,,,,,,,,,,,,,,,,,,,,,,,,,,,,,,,,,,,,,,,,
1665770645.328790,1665770645.329555,116.000000,0.000000,4312.436035,4313.077148,4315.897461,4317.307617,4296.538574,4293.077148,4283.589844,4232.820313,4224.871582,4236.410156,4395.384766,4345.256348,4307.436035,4380.769043,3079.000000,2.000000,54.000000,,,,0.000000,4.000000,4.000000,4.000000,4.000000,4.000000,4.000000,4.000000,4.000000,4.000000,4.000000,4.000000,4.000000,4.000000,4.000000,100.000000,,,,,,,,,,,,,,,,,,,,,,,,,,,,,,,,,,,,,,,,,,,,,,,
1665770645.336598,1665770645.337364,117.000000,0.000000,4313.205078,4312.692383,4316.153809,4320.512695,4293.461426,4283.974121,4279.743652,4247.692383,4248.205078,4252.692383,4407.051270,4350.000000,4310.256348,4391.410156,1252.000000,2.000000,54.000000,,,,0.000000,4.000000,4.000000,4.000000,4.000000,4.000000,4.000000,4.000000,4.000000,4.000000,4.000000,4.000000,4.000000,4.000000,4.000000,100.000000,,,,,,,,,,,,,,,,,,,,,,,,,,,,,,,,,,,,,,,,,,,,,,,
1665770645.344407,1665770645.345072,118.000000,0.000000,4313.974121,4310.384766,4310.512695,4313.077148,4291.282227,4275.000000,4282.051270,4265.256348,4272.051270,4267.948730,4419.102539,4350.769043,4322.692383,4395.897461,2713.000000,2.000000,54.000000,,,,0.000000,4.000000,4.000000,4.000000,4.000000,4.000000,4.000000,4.000000,4.000000,4.000000,4.000000,4.000000,4.000000,4.000000,4.000000,100.000000,,,,,,,,,,,,,,,,,,,,,,,,,,,,,,,,,,,,,,,,,,,,,,,
1665770645.352215,1665770645.352881,119.000000,0.000000,4308.205078,4302.051270,4300.641113,4307.051270,4290.000000,4275.769043,4279.358887,4278.205078,4284.102539,4279.102539,4428.205078,4350.897461,4330.256348,4389.230957,2282.000000,2.000000,54.000000,,,,0.000000,4.000000,4.000000,4.000000,4.000000,4.000000,4.000000,4.000000,4.000000,4.000000,4.000000,4.000000,4.000000,4.000000,4.000000,100.000000,,,,,,,,,,,,,,,,,,,,,,,,,,,,,,,,,,,,,,,,,,,,,,,
1665770645.360023,1665770645.360589,120.000000,0.000000,4300.384766,4296.666504,4295.384766,4309.358887,4290.128418,4281.025879,4276.410156,4286.410156,4287.820313,4282.948730,4433.589844,4355.128418,4329.487305,4389.615234,3079.000000,2.000000,54.000000,,,,0.000000,4.000000,4.000000,4.000000,4.000000,4.000000,4.000000,4.000000,4.000000,4.000000,4.000000,4.000000,4.000000,4.000000,4.000000,100.000000,,,,,,,,,,,,,,,,,,,,,,,,,,,,,,,,,,,,,,,,,,,,,,,
1665770645.367832,1665770645.368398,121.000000,0.000000,4296.538574,4298.333496,4295.384766,4310.512695,4292.307617,4279.487305,4274.615234,4280.641113,4283.205078,4275.256348,4422.563965,4350.769043,4322.179688,4384.102539,1252.000000,2.000000,54.000000,,,,0.000000,4.000000,4.000000,4.000000,4.000000,4.000000,4.000000,4.000000,4.000000,4.000000,4.000000,4.000000,4.000000,4.000000,4.000000,100.000000,,,,,,,,,,,,,,,,,,,,,,,,,,,,,,,,,,,,,,,,,,,,,,,
1665770645.375640,1665770645.376106,122.000000,0.000000,4288.461426,4295.128418,4294.230957,4304.358887,4293.974121,4283.077148,4276.410156,4269.743652,4273.589844,4264.743652,4407.692383,4343.589844,4314.615234,4370.128418,2713.000000,2.000000,54.000000,,,,0.000000,4.000000,4.000000,4.000000,4.000000,4.000000,4.000000,4.000000,4.000000,4.000000,4.000000,4.000000,4.000000,4.000000,4.000000,100.000000,,,,,,,,,,,,,,,,,,,,,,,,,,,,,,,,,,,,,,,,,,,,,,,
1665770645.383449,1665770645.384014,123.000000,0.000000,4279.230957,4289.743652,4287.948730,4302.307617,4294.743652,4298.461426,4285.897461,4265.000000,4261.666504,4256.794922,4401.282227,4345.897461,4303.461426,4363.717773,2282.000000,2.000000,54.000000,,,,0.000000,4.000000,4.000000,4.000000,4.000000,4.000000,4.000000,4.000000,4.000000,4.000000,4.000000,4.000000,4.000000,4.000000,4.000000,100.000000,,,,,,,,,,,,,,,,,,,,,,,,,,,,,,,,,,,,,,,,,,,,,,,
1665770645.391257,1665770645.391823,124.000000,0.000000,4278.205078,4293.205078,4281.922852,4307.436035,4295.128418,4306.025879,4296.922852,4255.897461,4250.000000,4245.256348,4390.769043,4345.641113,4287.820313,4360.256348,3079.000000,2.000000,54.000000,,,,0.000000,4.000000,4.000000,4.000000,4.000000,4.000000,4.000000,4.000000,4.000000,4.000000,4.000000,4.000000,4.000000,4.000000,4.000000,100.000000,,,,,,,,,,,,,,,,,,,,,,,,,,,,,,,,,,,,,,,,,,,,,,,
1665770645.399065,1665770645.399731,125.000000,0.000000,4279.615234,4295.512695,4281.538574,4306.538574,4296.922852,4301.282227,4298.589844,4237.436035,4233.589844,4231.922852,4378.461426,4338.333496,4277.820313,4351.538574,1252.000000,2.000000,54.000000,,,,0.000000,4.000000,4.000000,4.000000,4.000000,4.000000,4.000000,4.000000,4.000000,4.000000,4.000000,4.000000,4.000000,4.000000,4.000000,100.000000,,,,,,,,,,,,,,,,,,,,,,,,,,,,,,,,,,,,,,,,,,,,,,,
1665770645.406874,1665770645.407540,126.000000,0.000000,4277.307617,4290.897461,4281.666504,4302.051270,4294.743652,4295.512695,4289.358887,4224.743652,4215.512695,4226.538574,4374.487305,4336.282227,4275.512695,4346.410156,2713.000000,2.000000,54.000000,,,,0.000000,4.000000,4.000000,4.000000,4.000000,4.000000,4.000000,4.000000,4.000000,4.000000,4.000000,4.000000,4.000000,4.000000,4.000000,100.000000,,,,,,,,,,,,,,,,,,,,,,,,,,,,,,,,,,,,,,,,,,,,,,,
1665770645.414682,1665770645.415448,127.000000,0.000000,4277.563965,4291.922852,4282.307617,4304.743652,4286.410156,4288.461426,4280.128418,4229.230957,4216.538574,4227.820313,4379.230957,4343.077148,4276.282227,4352.179688,54.000000,2.000000,54.000000,,,,0.000000,4.000000,4.000000,4.000000,4.000000,4.000000,4.000000,4.000000,4.000000,4.000000,4.000000,4.000000,4.000000,4.000000,4.000000,100.000000,,,,,,,,,,,,,,,,,,,,,,,,,,,,,,,,,,,,,,,,,,,,,,,
1665770645.422490,1665770645.423256,0.000000,0.000000,4282.051270,4296.153809,4287.051270,4308.205078,4281.153809,4279.743652,4278.333496,4241.282227,4233.846191,4233.205078,4387.820313,4348.717773,4279.358887,4360.256348,2436.000000,2.000000,54.000000,,,,0.000000,4.000000,4.000000,4.000000,4.000000,4.000000,4.000000,4.000000,4.000000,4.000000,4.000000,4.000000,4.000000,4.000000,4.000000,100.000000,,,,,,,,,,,,,,,,,,,,,,,,,,,,,,,,,,,,,,,,,,,,,,,
1665770645.430299,1665770645.431165,1.000000,0.000000,4285.512695,4297.692383,4294.230957,4308.589844,4280.512695,4277.563965,4279.230957,4256.282227,4248.846191,4243.974121,4397.179688,4355.128418,4285.384766,4361.794922,2144.000000,2.000000,54.000000,,,,0.000000,4.000000,4.000000,4.000000,4.000000,4.000000,4.000000,4.000000,4.000000,4.000000,4.000000,4.000000,4.000000,4.000000,4.000000,100.000000,,,,,,,,,,,,,,,,,,,,,,,,,,,,,,,,,,,,,,,,,,,,,,,
1665770645.438107,1665770645.438973,2.000000,0.000000,4288.974121,4302.307617,4295.256348,4311.922852,4277.692383,4278.846191,4276.922852,4272.820313,4260.769043,4251.410156,4408.077148,4361.666504,4291.922852,4364.102539,2358.000000,2.000000,54.000000,,,,0.000000,4.000000,4.000000,4.000000,4.000000,4.000000,4.000000,4.000000,4.000000,4.000000,4.000000,4.000000,4.000000,4.000000,4.000000,100.000000,,,,,,,,,,,,,,,,,,,,,,,,,,,,,,,,,,,,,,,,,,,,,,,
1665770645.445916,1665770645.446882,3.000000,0.000000,4288.333496,4304.615234,4292.307617,4312.563965,4277.692383,4278.333496,4279.487305,4278.717773,4273.846191,4253.717773,4414.230957,4361.922852,4295.512695,4367.436035,2369.000000,2.000000,54.000000,,,,0.000000,4.000000,4.000000,4.000000,4.000000,4.000000,4.000000,4.000000,4.000000,4.000000,4.000000,4.000000,4.000000,4.000000,4.000000,100.000000,,,,,,,,,,,,,,,,,,,,,,,,,,,,,,,,,,,,,,,,,,,,,,,
1665770645.453724,1665770645.454690,4.000000,0.000000,4283.846191,4297.307617,4286.666504,4307.436035,4281.666504,4280.128418,4282.948730,4272.179688,4275.000000,4251.282227,4404.871582,4357.563965,4287.948730,4361.666504,2369.000000,2.000000,54.000000,,,,0.000000,4.000000,4.000000,4.000000,4.000000,4.000000,4.000000,4.000000,4.000000,4.000000,4.000000,4.000000,4.000000,4.000000,4.000000,100.000000,,,,,,,,,,,,,,,,,,,,,,,,,,,,,,,,,,,,,,,,,,,,,,,
1665770645.461532,1665770645.462399,5.000000,0.000000,4279.871582,4292.563965,4280.897461,4306.538574,4282.179688,4284.743652,4279.871582,4261.538574,4259.615234,4243.589844,4389.358887,4350.512695,4271.538574,4352.179688,2386.000000,2.000000,54.000000,,,,0.000000,4.000000,4.000000,4.000000,4.000000,4.000000,4.000000,4.000000,4.000000,4.000000,4.000000,4.000000,4.000000,4.000000,4.000000,100.000000,,,,,,,,,,,,,,,,,,,,,,,,,,,,,,,,,,,,,,,,,,,,,,,
1665770645.469341,1665770645.470207,6.000000,0.000000,4278.205078,4296.794922,4280.769043,4306.282227,4284.358887,4295.897461,4284.615234,4252.307617,4246.410156,4232.179688,4382.051270,4344.230957,4263.589844,4349.487305,2232.000000,2.000000,54.000000,,,,0.000000,4.000000,4.000000,4.000000,4.000000,4.000000,4.000000,4.000000,4.000000,4.000000,4.000000,4.000000,4.000000,4.000000,4.000000,100.000000,,,,,,,,,,,,,,,,,,,,,,,,,,,,,,,,,,,,,,,,,,,,,,,
1665770645.477149,1665770645.477916,7.000000,0.000000,4276.025879,4292.051270,4275.256348,4298.589844,4288.846191,4305.128418,4295.384766,4239.487305,4233.333496,4221.538574,4373.333496,4340.384766,4262.179688,4345.256348,2398.000000,2.000000,54.000000,,,,0.000000,4.000000,4.000000,4.000000,4.000000,4.000000,4.000000,4.000000,4.000000,4.000000,4.000000,4.000000,4.000000,4.000000,4.000000,100.000000,,,,,,,,,,,,,,,,,,,,,,,,,,,,,,,,,,,,,,,,,,,,,,,
1665770645.484958,1665770645.485724,8.000000,0.000000,4272.563965,4282.179688,4267.051270,4295.512695,4288.461426,4301.282227,4297.051270,4222.692383,4216.025879,4213.974121,4366.025879,4338.717773,4260.384766,4338.077148,2274.000000,2.000000,54.000000,,,,0.000000,4.000000,4.000000,4.000000,4.000000,4.000000,4.000000,4.000000,4.000000,4.000000,4.000000,4.000000,4.000000,4.000000,4.000000,100.000000,,,,,,,,,,,,,,,,,,,,,,,,,,,,,,,,,,,,,,,,,,,,,,,
1665770645.492766,1665770645.493433,9.000000,0.000000,4275.000000,4286.025879,4274.230957,4304.358887,4289.102539,4296.538574,4294.102539,4214.743652,4208.205078,4213.974121,4372.051270,4341.282227,4261.410156,4337.820313,2368.000000,2.000000,54.000000,,,,0.000000,4.000000,4.000000,4.000000,4.000000,4.000000,4.000000,4.000000,4.000000,4.000000,4.000000,4.000000,4.000000,4.000000,4.000000,100.000000,,,,,,,,,,,,,,,,,,,,,,,,,,,,,,,,,,,,,,,,,,,,,,,
1665770645.500574,1665770645.501241,10.000000,0.000000,4285.000000,4294.871582,4287.820313,4314.358887,4293.333496,4298.205078,4293.333496,4220.384766,4217.179688,4224.230957,4379.487305,4351.794922,4263.717773,4347.051270,2713.000000,2.000000,54.000000,,,,0.000000,4.000000,4.000000,4.000000,4.000000,4.000000,4.000000,4.000000,4.000000,4.000000,4.000000,4.000000,4.000000,4.000000,4.000000,100.000000,,,,,,,,,,,,,,,,,,,,,,,,,,,,,,,,,,,,,,,,,,,,,,,
1665770645.508383,1665770645.508950,11.000000,0.000000,4295.769043,4299.358887,4294.487305,4319.102539,4295.512695,4293.589844,4286.153809,4240.128418,4235.769043,4239.871582,4391.922852,4364.102539,4271.922852,4359.743652,2289.000000,2.000000,54.000000,,,,0.000000,4.000000,4.000000,4.000000,4.000000,4.000000,4.000000,4.000000,4.000000,4.000000,4.000000,4.000000,4.000000,4.000000,4.000000,100.000000,,,,,,,,,,,,,,,,,,,,,,,,,,,,,,,,,,,,,,,,,,,,,,,
1665770645.516191,1665770645.516758,12.000000,0.000000,4305.128418,4307.436035,4304.487305,4324.871582,4296.410156,4281.410156,4279.230957,4268.333496,4255.769043,4256.025879,4419.230957,4372.692383,4287.692383,4371.922852,3059.000000,2.000000,54.000000,,,,0.000000,4.000000,4.000000,4.000000,4.000000,4.000000,4.000000,4.000000,4.000000,4.000000,4.000000,4.000000,4.000000,4.000000,4.000000,100.000000,,,,,,,,,,,,,,,,,,,,,,,,,,,,,,,,,,,,,,,,,,,,,,,
1665770645.524000,1665770645.524467,13.000000,0.000000,4311.025879,4314.871582,4314.871582,4329.102539,4296.794922,4279.615234,4286.282227,4288.846191,4270.128418,4264.743652,4437.563965,4382.179688,4298.846191,4383.589844,1224.000000,2.000000,54.000000,,,,0.000000,4.000000,4.000000,4.000000,4.000000,4.000000,4.000000,4.000000,4.000000,4.000000,4.000000,4.000000,4.000000,4.000000,4.000000,100.000000,,,,,,,,,,,,,,,,,,,,,,,,,,,,,,,,,,,,,,,,,,,,,,,
1665770645.531808,1665770645.532275,14.000000,0.000000,4312.307617,4313.333496,4314.487305,4327.307617,4295.000000,4288.205078,4296.410156,4292.948730,4271.922852,4263.333496,4435.256348,4387.692383,4298.974121,4388.589844,2713.000000,2.000000,54.000000,,,,0.000000,4.000000,4.000000,4.000000,4.000000,4.000000,4.000000,4.000000,4.000000,4.000000,4.000000,4.000000,4.000000,4.000000,4.000000,100.000000,,,,,,,,,,,,,,,,,,,,,,,,,,,,,,,,,,,,,,,,,,,,,,,
1665770645.539616,1665770645.539984,15.000000,0.000000,4307.307617,4309.230957,4311.282227,4322.307617,4294.615234,4293.205078,4296.666504,4290.000000,4268.846191,4259.615234,4430.769043,4383.846191,4293.589844,4384.743652,2289.000000,2.000000,54.000000,,,,0.000000,4.000000,4.000000,4.000000,4.000000,4.000000,4.000000,4.000000,4.000000,4.000000,4.000000,4.000000,4.000000,4.000000,4.000000,100.000000,,,,,,,,,,,,,,,,,,,,,,,,,,,,,,,,,,,,,,,,,,,,,,,
1665770645.547425,1665770645.547792,16.000000,0.000000,4302.051270,4310.897461,4309.871582,4319.871582,4296.538574,4298.589844,4294.102539,4283.717773,4262.820313,4251.922852,4428.461426,4377.820313,4288.461426,4378.333496,0.000000,2.000000,54.000000,,,,0.000000,4.000000,4.000000,4.000000,4.000000,4.000000,4.000000,4.000000,4.000000,4.000000,4.000000,4.000000,4.000000,4.000000,4.000000,100.000000,,,,,,,,,,,,,,,,,,,,,,,,,,,,,,,,,,,,,,,,,,,,,,,
1665770645.555233,1665770645.555501,17.000000,0.000000,4299.230957,4312.179688,4304.102539,4319.358887,4298.205078,4306.282227,4294.743652,4262.692383,4248.205078,4238.589844,4415.000000,4369.871582,4278.333496,4368.461426,0.000000,2.000000,54.000000,,,,0.000000,4.000000,4.000000,4.000000,4.000000,4.000000,4.000000,4.000000,4.000000,4.000000,4.000000,4.000000,4.000000,4.000000,4.000000,100.000000,,,,,,,,,,,,,,,,,,,,,,,,,,,,,,,,,,,,,,,,,,,,,,,
1665770645.563042,1665770645.563309,18.000000,0.000000,4294.743652,4303.974121,4294.230957,4312.692383,4295.897461,4304.487305,4292.948730,4236.153809,4229.743652,4226.025879,4393.333496,4357.436035,4266.025879,4355.897461,0.000000,2.000000,54.000000,,,,0.000000,4.000000,4.000000,4.000000,4.000000,4.000000,4.000000,4.000000,4.000000,4.000000,4.000000,4.000000,4.000000,4.000000,4.000000,100.000000,,,,,,,,,,,,,,,,,,,,,,,,,,,,,,,,,,,,,,,,,,,,,,,
1665770645.570850,1665770645.571018,19.000000,0.000000,4293.717773,4297.051270,4292.051270,4309.230957,4293.589844,4297.692383,4294.487305,4226.282227,4223.077148,4225.769043,4385.000000,4348.974121,4266.538574,4355.512695,0.000000,2.000000,54.000000,,,,0.000000,4.000000,4.000000,4.000000,4.000000,4.000000,4.000000,4.000000,4.000000,4.000000,4.000000,4.000000,4.000000,4.000000,4.000000,100.000000,,,,,,,,,,,,,,,,,,,,,,,,,,,,,,,,,,,,,,,,,,,,,,,
1665770645.578658,1665770645.578926,20.000000,0.000000,4296.282227,4302.692383,4295.641113,4314.230957,4297.948730,4298.717773,4295.384766,4228.461426,4230.000000,4237.436035,4397.563965,4349.743652,4279.743652,4365.256348,0.000000,2.000000,54.000000,,,,0.000000,4.000000,4.000000,4.000000,4.000000,4.000000,4.000000,4.000000,4.000000,4.000000,4.000000,4.000000,4.000000,4.000000,4.000000,100.000000,,,,,,,,,,,,,,,,,,,,,,,,,,,,,,,,,,,,,,,,,,,,,,,
1665770645.586467,1665770645.586734,21.000000,0.000000,4298.846191,4311.282227,4294.487305,4319.615234,4306.410156,4298.589844,4284.230957,4233.077148,4231.666504,4247.820313,4411.153809,4354.743652,4283.974121,4367.692383,0.000000,2.000000,54.000000,,,,0.000000,4.000000,4.000000,4.000000,4.000000,4.000000,4.000000,4.000000,4.000000,4.000000,4.000000,4.000000,4.000000,4.000000,4.000000,100.000000,,,,,,,,,,,,,,,,,,,,,,,,,,,,,,,,,,,,,,,,,,,,,,,
1665770645.594275,1665770645.594643,22.000000,0.000000,4302.692383,4312.307617,4295.000000,4325.000000,4308.846191,4294.615234,4279.487305,4241.794922,4230.256348,4247.820313,4413.589844,4358.333496,4280.384766,4363.717773,0.000000,2.000000,54.000000,,,,0.000000,4.000000,4.000000,4.000000,4.000000,4.000000,4.000000,4.000000,4.000000,4.000000,4.000000,4.000000,4.000000,4.000000,4.000000,100.000000,,,,,,,,,,,,,,,,,,,,,,,,,,,,,,,,,,,,,,,,,,,,,,,
1665770645.602084,1665770645.602451,23.000000,0.000000,4309.230957,4310.897461,4306.666504,4330.641113,4302.563965,4294.743652,4289.871582,4253.333496,4241.282227,4247.179688,4417.820313,4364.871582,4287.307617,4369.230957,0.000000,2.000000,54.000000,,,,0.000000,4.000000,4.000000,4.000000,4.000000,4.000000,4.000000,4.000000,4.000000,4.000000,4.000000,4.000000,4.000000,4.000000,4.000000,100.000000,,,,,,,,,,,,,,,,,,,,,,,,,,,,,,,,,,,,,,,,,,,,,,,
1665770645.609892,1665770645.610359,24.000000,0.000000,4313.846191,4312.179688,4316.538574,4331.025879,4295.897461,4294.487305,4295.384766,4264.230957,4252.692383,4256.153809,4428.077148,4375.000000,4296.410156,4381.410156,0.000000,2.000000,54.000000,,,,0.000000,4.000000,4.000000,4.000000,4.000000,4.000000,4.000000,4.000000,4.000000,4.000000,4.000000,4.000000,4.000000,4.000000,4.000000,100.000000,,,,,,,,,,,,,,,,,,,,,,,,,,,,,,,,,,,,,,,,,,,,,,,
1665770645.617700,1665770645.618168,25.000000,0.000000,4311.922852,4309.487305,4311.153809,4327.563965,4296.153809,4292.820313,4292.436035,4274.615234,4254.743652,4263.205078,4435.769043,4382.051270,4295.384766,4382.692383,0.000000,2.000000,54.000000,,,,0.000000,4.000000,4.000000,4.000000,4.000000,4.000000,4.000000,4.000000,4.000000,4.000000,4.000000,4.000000,4.000000,4.000000,4.000000,100.000000,,,,,,,,,,,,,,,,,,,,,,,,,,,,,,,,,,,,,,,,,,,,,,,
1665770645.625509,1665770645.626076,26.000000,0.000000,4304.615234,4302.563965,4305.769043,4326.922852,4301.922852,4299.871582,4295.000000,4283.461426,4261.794922,4264.871582,4442.948730,4384.487305,4295.384766,4377.948730,0.000000,2.000000,54.000000,,,,0.000000,4.000000,4.000000,4.000000,4.000000,4.000000,4.000000,4.000000,4.000000,4.000000,4.000000,4.000000,4.000000,4.000000,4.000000,100.000000,,,,,,,,,,,,,,,,,,,,,,,,,,,,,,,,,,,,,,,,,,,,,,,
1665770645.633317,1665770645.633885,27.000000,0.000000,4297.820313,4296.666504,4306.282227,4321.794922,4305.512695,4308.846191,4296.153809,4282.051270,4265.897461,4265.641113,4443.461426,4384.743652,4293.974121,4375.769043,0.000000,2.000000,54.000000,,,,0.000000,4.000000,4.000000,4.000000,4.000000,4.000000,4.000000,4.000000,4.000000,4.000000,4.000000,4.000000,4.000000,4.000000,4.000000,100.000000,,,,,,,,,,,,,,,,,,,,,,,,,,,,,,,,,,,,,,,,,,,,,,,
1665770645.641125,1665770645.641793,28.000000,0.000000,4292.179688,4294.230957,4299.743652,4312.436035,4303.974121,4308.077148,4292.307617,4269.615234,4251.538574,4255.897461,4430.256348,4379.743652,4284.358887,4366.282227,0.000000,2.000000,54.000000,,,,0.000000,4.000000,4.000000,4.000000,4.000000,4.000000,4.000000,4.000000,4.000000,4.000000,4.000000,4.000000,4.000000,4.000000,4.000000,100.000000,,,,,,,,,,,,,,,,,,,,,,,,,,,,,,,,,,,,,,,,,,,,,,,
1665770645.648934,1665770645.649602,29.000000,0.000000,4292.563965,4298.846191,4297.563965,4313.846191,4305.128418,4306.538574,4295.384766,4261.538574,4242.948730,4247.948730,4426.025879,4376.666504,4280.128418,4363.333496,0.000000,2.000000,54.000000,,,,0.000000,4.000000,4.000000,4.000000,4.000000,4.000000,4.000000,4.000000,4.000000,4.000000,4.000000,4.000000,4.000000,4.000000,4.000000,100.000000,1.000000,100.000000,4.000000,4.000000,4.000000,4.000000,4.000000,4.000000,4.000000,4.000000,4.000000,4.000000,4.000000,4.000000,4.000000,4.000000,1.000000,0.147366,-0.472969,-1.410627,0.711267,1.000000,0.048184,3.420134,2.970610,12.299853,0.314849,1.000000,0.418275,85.441406,-80.368004,301.656403,1.000000,0.697059,0.150272,0.085256,0.260020,1.000000,0.461851,6.687201,-4.387311,18.367332,1.000000,0.246485,0.246485,0.000000,1.000000
1665770645.656742,1665770645.657310,30.000000,0.000000,4304.871582,4312.948730,4308.974121,4324.230957,4311.153809,4311.282227,4302.820313,4262.051270,4249.615234,4257.948730,4438.717773,4382.307617,4291.410156,4383.461426,0.000000,2.000000,54.000000,,,,0.000000,4.000000,4.000000,4.000000,4.000000,4.000000,4.000000,4.000000,4.000000,4.000000,4.000000,4.000000,4.000000,4.000000,4.000000,100.000000,,,,,,,,,,,,,,,,,,,,,,,,,,,,,,,,,,,,,,,,,,,,,,,
1665770645.664551,1665770645.665119,31.000000,0.000000,4312.948730,4320.000000,4315.000000,4327.307617,4311.922852,4312.820313,4306.794922,4262.436035,4249.487305,4265.512695,4446.922852,4385.641113,4302.307617,4398.974121,0.000000,2.000000,54.000000,,,,0.000000,4.000000,4.000000,4.000000,4.000000,4.000000,4.000000,4.000000,4.000000,4.000000,4.000000,4.000000,4.000000,4.000000,4.000000,100.000000,,,,,,,,,,,,,,,,,,,,,,,,,,,,,,,,,,,,,,,,,,,,,,,
1665770645.672359,1665770645.672827,32.000000,0.000000,4312.948730,4316.410156,4314.487305,4326.538574,4307.948730,4308.974121,4307.563965,4267.307617,4250.897461,4262.948730,4452.307617,4384.743652,4307.307617,4397.436035,0.000000,2.000000,54.000000,,,,0.000000,4.000000,4.000000,4.000000,4.000000,4.000000,4.000000,4.000000,4.000000,4.000000,4.000000,4.000000,4.000000,4.000000,4.000000,100.000000,,,,,,,,,,,,,,,,,,,,,,,,,,,,,,,,,,,,,,,,,,,,,,,
1665770645.680167,1665770645.680735,33.000000,0.000000,4324.871582,4321.794922,4325.000000,4332.563965,4308.333496,4307.307617,4307.948730,4278.333496,4268.846191,4271.025879,4464.358887,4391.025879,4315.897461,4403.974121,0.000000,2.000000,54.000000,,,,0.000000,4.000000,4.000000,4.000000,4.000000,4.000000,4.000000,4.000000,4.000000,4.000000,4.000000,4.000000,4.000000,4.000000,4.000000,100.000000,,,,,,,,,,,,,,,,,,,,,,,,,,,,,,,,,,,,,,,,,,,,,,,
1665770645.687976,1665770645.688544,34.000000,0.000000,4335.641113,4329.743652,4335.897461,4337.179688,4310.128418,4309.230957,4311.666504,4287.051270,4281.794922,4283.333496,4469.102539,4394.615234,4323.205078,4412.948730,0.000000,2.000000,54.000000,,,,0.000000,4.000000,4.000000,4.000000,4.000000,4.000000,4.000000,4.000000,4.000000,4.000000,4.000000,4.000000,4.000000,4.000000,4.000000,100.000000,,,,,,,,,,,,,,,,,,,,,,,,,,,,,,,,,,,,,,,,,,,,,,,
1665770645.695784,1665770645.696352,35.000000,0.000000,4331.538574,4325.512695,4336.282227,4339.230957,4309.615234,4310.000000,4316.666504,4292.948730,4280.000000,4282.436035,4463.589844,4393.205078,4319.487305,4407.820313,0.000000,2.000000,54.000000,,,,0.000000,4.000000,4.000000,4.000000,4.000000,4.000000,4.000000,4.000000,4.000000,4.000000,4.000000,4.000000,4.000000,4.000000,4.000000,100.000000,,,,,,,,,,,,,,,,,,,,,,,,,,,,,,,,,,,,,,,,,,,,,,,
1665770645.703592,1665770645.704061,36.000000,0.000000,4331.666504,4325.128418,4335.512695,4342.820313,4310.000000,4310.128418,4316.922852,4292.436035,4278.205078,4279.615234,4462.307617,4395.000000,4312.692383,4404.743652,0.000000,2.000000,54.000000,,,,0.000000,4.000000,4.000000,4.000000,4.000000,4.000000,4.000000,4.000000,4.000000,4.000000,4.000000,4.000000,4.000000,4.000000,4.000000,100.000000,,,,,,,,,,,,,,,,,,,,,,,,,,,,,,,,,,,,,,,,,,,,,,,
1665770645.711401,1665770645.711869,37.000000,0.000000,4331.410156,4325.641113,4332.563965,4339.743652,4310.256348,4313.333496,4312.820313,4282.948730,4272.820313,4280.128418,4462.436035,4392.948730,4310.384766,4405.256348,0.000000,2.000000,54.000000,,,,0.000000,4.000000,4.000000,4.000000,4.000000,4.000000,4.000000,4.000000,4.000000,4.000000,4.000000,4.000000,4.000000,4.000000,4.000000,100.000000,,,,,,,,,,,,,,,,,,,,,,,,,,,,,,,,,,,,,,,,,,,,,,,
1665770645.719209,1665770645.719578,38.000000,0.000000,4319.102539,4313.846191,4324.743652,4333.077148,4309.230957,4318.846191,4310.769043,4277.307617,4262.692383,4277.948730,4457.436035,4385.897461,4310.256348,4397.692383,0.000000,2.000000,54.000000,,,,0.000000,4.000000,4.000000,4.000000,4.000000,4.000000,4.000000,4.000000,4.000000,4.000000,4.000000,4.000000,4.000000,4.000000,4.000000,100.000000,,,,,,,,,,,,,,,,,,,,,,,,,,,,,,,,,,,,,,,,,,,,,,,
1665770645.727018,1665770645.727486,39.000000,0.000000,4318.846191,4308.589844,4320.384766,4335.000000,4310.641113,4324.487305,4312.820313,4279.102539,4260.384766,4276.025879,4456.666504,4387.563965,4309.743652,4394.487305,0.000000,2.000000,54.000000,,,,0.000000,4.000000,4.000000,4.000000,4.000000,4.000000,4.000000,4.000000,4.000000,4.000000,4.000000,4.000000,4.000000,4.000000,4.000000,100.000000,,,,,,,,,,,,,,,,,,,,,,,,,,,,,,,,,,,,,,,,,,,,,,,
1665770645.734826,1665770645.735295,40.000000,0.000000,4326.922852,4313.461426,4318.974121,4335.000000,4310.384766,4323.461426,4312.051270,4277.436035,4262.307617,4277.436035,4458.846191,4392.692383,4310.897461,4398.205078,0.000000,2.000000,54.000000,,,,0.000000,4.000000,4.000000,4.000000,4.000000,4.000000,4.000000,4.000000,4.000000,4.000000,4.000000,4.000000,4.000000,4.000000,4.000000,100.000000,,,,,,,,,,,,,,,,,,,,,,,,,,,,,,,,,,,,,,,,,,,,,,,
1665770645.742634,1665770645.743103,41.000000,0.000000,4319.102539,4310.769043,4312.948730,4325.897461,4306.922852,4315.384766,4308.846191,4275.769043,4260.512695,4278.077148,4459.102539,4389.743652,4308.461426,4394.871582,0.000000,2.000000,54.000000,,,,0.000000,4.000000,4.000000,4.000000,4.000000,4.000000,4.000000,4.000000,4.000000,4.000000,4.000000,4.000000,4.000000,4.000000,4.000000,100.000000,,,,,,,,,,,,,,,,,,,,,,,,,,,,,,,,,,,,,,,,,,,,,,,
1665770645.750443,1665770645.750812,42.000000,0.000000,4307.307617,4304.743652,4306.538574,4323.974121,4306.282227,4311.666504,4308.974121,4277.692383,4262.051270,4275.897461,4457.563965,4388.461426,4303.461426,4387.307617,0.000000,2.000000,54.000000,,,,0.000000,4.000000,4.000000,4.000000,4.000000,4.000000,4.000000,4.000000,4.000000,4.000000,4.000000,4.000000,4.000000,4.000000,4.000000,100.000000,,,,,,,,,,,,,,,,,,,,,,,,,,,,,,,,,,,,,,,,,,,,,,,
1665770645.758251,1665770645.758720,43.000000,0.000000,4307.948730,4305.641113,4307.820313,4331.153809,4307.948730,4313.461426,4310.256348,4281.153809,4264.871582,4276.538574,4459.871582,4392.820313,4308.846191,4386.282227,0.000000,2.000000,54.000000,,,,0.000000,4.000000,4.000000,4.000000,4.000000,4.000000,4.000000,4.000000,4.000000,4.000000,4.000000,4.000000,4.000000,4.000000,4.000000,100.000000,,,,,,,,,,,,,,,,,,,,,,,,,,,,,,,,,,,,,,,,,,,,,,,
1665770645.766060,1665770645.766528,44.000000,0.000000,4314.743652,4312.436035,4314.358887,4334.743652,4311.153809,4311.538574,4313.846191,4288.205078,4265.897461,4281.282227,4468.333496,4398.717773,4321.025879,4393.974121,0.000000,2.000000,54.000000,,,,0.000000,4.000000,4.000000,4.000000,4.000000,4.000000,4.000000,4.000000,4.000000,4.000000,4.000000,4.000000,4.000000,4.000000,4.000000,100.000000,,,,,,,,,,,,,,,,,,,,,,,,,,,,,,,,,,,,,,,,,,,,,,,
1665770645.773868,1665770645.774437,45.000000,0.000000,4319.487305,4315.641113,4321.538574,4336.025879,4316.025879,4309.743652,4321.025879,4294.102539,4270.000000,4283.205078,4475.512695,4403.077148,4325.256348,4402.820313,0.000000,2.000000,54.000000,,,,0.000000,4.000000,4.000000,4.000000,4.000000,4.000000,4.000000,4.000000,4.000000,4.000000,4.000000,4.000000,4.000000,4.000000,4.000000,100.000000,,,,,,,,,,,,,,,,,,,,,,,,,,,,,,,,,,,,,,,,,,,,,,,
1665770645.781676,1665770645.782245,46.000000,0.000000,4321.922852,4315.128418,4329.102539,4341.922852,4319.358887,4312.051270,4326.538574,4295.384766,4270.000000,4282.436035,4477.563965,4403.333496,4321.666504,4407.563965,0.000000,2.000000,54.000000,,,,0.000000,4.000000,4.000000,4.000000,4.000000,4.000000,4.000000,4.000000,4.000000,4.000000,4.000000,4.000000,4.000000,4.000000,4.000000,100.000000,,,,,,,,,,,,,,,,,,,,,,,,,,,,,,,,,,,,,,,,,,,,,,,
1665770645.789485,1665770645.790154,47.000000,0.000000,4323.589844,4316.025879,4333.333496,4345.384766,4319.230957,4312.820313,4326.025879,4290.256348,4266.410156,4282.051270,4477.948730,4402.948730,4317.692383,4409.487305,0.000000,2.000000,54.000000,,,,0.000000,4.000000,4.000000,4.000000,4.000000,4.000000,4.000000,4.000000,4.000000,4.000000,4.000000,4.000000,4.000000,4.000000,4.000000,100.000000,,,,,,,,,,,,,,,,,,,,,,,,,,,,,,,,,,,,,,,,,,,,,,,
1665770645.797293,1665770645.797962,48.000000,0.000000,4325.641113,4318.205078,4329.871582,4342.307617,4320.000000,4313.846191,4319.615234,4285.256348,4266.922852,4281.025879,4473.589844,4399.487305,4314.615234,4408.846191,0.000000,2.000000,54.000000,,,,0.000000,4.000000,4.000000,4.000000,4.000000,4.000000,4.000000,4.000000,4.000000,4.000000,4.000000,4.000000,4.000000,4.000000,4.000000,100.000000,,,,,,,,,,,,,,,,,,,,,,,,,,,,,,,,,,,,,,,,,,,,,,,
1665770645.805102,1665770645.805870,49.000000,0.000000,4325.512695,4322.692383,4324.487305,4340.384766,4320.256348,4317.307617,4313.846191,4278.974121,4260.897461,4276.410156,4463.717773,4390.256348,4310.512695,4404.102539,0.000000,2.000000,54.000000,,,,0.000000,4.000000,4.000000,4.000000,4.000000,4.000000,4.000000,4.000000,4.000000,4.000000,4.000000,4.000000,4.000000,4.000000,4.000000,100.000000,,,,,,,,,,,,,,,,,,,,,,,,,,,,,,,,,,,,,,,,,,,,,,,
1665770645.812910,1665770645.813679,50.000000,0.000000,4327.179688,4325.897461,4327.563965,4343.077148,4319.487305,4322.051270,4312.948730,4267.820313,4250.512695,4273.461426,4457.692383,4387.820313,4310.512695,4403.077148,0.000000,2.000000,54.000000,,,,0.000000,4.000000,4.000000,4.000000,4.000000,4.000000,4.000000,4.000000,4.000000,4.000000,4.000000,4.000000,4.000000,4.000000,4.000000,100.000000,,,,,,,,,,,,,,,,,,,,,,,,,,,,,,,,,,,,,,,,,,,,,,,
1665770645.820718,1665770645.821587,51.000000,0.000000,4332.179688,4320.512695,4329.871582,4344.230957,4319.871582,4326.410156,4313.974121,4264.871582,4252.692383,4275.512695,4463.205078,4394.358887,4319.358887,4407.692383,0.000000,2.000000,54.000000,,,,0.000000,4.000000,4.000000,4.000000,4.000000,4.000000,4.000000,4.000000,4.000000,4.000000,4.000000,4.000000,4.000000,4.000000,4.000000,100.000000,,,,,,,,,,,,,,,,,,,,,,,,,,,,,,,,,,,,,,,,,,,,,,,
1665770645.828527,1665770645.829396,52.000000,0.000000,4324.743652,4310.384766,4318.589844,4338.589844,4316.153809,4330.000000,4315.256348,4274.743652,4264.230957,4283.974121,4471.025879,4391.153809,4327.692383,4403.846191,0.000000,2.000000,54.000000,,,,0.000000,4.000000,4.000000,4.000000,4.000000,4.000000,4.000000,4.000000,4.000000,4.000000,4.000000,4.000000,4.000000,4.000000,4.000000,100.000000,,,,,,,,,,,,,,,,,,,,,,,,,,,,,,,,,,,,,,,,,,,,,,,
1665770645.836335,1665770645.837304,53.000000,0.000000,4312.948730,4308.717773,4309.487305,4331.025879,4311.282227,4329.230957,4317.307617,4282.692383,4270.128418,4290.641113,4474.743652,4387.948730,4328.077148,4397.179688,0.000000,2.000000,54.000000,,,,0.000000,4.000000,4.000000,4.000000,4.000000,4.000000,4.000000,4.000000,4.000000,4.000000,4.000000,4.000000,4.000000,4.000000,4.000000,100.000000,,,,,,,,,,,,,,,,,,,,,,,,,,,,,,,,,,,,,,,,,,,,,,,
1665770645.844144,1665770645.845112,54.000000,0.000000,4311.153809,4309.487305,4308.077148,4329.615234,4311.153809,4320.256348,4316.410156,4280.256348,4270.000000,4286.025879,4474.615234,4395.512695,4325.256348,4395.384766,0.000000,2.000000,54.000000,,,,0.000000,4.000000,4.000000,4.000000,4.000000,4.000000,4.000000,4.000000,4.000000,4.000000,4.000000,4.000000,4.000000,4.000000,4.000000,100.000000,,,,,,,,,,,,,,,,,,,,,,,,,,,,,,,,,,,,,,,,,,,,,,,
1665770645.851952,1665770645.852821,55.000000,0.000000,4311.794922,4304.871582,4307.051270,4330.897461,4312.820313,4310.384766,4310.897461,4280.512695,4266.794922,4281.922852,4470.000000,4396.153809,4321.410156,4398.461426,0.000000,2.000000,54.000000,,,,0.000000,4.000000,4.000000,4.000000,4.000000,4.000000,4.000000,4.000000,4.000000,4.000000,4.000000,4.000000,4.000000,4.000000,4.000000,100.000000,,,,,,,,,,,,,,,,,,,,,,,,,,,,,,,,,,,,,,,,,,,,,,,
1665770645.859760,1665770645.860629,56.000000,0.000000,4317.563965,4310.384766,4318.333496,4338.589844,4316.538574,4312.436035,4313.205078,4286.666504,4265.897461,4290.128418,4475.256348,4397.692383,4325.641113,4408.717773,0.000000,2.000000,54.000000,,,,0.000000,4.000000,4.000000,4.000000,4.000000,4.000000,4.000000,4.000000,4.000000,4.000000,4.000000,4.000000,4.000000,4.000000,4.000000,100.000000,,,,,,,,,,,,,,,,,,,,,,,,,,,,,,,,,,,,,,,,,,,,,,,
1665770645.867569,1665770645.868338,57.000000,0.000000,4331.666504,4324.871582,4335.000000,4349.615234,4323.077148,4321.666504,4321.025879,4285.512695,4267.948730,4297.179688,4486.794922,4408.333496,4336.410156,4416.794922,0.000000,2.000000,54.000000,,,,0.000000,4.000000,4.000000,4.000000,4.000000,4.000000,4.000000,4.000000,4.000000,4.000000,4.000000,4.000000,4.000000,4.000000,4.000000,100.000000,,,,,,,,,,,,,,,,,,,,,,,,,,,,,,,,,,,,,,,,,,,,,,,
1665770645.875377,1665770645.876246,58.000000,0.000000,4331.922852,4326.025879,4331.666504,4349.487305,4327.179688,4321.666504,4318.077148,4274.871582,4263.461426,4291.794922,4485.128418,4408.205078,4333.846191,4411.025879,0.000000,2.000000,54.000000,,,,0.000000,4.000000,4.000000,4.000000,4.000000,4.000000,4.000000,4.000000,4.000000,4.000000,4.000000,4.000000,4.000000,4.000000,4.000000,100.000000,,,,,,,,,,,,,,,,,,,,,,,,,,,,,,,,,,,,,,,,,,,,,,,
1665770645.883186,1665770645.884055,59.000000,0.000000,4318.717773,4314.230957,4322.051270,4342.436035,4326.282227,4320.384766,4314.358887,4271.025879,4259.102539,4291.153809,4481.538574,4402.436035,4329.102539,4404.615234,0.000000,2.000000,54.000000,,,,0.000000,4.000000,4.000000,4.000000,4.000000,4.000000,4.000000,4.000000,4.000000,4.000000,4.000000,4.000000,4.000000,4.000000,4.000000,100.000000,,,,,,,,,,,,,,,,,,,,,,,,,,,,,,,,,,,,,,,,,,,,,,,
1665770645.890994,1665770645.891963,60.000000,0.000000,4317.051270,4310.641113,4327.820313,4342.307617,4324.871582,4325.000000,4320.769043,4278.333496,4262.563965,4297.051270,4487.948730,4409.230957,4331.282227,4409.487305,0.000000,2.000000,54.000000,,,,0.000000,4.000000,4.000000,4.000000,4.000000,4.000000,4.000000,4.000000,4.000000,4.000000,4.000000,4.000000,4.000000,4.000000,4.000000,100.000000,,,,,,,,,,,,,,,,,,,,,,,,,,,,,,,,,,,,,,,,,,,,,,,
1665770645.898802,1665770645.899772,61.000000,0.000000,4323.589844,4314.358887,4332.179688,4343.589844,4323.974121,4327.051270,4327.307617,4287.692383,4265.256348,4293.205078,4489.230957,4413.077148,4326.025879,4411.410156,0.000000,2.000000,54.000000,,,,0.000000,4.000000,4.000000,4.000000,4.000000,4.000000,4.000000,4.000000,4.000000,4.000000,4.000000,4.000000,4.000000,4.000000,4.000000,100.000000,,,,,,,,,,,,,,,,,,,,,,,,,,,,,,,,,,,,,,,,,,,,,,,
1665770645.906611,1665770645.907580,62.000000,0.000000,4325.897461,4311.410156,4329.230957,4340.769043,4321.538574,4328.461426,4329.102539,4293.846191,4266.153809,4288.461426,4487.692383,4408.589844,4327.948730,4417.436035,0.000000,2.000000,54.000000,,,,0.000000,4.000000,4.000000,4.000000,4.000000,4.000000,4.000000,4.000000,4.000000,4.000000,4.000000,4.000000,4.000000,4.000000,4.000000,100.000000,,,,,,,,,,,,,,,,,,,,,,,,,,,,,,,,,,,,,,,,,,,,,,,
1665770645.914419,1665770645.915288,63.000000,0.000000,4322.051270,4308.461426,4325.641113,4340.897461,4313.974121,4322.820313,4326.666504,4289.358887,4265.897461,4287.692383,4491.153809,4408.846191,4339.871582,4424.487305,0.000000,2.000000,54.000000,,,,0.000000,4.000000,4.000000,4.000000,4.000000,4.000000,4.000000,4.000000,4.000000,4.000000,4.000000,4.000000,4.000000,4.000000,4.000000,100.000000,,,,,,,,,,,,,,,,,,,,,,,,,,,,,,,,,,,,,,,,,,,,,,,
1665770645.922228,1665770645.923097,64.000000,0.000000,4317.563965,4309.743652,4321.794922,4339.102539,4306.794922,4311.282227,4318.846191,4279.615234,4265.128418,4288.461426,4487.051270,4406.922852,4340.512695,4418.333496,2441.000000,2.000000,54.000000,,,,0.000000,4.000000,4.000000,4.000000,4.000000,4.000000,4.000000,4.000000,4.000000,4.000000,4.000000,4.000000,4.000000,4.000000,4.000000,100.000000,,,,,,,,,,,,,,,,,,,,,,,,,,,,,,,,,,,,,,,,,,,,,,,
1665770645.930036,1665770645.930805,65.000000,0.000000,4321.794922,4312.307617,4323.077148,4338.589844,4310.769043,4316.282227,4321.282227,4282.563965,4270.897461,4295.641113,4490.128418,4401.794922,4344.487305,4416.794922,2144.000000,2.000000,54.000000,,,,0.000000,4.000000,4.000000,4.000000,4.000000,4.000000,4.000000,4.000000,4.000000,4.000000,4.000000,4.000000,4.000000,4.000000,4.000000,100.000000,,,,,,,,,,,,,,,,,,,,,,,,,,,,,,,,,,,,,,,,,,,,,,,
1665770645.937844,1665770645.938614,66.000000,0.000000,4325.641113,4309.871582,4325.769043,4341.538574,4320.769043,4329.743652,4332.692383,4288.717773,4281.794922,4310.128418,4503.461426,4401.282227,4362.692383,4426.153809,2359.000000,2.000000,54.000000,,,,0.000000,4.000000,4.000000,4.000000,4.000000,4.000000,4.000000,4.000000,4.000000,4.000000,4.000000,4.000000,4.000000,4.000000,4.000000,100.000000,,,,,,,,,,,,,,,,,,,,,,,,,,,,,,,,,,,,,,,,,,,,,,,
1665770645.945653,1665770645.946322,67.000000,0.000000,4326.025879,4300.769043,4326.153809,4340.256348,4325.128418,4327.051270,4330.897461,4285.128418,4282.692383,4318.846191,4510.000000,4403.974121,4375.384766,4432.307617,2369.000000,2.000000,54.000000,,,,0.000000,4.000000,4.000000,4.000000,4.000000,4.000000,4.000000,4.000000,4.000000,4.000000,4.000000,4.000000,4.000000,4.000000,4.000000,100.000000,,,,,,,,,,,,,,,,,,,,,,,,,,,,,,,,,,,,,,,,,,,,,,,
1665770645.953461,1665770645.954131,68.000000,0.000000,4335.000000,4299.615234,4332.436035,4343.461426,4329.358887,4325.641113,4328.717773,4287.179688,4279.358887,4325.384766,4522.820313,4409.487305,4388.846191,4441.666504,2369.000000,2.000000,54.000000,,,,0.000000,4.000000,4.000000,4.000000,4.000000,4.000000,4.000000,4.000000,4.000000,4.000000,4.000000,4.000000,4.000000,4.000000,4.000000,100.000000,,,,,,,,,,,,,,,,,,,,,,,,,,,,,,,,,,,,,,,,,,,,,,,
1665770645.961269,1665770645.961839,69.000000,0.000000,4345.769043,4305.769043,4346.282227,4353.589844,4334.743652,4334.615234,4338.717773,4297.692383,4285.641113,4335.897461,4541.538574,4420.000000,4408.974121,4459.230957,2383.000000,2.000000,54.000000,,,,0.000000,4.000000,4.000000,4.000000,4.000000,4.000000,4.000000,4.000000,4.000000,4.000000,4.000000,4.000000,4.000000,4.000000,4.000000,100.000000,,,,,,,,,,,,,,,,,,,,,,,,,,,,,,,,,,,,,,,,,,,,,,,
1665770645.969078,1665770645.969648,70.000000,0.000000,4345.641113,4303.846191,4351.410156,4352.051270,4332.179688,4333.717773,4338.589844,4299.102539,4288.077148,4336.025879,4545.256348,4428.461426,4419.230957,4465.384766,2224.000000,2.000000,54.000000,,,,0.000000,4.000000,4.000000,4.000000,4.000000,4.000000,4.000000,4.000000,4.000000,4.000000,4.000000,4.000000,4.000000,4.000000,4.000000,100.000000,,,,,,,,,,,,,,,,,,,,,,,,,,,,,,,,,,,,,,,,,,,,,,,
1665770645.976886,1665770645.977356,71.000000,0.000000,4341.922852,4295.384766,4348.333496,4343.461426,4328.333496,4331.666504,4328.846191,4295.128418,4281.538574,4328.205078,4539.743652,4426.922852,4415.000000,4456.538574,2398.000000,2.000000,54.000000,,,,0.000000,4.000000,4.000000,4.000000,4.000000,4.000000,4.000000,4.000000,4.000000,4.000000,4.000000,4.000000,4.000000,4.000000,4.000000,100.000000,,,,,,,,,,,,,,,,,,,,,,,,,,,,,,,,,,,,,,,,,,,,,,,
1665770645.984695,1665770645.985265,72.000000,0.000000,4335.128418,4287.179688,4343.717773,4340.769043,4327.563965,4336.153809,4325.000000,4292.692383,4277.179688,4322.820313,4538.077148,4426.153809,4401.794922,4447.692383,2274.000000,2.000000,54.000000,,,,0.000000,4.000000,4.000000,4.000000,4.000000,4.000000,4.000000,4.000000,4.000000,4.000000,4.000000,4.000000,4.000000,4.000000,4.000000,100.000000,,,,,,,,,,,,,,,,,,,,,,,,,,,,,,,,,,,,,,,,,,,,,,,
1665770645.992503,1665770645.993073,73.000000,0.000000,4321.538574,4280.769043,4334.871582,4332.948730,4321.794922,4335.256348,4326.666504,4293.846191,4278.589844,4319.358887,4533.974121,4427.820313,4395.641113,4441.922852,2368.000000,2.000000,54.000000,,,,0.000000,4.000000,4.000000,4.000000,4.000000,4.000000,4.000000,4.000000,4.000000,4.000000,4.000000,4.000000,4.000000,4.000000,4.000000,100.000000,,,,,,,,,,,,,,,,,,,,,,,,,,,,,,,,,,,,,,,,,,,,,,,
1665770646.000311,1665770646.000982,74.000000,0.000000,4316.410156,4274.871582,4332.051270,4324.230957,4317.179688,4336.922852,4332.307617,4302.948730,4287.692383,4321.153809,4532.820313,4428.077148,4405.384766,4445.641113,2713.000000,2.000000,54.000000,,,,0.000000,4.000000,4.000000,4.000000,4.000000,4.000000,4.000000,4.000000,4.000000,4.000000,4.000000,4.000000,4.000000,4.000000,4.000000,100.000000,,,,,,,,,,,,,,,,,,,,,,,,,,,,,,,,,,,,,,,,,,,,,,,
1665770646.008120,1665770646.008790,75.000000,0.000000,4320.128418,4267.692383,4332.820313,4323.846191,4318.846191,4338.461426,4336.538574,4313.589844,4297.563965,4327.436035,4539.487305,4428.717773,4415.512695,4456.025879,2287.000000,2.000000,54.000000,,,,0.000000,4.000000,4.000000,4.000000,4.000000,4.000000,4.000000,4.000000,4.000000,4.000000,4.000000,4.000000,4.000000,4.000000,4.000000,100.000000,,,,,,,,,,,,,,,,,,,,,,,,,,,,,,,,,,,,,,,,,,,,,,,
1665770646.015928,1665770646.016698,76.000000,0.000000,4317.948730,4263.333496,4327.307617,4320.897461,4315.128418,4329.871582,4335.256348,4312.820313,4296.410156,4326.410156,4540.769043,4430.641113,4416.666504,4460.128418,3036.000000,2.000000,54.000000,,,,0.000000,4.000000,4.000000,4.000000,4.000000,4.000000,4.000000,4.000000,4.000000,4.000000,4.000000,4.000000,4.000000,4.000000,4.000000,100.000000,,,,,,,,,,,,,,,,,,,,,,,,,,,,,,,,,,,,,,,,,,,,,,,
1665770646.023736,1665770646.024507,77.000000,0.000000,4315.641113,4265.256348,4322.179688,4316.794922,4308.205078,4323.461426,4332.820313,4304.871582,4293.589844,4321.794922,4539.102539,4426.538574,4419.615234,4457.820313,1220.000000,2.000000,54.000000,,,,0.000000,4.000000,4.000000,4.000000,4.000000,4.000000,4.000000,4.000000,4.000000,4.000000,4.000000,4.000000,4.000000,4.000000,4.000000,100.000000,,,,,,,,,,,,,,,,,,,,,,,,,,,,,,,,,,,,,,,,,,,,,,,
1665770646.031545,1665770646.032415,78.000000,0.000000,4323.077148,4264.743652,4325.512695,4319.230957,4307.948730,4325.128418,4329.615234,4299.102539,4294.358887,4323.461426,4546.282227,4422.692383,4436.538574,4463.077148,2713.000000,2.000000,54.000000,,,,0.000000,4.000000,4.000000,4.000000,4.000000,4.000000,4.000000,4.000000,4.000000,4.000000,4.000000,4.000000,4.000000,4.000000,4.000000,100.000000,,,,,,,,,,,,,,,,,,,,,,,,,,,,,,,,,,,,,,,,,,,,,,,
1665770646.039353,1665770646.040224,79.000000,0.000000,4327.436035,4263.205078,4330.512695,4319.871582,4309.358887,4324.230957,4325.384766,4292.692383,4287.179688,4326.153809,4555.897461,4425.256348,4453.205078,4473.461426,2287.000000,2.000000,54.000000,,,,0.000000,4.000000,4.000000,4.000000,4.000000,4.000000,4.000000,4.000000,4.000000,4.000000,4.000000,4.000000,4.000000,4.000000,4.000000,100.000000,,,,,,,,,,,,,,,,,,,,,,,,,,,,,,,,,,,,,,,,,,,,,,,
1665770646.047162,1665770646.047932,80.000000,0.000000,4323.846191,4261.538574,4336.666504,4320.641113,4308.589844,4321.794922,4328.333496,4288.205078,4283.077148,4333.333496,4561.538574,4430.256348,4461.025879,4477.436035,3036.000000,2.000000,54.000000,,,,0.000000,4.000000,4.000000,4.000000,4.000000,4.000000,4.000000,4.000000,4.000000,4.000000,4.000000,4.000000,4.000000,4.000000,4.000000,100.000000,,,,,,,,,,,,,,,,,,,,,,,,,,,,,,,,,,,,,,,,,,,,,,,
1665770646.054970,1665770646.055741,81.000000,0.000000,4326.538574,4255.256348,4343.461426,4326.666504,4308.589844,4324.487305,4336.410156,4296.538574,4295.256348,4347.820313,4576.538574,4435.512695,4471.922852,4482.179688,1220.000000,2.000000,54.000000,,,,0.000000,4.000000,4.000000,4.000000,4.000000,4.000000,4.000000,4.000000,4.000000,4.000000,4.000000,4.000000,4.000000,4.000000,4.000000,100.000000,,,,,,,,,,,,,,,,,,,,,,,,,,,,,,,,,,,,,,,,,,,,,,,
1665770646.062778,1665770646.063449,82.000000,0.000000,4325.256348,4250.384766,4338.461426,4324.230957,4309.358887,4332.692383,4337.692383,4306.025879,4304.487305,4354.102539,4587.179688,4435.384766,4482.436035,4481.410156,2713.000000,2.000000,54.000000,,,,0.000000,4.000000,4.000000,4.000000,4.000000,4.000000,4.000000,4.000000,4.000000,4.000000,4.000000,4.000000,4.000000,4.000000,4.000000,100.000000,,,,,,,,,,,,,,,,,,,,,,,,,,,,,,,,,,,,,,,,,,,,,,,
1665770646.070587,1665770646.071258,83.000000,0.000000,4305.512695,4239.102539,4326.538574,4313.974121,4309.487305,4341.794922,4336.282227,4304.102539,4303.333496,4351.282227,4574.358887,4428.205078,4477.820313,4464.743652,2287.000000,2.000000,54.000000,,,,0.000000,4.000000,4.000000,4.000000,4.000000,4.000000,4.000000,4.000000,4.000000,4.000000,4.000000,4.000000,4.000000,4.000000,4.000000,100.000000,,,,,,,,,,,,,,,,,,,,,,,,,,,,,,,,,,,,,,,,,,,,,,,
1665770646.078395,1665770646.078966,84.000000,0.000000,4291.538574,4219.615234,4319.102539,4309.358887,4308.589844,4343.205078,4340.384766,4305.769043,4305.384766,4349.871582,4562.179688,4428.077148,4469.871582,4453.333496,3036.000000,2.000000,54.000000,,,,0.000000,4.000000,4.000000,4.000000,4.000000,4.000000,4.000000,4.000000,4.000000,4.000000,4.000000,4.000000,4.000000,4.000000,4.000000,100.000000,,,,,,,,,,,,,,,,,,,,,,,,,,,,,,,,,,,,,,,,,,,,,,,
1665770646.086203,1665770646.086775,85.000000,0.000000,4294.871582,4213.589844,4319.230957,4307.820313,4310.128418,4342.436035,4345.641113,4318.846191,4311.282227,4350.512695,4572.820313,4438.205078,4477.051270,4462.179688,1220.000000,2.000000,54.000000,,,,0.000000,4.000000,4.000000,4.000000,4.000000,4.000000,4.000000,4.000000,4.000000,4.000000,4.000000,4.000000,4.000000,4.000000,4.000000,100.000000,,,,,,,,,,,,,,,,,,,,,,,,,,,,,,,,,,,,,,,,,,,,,,,
1665770646.094012,1665770646.094483,86.000000,0.000000,4290.769043,4216.282227,4319.102539,4301.025879,4309.230957,4344.102539,4345.641113,4326.922852,4312.436035,4352.692383,4589.871582,4445.000000,4492.179688,4473.461426,2713.000000,2.000000,54.000000,,,,0.000000,4.000000,4.000000,4.000000,4.000000,4.000000,4.000000,4.000000,4.000000,4.000000,4.000000,4.000000,4.000000,4.000000,4.000000,100.000000,,,,,,,,,,,,,,,,,,,,,,,,,,,,,,,,,,,,,,,,,,,,,,,
1665770646.101820,1665770646.102292,87.000000,0.000000,4277.948730,4205.641113,4311.666504,4293.846191,4302.820313,4336.025879,4342.051270,4326.282227,4310.384766,4356.922852,4594.102539,4444.615234,4501.922852,4472.307617,2287.000000,2.000000,54.000000,,,,0.000000,4.000000,4.000000,4.000000,4.000000,4.000000,4.000000,4.000000,4.000000,4.000000,4.000000,4.000000,4.000000,4.000000,4.000000,100.000000,,,,,,,,,,,,,,,,,,,,,,,,,,,,,,,,,,,,,,,,,,,,,,,
1665770646.109629,1665770646.110000,88.000000,0.000000,4276.666504,4197.692383,4307.307617,4292.820313,4298.717773,4326.922852,4336.410156,4323.846191,4309.230957,4360.384766,4593.333496,4440.897461,4505.641113,4468.846191,3036.000000,2.000000,54.000000,,,,0.000000,4.000000,4.000000,4.000000,4.000000,4.000000,4.000000,4.000000,4.000000,4.000000,4.000000,4.000000,4.000000,4.000000,4.000000,100.000000,,,,,,,,,,,,,,,,,,,,,,,,,,,,,,,,,,,,,,,,,,,,,,,
