title:Psychopy_Kevin_Earphones_Closed, start timestamp:1665772171.582899, stop timestamp:1665772232.605479, headset type:EPOCX, headset serial:E2020A42, headset firmware:720, channels:86, sampling rate:eeg_128;pm_2, samples:7816      , version:2.1, 
Timestamp,OriginalTimestamp,EEG.Counter,EEG.Interpolated,EEG.AF3,EEG.F7,EEG.F3,EEG.FC5,EEG.T7,EEG.P7,EEG.O1,EEG.O2,EEG.P8,EEG.T8,EEG.FC6,EEG.F4,EEG.F8,EEG.AF4,EEG.RawCq,EEG.Battery,EEG.BatteryPercent,MarkerIndex,MarkerType,MarkerValueInt,EEG.MarkerHardware,CQ.AF3,CQ.F7,CQ.F3,CQ.FC5,CQ.T7,CQ.P7,CQ.O1,CQ.O2,CQ.P8,CQ.T8,CQ.FC6,CQ.F4,CQ.F8,CQ.AF4,CQ.Overall,EQ.SampleRateQuality,EQ.OVERALL,EQ.AF3,EQ.F7,EQ.F3,EQ.FC5,EQ.T7,EQ.P7,EQ.O1,EQ.O2,EQ.P8,EQ.T8,EQ.FC6,EQ.F4,EQ.F8,EQ.AF4,PM.Engagement.IsActive,PM.Engagement.Scaled,PM.Engagement.Raw,PM.Engagement.Min,PM.Engagement.Max,PM.Excitement.IsActive,PM.Excitement.Scaled,PM.Excitement.Raw,PM.Excitement.Min,PM.Excitement.Max,PM.LongTermExcitement,PM.Stress.IsActive,PM.Stress.Scaled,PM.Stress.Raw,PM.Stress.Min,PM.Stress.Max,PM.Relaxation.IsActive,PM.Relaxation.Scaled,PM.Relaxation.Raw,PM.Relaxation.Min,PM.Relaxation.Max,PM.Interest.IsActive,PM.Interest.Scaled,PM.Interest.Raw,PM.Interest.Min,PM.Interest.Max,PM.Focus.IsActive,PM.Focus.Scaled,PM.Focus.Raw,PM.Focus.Min,PM.Focus.Max
1665772171.582899,1665772171.583217,123.000000,0.000000,4278.205078,4277.692383,4300.769043,4281.538574,4300.256348,4296.153809,4297.820313,4324.487305,4307.436035,4290.769043,4480.512695,4488.589844,4359.102539,4406.153809,2555.000000,2.000000,52.000000,,,,0.000000,4.000000,4.000000,4.000000,4.000000,4.000000,4.000000,4.000000,4.000000,4.000000,4.000000,4.000000,4.000000,4.000000,4.000000,100.000000,,,,,,,,,,,,,,,,,,,,,,,,,,,,,,,,,,,,,,,,,,,,,,,
1665772171.590708,1665772171.591126,124.000000,0.000000,4288.846191,4281.410156,4305.384766,4285.000000,4301.410156,4295.897461,4301.794922,4329.230957,4317.051270,4291.410156,4488.205078,4495.128418,4363.333496,4414.743652,2740.000000,2.000000,52.000000,,,,0.000000,4.000000,4.000000,4.000000,4.000000,4.000000,4.000000,4.000000,4.000000,4.000000,4.000000,4.000000,4.000000,4.000000,4.000000,100.000000,,,,,,,,,,,,,,,,,,,,,,,,,,,,,,,,,,,,,,,,,,,,,,,
1665772171.598516,1665772171.598934,125.000000,0.000000,4296.153809,4291.153809,4306.922852,4284.230957,4297.692383,4296.410156,4299.230957,4321.025879,4307.563965,4285.769043,4481.282227,4495.769043,4360.897461,4412.051270,3361.000000,2.000000,52.000000,,,,0.000000,4.000000,4.000000,4.000000,4.000000,4.000000,4.000000,4.000000,4.000000,4.000000,4.000000,4.000000,4.000000,4.000000,4.000000,100.000000,,,,,,,,,,,,,,,,,,,,,,,,,,,,,,,,,,,,,,,,,,,,,,,
1665772171.606324,1665772171.606843,126.000000,0.000000,4293.974121,4295.897461,4305.512695,4281.153809,4293.717773,4289.230957,4290.897461,4300.641113,4287.820313,4272.820313,4465.384766,4488.846191,4356.922852,4408.717773,2568.000000,2.000000,52.000000,,,,0.000000,4.000000,4.000000,4.000000,4.000000,4.000000,4.000000,4.000000,4.000000,4.000000,4.000000,4.000000,4.000000,4.000000,4.000000,100.000000,,,,,,,,,,,,,,,,,,,,,,,,,,,,,,,,,,,,,,,,,,,,,,,
1665772171.614133,1665772171.614651,127.000000,0.000000,4295.641113,4291.922852,4307.307617,4282.436035,4290.897461,4287.563965,4285.641113,4286.794922,4277.692383,4261.025879,4463.205078,4484.230957,4356.666504,4410.769043,52.000000,2.000000,52.000000,,,,0.000000,4.000000,4.000000,4.000000,4.000000,4.000000,4.000000,4.000000,4.000000,4.000000,4.000000,4.000000,4.000000,4.000000,4.000000,100.000000,,,,,,,,,,,,,,,,,,,,,,,,,,,,,,,,,,,,,,,,,,,,,,,
1665772171.621941,1665772171.622360,0.000000,0.000000,4301.538574,4289.871582,4311.282227,4282.307617,4293.077148,4293.717773,4286.922852,4282.692383,4277.820313,4261.666504,4466.922852,4488.333496,4357.820313,4411.794922,2059.000000,2.000000,52.000000,,,,0.000000,4.000000,4.000000,4.000000,4.000000,4.000000,4.000000,4.000000,4.000000,4.000000,4.000000,4.000000,4.000000,4.000000,4.000000,100.000000,,,,,,,,,,,,,,,,,,,,,,,,,,,,,,,,,,,,,,,,,,,,,,,
1665772171.629749,1665772171.630168,1.000000,0.000000,4299.871582,4287.563965,4307.436035,4277.563965,4292.948730,4290.384766,4287.436035,4278.077148,4277.307617,4264.102539,4461.153809,4486.410156,4355.000000,4409.230957,2147.000000,2.000000,52.000000,,,,0.000000,4.000000,4.000000,4.000000,4.000000,4.000000,4.000000,4.000000,4.000000,4.000000,4.000000,4.000000,4.000000,4.000000,4.000000,100.000000,,,,,,,,,,,,,,,,,,,,,,,,,,,,,,,,,,,,,,,,,,,,,,,
1665772171.637558,1665772171.637877,2.000000,0.000000,4295.897461,4282.307617,4305.256348,4279.230957,4284.615234,4285.641113,4287.948730,4278.205078,4276.025879,4261.922852,4462.948730,4482.179688,4358.846191,4409.102539,2284.000000,2.000000,52.000000,,,,0.000000,4.000000,4.000000,4.000000,4.000000,4.000000,4.000000,4.000000,4.000000,4.000000,4.000000,4.000000,4.000000,4.000000,4.000000,100.000000,,,,,,,,,,,,,,,,,,,,,,,,,,,,,,,,,,,,,,,,,,,,,,,
1665772171.645366,1665772171.645685,3.000000,0.000000,4294.230957,4278.717773,4306.153809,4278.333496,4278.717773,4288.846191,4286.794922,4285.256348,4280.641113,4270.000000,4474.743652,4488.205078,4371.282227,4412.692383,2331.000000,2.000000,52.000000,,,,0.000000,4.000000,4.000000,4.000000,4.000000,4.000000,4.000000,4.000000,4.000000,4.000000,4.000000,4.000000,4.000000,4.000000,4.000000,100.000000,,,,,,,,,,,,,,,,,,,,,,,,,,,,,,,,,,,,,,,,,,,,,,,
1665772171.653175,1665772171.653394,4.000000,0.000000,4289.743652,4275.641113,4299.487305,4267.051270,4282.692383,4288.077148,4283.846191,4290.128418,4283.974121,4280.512695,4476.922852,4491.666504,4372.307617,4413.589844,2384.000000,2.000000,52.000000,,,,0.000000,4.000000,4.000000,4.000000,4.000000,4.000000,4.000000,4.000000,4.000000,4.000000,4.000000,4.000000,4.000000,4.000000,4.000000,100.000000,,,,,,,,,,,,,,,,,,,,,,,,,,,,,,,,,,,,,,,,,,,,,,,
1665772171.660983,1665772171.661202,5.000000,0.000000,4291.922852,4276.538574,4294.102539,4266.666504,4288.333496,4285.641113,4280.769043,4291.153809,4280.897461,4278.205078,4472.179688,4487.179688,4364.358887,4410.512695,2302.000000,2.000000,52.000000,,,,0.000000,4.000000,4.000000,4.000000,4.000000,4.000000,4.000000,4.000000,4.000000,4.000000,4.000000,4.000000,4.000000,4.000000,4.000000,100.000000,,,,,,,,,,,,,,,,,,,,,,,,,,,,,,,,,,,,,,,,,,,,,,,
1665772171.668791,1665772171.668911,6.000000,0.000000,4299.230957,4286.794922,4302.051270,4281.025879,4292.307617,4292.692383,4283.461426,4295.128418,4280.384766,4280.897461,4476.922852,4490.897461,4371.025879,4413.205078,2165.000000,2.000000,52.000000,,,,0.000000,4.000000,4.000000,4.000000,4.000000,4.000000,4.000000,4.000000,4.000000,4.000000,4.000000,4.000000,4.000000,4.000000,4.000000,100.000000,,,,,,,,,,,,,,,,,,,,,,,,,,,,,,,,,,,,,,,,,,,,,,,
1665772171.676600,1665772171.676719,7.000000,0.000000,4296.538574,4295.384766,4309.230957,4284.743652,4299.487305,4292.051270,4285.897461,4292.436035,4279.487305,4280.384766,4480.641113,4494.487305,4377.436035,4415.641113,2192.000000,2.000000,52.000000,,,,0.000000,4.000000,4.000000,4.000000,4.000000,4.000000,4.000000,4.000000,4.000000,4.000000,4.000000,4.000000,4.000000,4.000000,4.000000,100.000000,,,,,,,,,,,,,,,,,,,,,,,,,,,,,,,,,,,,,,,,,,,,,,,
1665772171.684408,1665772171.684428,8.000000,0.000000,4296.282227,4294.230957,4307.820313,4278.974121,4302.820313,4283.717773,4279.743652,4281.025879,4273.717773,4265.512695,4473.461426,4488.333496,4366.922852,4413.461426,2321.000000,2.000000,52.000000,,,,0.000000,4.000000,4.000000,4.000000,4.000000,4.000000,4.000000,4.000000,4.000000,4.000000,4.000000,4.000000,4.000000,4.000000,4.000000,100.000000,,,,,,,,,,,,,,,,,,,,,,,,,,,,,,,,,,,,,,,,,,,,,,,
1665772171.692217,1665772171.692236,9.000000,0.000000,4307.179688,4295.256348,4313.333496,4281.282227,4299.230957,4288.974121,4280.897461,4283.846191,4275.897461,4263.461426,4472.307617,4489.871582,4362.179688,4420.128418,2411.000000,2.000000,52.000000,,,,0.000000,4.000000,4.000000,4.000000,4.000000,4.000000,4.000000,4.000000,4.000000,4.000000,4.000000,4.000000,4.000000,4.000000,4.000000,100.000000,,,,,,,,,,,,,,,,,,,,,,,,,,,,,,,,,,,,,,,,,,,,,,,
1665772171.700025,1665772171.699945,10.000000,0.000000,4307.820313,4298.333496,4319.102539,4284.871582,4299.358887,4297.179688,4291.794922,4298.333496,4287.051270,4278.461426,4477.692383,4498.717773,4369.358887,4427.948730,2568.000000,2.000000,52.000000,,,,0.000000,4.000000,4.000000,4.000000,4.000000,4.000000,4.000000,4.000000,4.000000,4.000000,4.000000,4.000000,4.000000,4.000000,4.000000,100.000000,,,,,,,,,,,,,,,,,,,,,,,,,,,,,,,,,,,,,,,,,,,,,,,
1665772171.707833,1665772171.707753,11.000000,0.000000,4297.820313,4299.358887,4311.153809,4281.025879,4304.615234,4297.563965,4296.666504,4298.974121,4293.205078,4280.000000,4478.846191,4496.922852,4369.102539,4419.102539,2563.000000,2.000000,52.000000,,,,0.000000,4.000000,4.000000,4.000000,4.000000,4.000000,4.000000,4.000000,4.000000,4.000000,4.000000,4.000000,4.000000,4.000000,4.000000,100.000000,,,,,,,,,,,,,,,,,,,,,,,,,,,,,,,,,,,,,,,,,,,,,,,
1665772171.715642,1665772171.715462,12.000000,0.000000,4294.102539,4295.769043,4302.563965,4270.512695,4305.384766,4296.794922,4292.692383,4291.410156,4286.922852,4269.358887,4470.256348,4482.948730,4358.205078,4403.974121,2740.000000,2.000000,52.000000,,,,0.000000,4.000000,4.000000,4.000000,4.000000,4.000000,4.000000,4.000000,4.000000,4.000000,4.000000,4.000000,4.000000,4.000000,4.000000,100.000000,,,,,,,,,,,,,,,,,,,,,,,,,,,,,,,,,,,,,,,,,,,,,,,
1665772171.723450,1665772171.723370,13.000000,0.000000,4291.025879,4286.794922,4300.512695,4261.794922,4296.282227,4299.230957,4293.461426,4293.717773,4281.922852,4264.230957,4459.871582,4473.461426,4349.102539,4399.871582,3361.000000,2.000000,52.000000,,,,0.000000,4.000000,4.000000,4.000000,4.000000,4.000000,4.000000,4.000000,4.000000,4.000000,4.000000,4.000000,4.000000,4.000000,4.000000,100.000000,,,,,,,,,,,,,,,,,,,,,,,,,,,,,,,,,,,,,,,,,,,,,,,
1665772171.731259,1665772171.731178,14.000000,0.000000,4281.025879,4279.230957,4293.589844,4261.538574,4285.000000,4295.512695,4294.487305,4297.307617,4287.563965,4263.717773,4458.461426,4471.153809,4347.692383,4396.153809,2568.000000,2.000000,52.000000,,,,0.000000,4.000000,4.000000,4.000000,4.000000,4.000000,4.000000,4.000000,4.000000,4.000000,4.000000,4.000000,4.000000,4.000000,4.000000,100.000000,,,,,,,,,,,,,,,,,,,,,,,,,,,,,,,,,,,,,,,,,,,,,,,
1665772171.739067,1665772171.739087,15.000000,0.000000,4273.846191,4275.256348,4286.025879,4259.358887,4278.846191,4287.436035,4287.563965,4293.077148,4293.077148,4267.307617,4460.384766,4468.205078,4351.025879,4386.922852,2563.000000,2.000000,52.000000,,,,0.000000,4.000000,4.000000,4.000000,4.000000,4.000000,4.000000,4.000000,4.000000,4.000000,4.000000,4.000000,4.000000,4.000000,4.000000,100.000000,,,,,,,,,,,,,,,,,,,,,,,,,,,,,,,,,,,,,,,,,,,,,,,
1665772171.746875,1665772171.746895,16.000000,0.000000,4277.179688,4275.128418,4287.307617,4256.922852,4279.230957,4289.615234,4286.282227,4292.179688,4295.384766,4277.692383,4462.692383,4469.743652,4354.743652,4389.615234,0.000000,2.000000,52.000000,,,,0.000000,4.000000,4.000000,4.000000,4.000000,4.000000,4.000000,4.000000,4.000000,4.000000,4.000000,4.000000,4.000000,4.000000,4.000000,100.000000,,,,,,,,,,,,,,,,,,,,,,,,,,,,,,,,,,,,,,,,,,,,,,,
1665772171.754684,1665772171.754803,17.000000,0.000000,4280.641113,4278.077148,4290.641113,4264.743652,4281.794922,4292.692383,4287.820313,4296.282227,4295.641113,4280.000000,4468.205078,4477.692383,4359.871582,4405.128418,0.000000,2.000000,52.000000,,,,0.000000,4.000000,4.000000,4.000000,4.000000,4.000000,4.000000,4.000000,4.000000,4.000000,4.000000,4.000000,4.000000,4.000000,4.000000,100.000000,,,,,,,,,,,,,,,,,,,,,,,,,,,,,,,,,,,,,,,,,,,,,,,
1665772171.762492,1665772171.762612,18.000000,0.000000,4279.871582,4278.461426,4292.820313,4277.436035,4277.307617,4285.128418,4281.153809,4291.922852,4288.974121,4269.102539,4472.820313,4482.692383,4363.974121,4412.307617,0.000000,2.000000,52.000000,,,,0.000000,4.000000,4.000000,4.000000,4.000000,4.000000,4.000000,4.000000,4.000000,4.000000,4.000000,4.000000,4.000000,4.000000,4.000000,100.000000,,,,,,,,,,,,,,,,,,,,,,,,,,,,,,,,,,,,,,,,,,,,,,,
1665772171.770301,1665772171.770520,19.000000,0.000000,4288.461426,4279.871582,4302.307617,4291.153809,4274.358887,4282.436035,4282.436035,4287.692383,4278.333496,4261.794922,4473.333496,4488.077148,4366.282227,4414.102539,0.000000,2.000000,52.000000,,,,0.000000,4.000000,4.000000,4.000000,4.000000,4.000000,4.000000,4.000000,4.000000,4.000000,4.000000,4.000000,4.000000,4.000000,4.000000,100.000000,,,,,,,,,,,,,,,,,,,,,,,,,,,,,,,,,,,,,,,,,,,,,,,
1665772171.778109,1665772171.778329,20.000000,0.000000,4302.948730,4289.487305,4316.282227,4310.769043,4285.897461,4294.487305,4293.717773,4292.051270,4272.179688,4264.743652,4476.410156,4501.922852,4369.615234,4426.410156,0.000000,2.000000,52.000000,,,,0.000000,4.000000,4.000000,4.000000,4.000000,4.000000,4.000000,4.000000,4.000000,4.000000,4.000000,4.000000,4.000000,4.000000,4.000000,100.000000,,,,,,,,,,,,,,,,,,,,,,,,,,,,,,,,,,,,,,,,,,,,,,,
1665772171.785917,1665772171.786237,21.000000,0.000000,4303.461426,4295.769043,4325.512695,4324.102539,4297.436035,4299.615234,4296.153809,4292.820313,4264.487305,4260.384766,4478.333496,4509.871582,4367.179688,4434.230957,0.000000,2.000000,52.000000,,,,0.000000,4.000000,4.000000,4.000000,4.000000,4.000000,4.000000,4.000000,4.000000,4.000000,4.000000,4.000000,4.000000,4.000000,4.000000,100.000000,,,,,,,,,,,,,,,,,,,,,,,,,,,,,,,,,,,,,,,,,,,,,,,
1665772171.793726,1665772171.794045,22.000000,0.000000,4296.025879,4289.102539,4328.461426,4326.025879,4294.743652,4292.179688,4292.307617,4291.282227,4257.692383,4248.846191,4475.512695,4509.487305,4359.615234,4432.179688,0.000000,2.000000,52.000000,,,,0.000000,4.000000,4.000000,4.000000,4.000000,4.000000,4.000000,4.000000,4.000000,4.000000,4.000000,4.000000,4.000000,4.000000,4.000000,100.000000,,,,,,,,,,,,,,,,,,,,,,,,,,,,,,,,,,,,,,,,,,,,,,,
1665772171.801534,1665772171.801954,23.000000,0.000000,4291.153809,4282.436035,4325.384766,4327.179688,4291.025879,4292.179688,4295.512695,4296.410156,4263.205078,4243.846191,4473.846191,4503.205078,4355.128418,4429.230957,0.000000,2.000000,52.000000,,,,0.000000,4.000000,4.000000,4.000000,4.000000,4.000000,4.000000,4.000000,4.000000,4.000000,4.000000,4.000000,4.000000,4.000000,4.000000,100.000000,,,,,,,,,,,,,,,,,,,,,,,,,,,,,,,,,,,,,,,,,,,,,,,
1665772171.809343,1665772171.809762,24.000000,0.000000,4283.974121,4280.769043,4319.743652,4329.230957,4295.000000,4299.871582,4300.384766,4297.948730,4272.692383,4251.922852,4475.769043,4496.794922,4353.717773,4420.256348,0.000000,2.000000,52.000000,,,,0.000000,4.000000,4.000000,4.000000,4.000000,4.000000,4.000000,4.000000,4.000000,4.000000,4.000000,4.000000,4.000000,4.000000,4.000000,100.000000,,,,,,,,,,,,,,,,,,,,,,,,,,,,,,,,,,,,,,,,,,,,,,,
1665772171.817151,1665772171.817671,25.000000,0.000000,4277.692383,4282.692383,4315.769043,4330.128418,4295.000000,4302.948730,4300.512695,4297.820313,4278.717773,4262.563965,4472.820313,4489.871582,4351.153809,4407.436035,0.000000,2.000000,52.000000,,,,0.000000,4.000000,4.000000,4.000000,4.000000,4.000000,4.000000,4.000000,4.000000,4.000000,4.000000,4.000000,4.000000,4.000000,4.000000,100.000000,,,,,,,,,,,,,,,,,,,,,,,,,,,,,,,,,,,,,,,,,,,,,,,
1665772171.824959,1665772171.825479,26.000000,0.000000,4273.333496,4280.769043,4312.051270,4326.794922,4292.820313,4305.769043,4306.538574,4303.461426,4286.794922,4261.794922,4467.948730,4479.615234,4348.205078,4403.077148,0.000000,2.000000,52.000000,,,,0.000000,4.000000,4.000000,4.000000,4.000000,4.000000,4.000000,4.000000,4.000000,4.000000,4.000000,4.000000,4.000000,4.000000,4.000000,100.000000,,,,,,,,,,,,,,,,,,,,,,,,,,,,,,,,,,,,,,,,,,,,,,,
1665772171.832768,1665772171.833188,27.000000,0.000000,4266.025879,4269.615234,4305.641113,4317.948730,4293.461426,4310.000000,4313.717773,4304.871582,4299.102539,4261.538574,4473.461426,4473.077148,4349.358887,4402.563965,0.000000,2.000000,52.000000,,,,0.000000,4.000000,4.000000,4.000000,4.000000,4.000000,4.000000,4.000000,4.000000,4.000000,4.000000,4.000000,4.000000,4.000000,4.000000,100.000000,,,,,,,,,,,,,,,,,,,,,,,,,,,,,,,,,,,,,,,,,,,,,,,
1665772171.840576,1665772171.840996,28.000000,0.000000,4257.948730,4261.282227,4299.487305,4310.256348,4288.461426,4306.410156,4313.846191,4305.256348,4309.615234,4272.948730,4472.820313,4473.717773,4348.205078,4394.871582,0.000000,2.000000,52.000000,,,,0.000000,4.000000,4.000000,4.000000,4.000000,4.000000,4.000000,4.000000,4.000000,4.000000,4.000000,4.000000,4.000000,4.000000,4.000000,100.000000,,,,,,,,,,,,,,,,,,,,,,,,,,,,,,,,,,,,,,,,,,,,,,,
1665772171.848385,1665772171.848705,29.000000,0.000000,4249.358887,4261.025879,4289.743652,4306.282227,4275.128418,4295.000000,4304.615234,4310.000000,4312.436035,4281.538574,4461.025879,4473.461426,4345.512695,4387.820313,0.000000,2.000000,52.000000,,,,0.000000,4.000000,4.000000,4.000000,4.000000,4.000000,4.000000,4.000000,4.000000,4.000000,4.000000,4.000000,4.000000,4.000000,4.000000,100.000000,1.000000,100.000000,4.000000,4.000000,4.000000,4.000000,4.000000,4.000000,4.000000,4.000000,4.000000,4.000000,4.000000,4.000000,4.000000,4.000000,1.000000,0.291587,-1.054419,-1.487674,0.697077,1.000000,0.000000,2.599095,2.599095,12.244337,0.023671,1.000000,0.373678,69.756424,-84.079018,303.702637,1.000000,0.697059,0.207089,0.092958,0.249747,1.000000,0.486411,6.394392,-4.254613,17.520248,1.000000,0.054971,0.054971,0.000000,1.000000
1665772171.856193,1665772171.856613,30.000000,0.000000,4246.794922,4260.256348,4284.102539,4303.846191,4267.307617,4293.461426,4296.538574,4313.077148,4314.102539,4283.077148,4465.641113,4472.051270,4351.666504,4387.563965,0.000000,2.000000,52.000000,,,,0.000000,4.000000,4.000000,4.000000,4.000000,4.000000,4.000000,4.000000,4.000000,4.000000,4.000000,4.000000,4.000000,4.000000,4.000000,100.000000,,,,,,,,,,,,,,,,,,,,,,,,,,,,,,,,,,,,,,,,,,,,,,,
1665772171.864001,1665772171.864421,31.000000,0.000000,4255.256348,4260.384766,4290.641113,4305.641113,4271.538574,4297.563965,4296.025879,4310.000000,4313.846191,4283.077148,4476.282227,4477.948730,4361.538574,4396.538574,0.000000,2.000000,52.000000,,,,0.000000,4.000000,4.000000,4.000000,4.000000,4.000000,4.000000,4.000000,4.000000,4.000000,4.000000,4.000000,4.000000,4.000000,4.000000,100.000000,,,,,,,,,,,,,,,,,,,,,,,,,,,,,,,,,,,,,,,,,,,,,,,
1665772171.871810,1665772171.872330,32.000000,0.000000,4267.436035,4270.000000,4300.641113,4315.384766,4276.922852,4291.666504,4293.077148,4300.384766,4307.692383,4279.743652,4475.512695,4489.615234,4370.000000,4413.846191,0.000000,2.000000,52.000000,,,,0.000000,4.000000,4.000000,4.000000,4.000000,4.000000,4.000000,4.000000,4.000000,4.000000,4.000000,4.000000,4.000000,4.000000,4.000000,100.000000,,,,,,,,,,,,,,,,,,,,,,,,,,,,,,,,,,,,,,,,,,,,,,,
1665772171.879618,1665772171.880138,33.000000,0.000000,4288.077148,4280.128418,4309.615234,4324.487305,4277.179688,4287.692383,4284.487305,4292.820313,4300.128418,4279.102539,4483.077148,4503.333496,4378.974121,4429.743652,0.000000,2.000000,52.000000,,,,0.000000,4.000000,4.000000,4.000000,4.000000,4.000000,4.000000,4.000000,4.000000,4.000000,4.000000,4.000000,4.000000,4.000000,4.000000,100.000000,,,,,,,,,,,,,,,,,,,,,,,,,,,,,,,,,,,,,,,,,,,,,,,
1665772171.887427,1665772171.887947,34.000000,0.000000,4306.410156,4284.230957,4319.615234,4329.615234,4280.641113,4290.128418,4278.846191,4290.897461,4290.897461,4282.948730,4491.025879,4511.025879,4381.410156,4441.410156,0.000000,2.000000,52.000000,,,,0.000000,4.000000,4.000000,4.000000,4.000000,4.000000,4.000000,4.000000,4.000000,4.000000,4.000000,4.000000,4.000000,4.000000,4.000000,100.000000,,,,,,,,,,,,,,,,,,,,,,,,,,,,,,,,,,,,,,,,,,,,,,,
1665772171.895235,1665772171.895655,35.000000,0.000000,4305.256348,4290.512695,4325.512695,4333.205078,4287.436035,4289.487305,4277.436035,4285.000000,4281.410156,4278.846191,4477.820313,4508.717773,4375.641113,4447.307617,0.000000,2.000000,52.000000,,,,0.000000,4.000000,4.000000,4.000000,4.000000,4.000000,4.000000,4.000000,4.000000,4.000000,4.000000,4.000000,4.000000,4.000000,4.000000,100.000000,,,,,,,,,,,,,,,,,,,,,,,,,,,,,,,,,,,,,,,,,,,,,,,
1665772171.903043,1665772171.903464,36.000000,0.000000,4301.538574,4296.282227,4327.179688,4336.666504,4289.102539,4288.333496,4279.743652,4279.102539,4272.051270,4267.563965,4472.563965,4505.769043,4371.153809,4443.077148,0.000000,2.000000,52.000000,,,,0.000000,4.000000,4.000000,4.000000,4.000000,4.000000,4.000000,4.000000,4.000000,4.000000,4.000000,4.000000,4.000000,4.000000,4.000000,100.000000,,,,,,,,,,,,,,,,,,,,,,,,,,,,,,,,,,,,,,,,,,,,,,,
1665772171.910852,1665772171.911172,37.000000,0.000000,4307.051270,4298.333496,4329.487305,4342.051270,4288.974121,4290.128418,4284.871582,4283.077148,4266.282227,4257.051270,4477.948730,4502.436035,4366.282227,4435.512695,0.000000,2.000000,52.000000,,,,0.000000,4.000000,4.000000,4.000000,4.000000,4.000000,4.000000,4.000000,4.000000,4.000000,4.000000,4.000000,4.000000,4.000000,4.000000,100.000000,,,,,,,,,,,,,,,,,,,,,,,,,,,,,,,,,,,,,,,,,,,,,,,
1665772171.918660,1665772171.919081,38.000000,0.000000,4303.974121,4296.153809,4330.256348,4344.743652,4288.846191,4292.820313,4293.717773,4289.487305,4262.563965,4246.666504,4467.307617,4501.666504,4353.077148,4433.717773,0.000000,2.000000,52.000000,,,,0.000000,4.000000,4.000000,4.000000,4.000000,4.000000,4.000000,4.000000,4.000000,4.000000,4.000000,4.000000,4.000000,4.000000,4.000000,100.000000,,,,,,,,,,,,,,,,,,,,,,,,,,,,,,,,,,,,,,,,,,,,,,,
1665772171.926468,1665772171.926889,39.000000,0.000000,4295.128418,4294.358887,4328.205078,4341.153809,4288.333496,4295.512695,4306.922852,4291.025879,4260.512695,4241.282227,4462.948730,4502.051270,4346.794922,4433.846191,0.000000,2.000000,52.000000,,,,0.000000,4.000000,4.000000,4.000000,4.000000,4.000000,4.000000,4.000000,4.000000,4.000000,4.000000,4.000000,4.000000,4.000000,4.000000,100.000000,,,,,,,,,,,,,,,,,,,,,,,,,,,,,,,,,,,,,,,,,,,,,,,
1665772171.934277,1665772171.934797,40.000000,0.000000,4295.256348,4294.230957,4322.820313,4338.077148,4293.717773,4298.846191,4309.743652,4293.717773,4269.615234,4247.179688,4473.717773,4497.948730,4353.717773,4427.307617,0.000000,2.000000,52.000000,,,,0.000000,4.000000,4.000000,4.000000,4.000000,4.000000,4.000000,4.000000,4.000000,4.000000,4.000000,4.000000,4.000000,4.000000,4.000000,100.000000,,,,,,,,,,,,,,,,,,,,,,,,,,,,,,,,,,,,,,,,,,,,,,,
1665772171.942085,1665772171.942606,41.000000,0.000000,4288.846191,4290.000000,4314.871582,4334.358887,4295.000000,4297.179688,4299.615234,4300.769043,4287.563965,4258.974121,4475.512695,4491.025879,4355.256348,4418.205078,0.000000,2.000000,52.000000,,,,0.000000,4.000000,4.000000,4.000000,4.000000,4.000000,4.000000,4.000000,4.000000,4.000000,4.000000,4.000000,4.000000,4.000000,4.000000,100.000000,,,,,,,,,,,,,,,,,,,,,,,,,,,,,,,,,,,,,,,,,,,,,,,
1665772171.949894,1665772171.950514,42.000000,0.000000,4272.179688,4280.384766,4307.948730,4322.051270,4285.000000,4294.102539,4295.000000,4308.461426,4299.615234,4269.230957,4472.948730,4491.410156,4352.436035,4411.666504,0.000000,2.000000,52.000000,,,,0.000000,4.000000,4.000000,4.000000,4.000000,4.000000,4.000000,4.000000,4.000000,4.000000,4.000000,4.000000,4.000000,4.000000,4.000000,100.000000,,,,,,,,,,,,,,,,,,,,,,,,,,,,,,,,,,,,,,,,,,,,,,,
1665772171.957702,1665772171.958323,43.000000,0.000000,4265.769043,4273.974121,4303.846191,4312.179688,4276.794922,4293.461426,4297.820313,4311.282227,4306.794922,4278.589844,4476.794922,4492.948730,4357.051270,4411.794922,0.000000,2.000000,52.000000,,,,0.000000,4.000000,4.000000,4.000000,4.000000,4.000000,4.000000,4.000000,4.000000,4.000000,4.000000,4.000000,4.000000,4.000000,4.000000,100.000000,,,,,,,,,,,,,,,,,,,,,,,,,,,,,,,,,,,,,,,,,,,,,,,
1665772171.965510,1665772171.966231,44.000000,0.000000,4276.153809,4276.282227,4303.717773,4318.205078,4277.179688,4294.358887,4296.922852,4312.563965,4318.974121,4285.897461,4478.974121,4492.563965,4362.436035,4415.769043,0.000000,2.000000,52.000000,,,,0.000000,4.000000,4.000000,4.000000,4.000000,4.000000,4.000000,4.000000,4.000000,4.000000,4.000000,4.000000,4.000000,4.000000,4.000000,100.000000,,,,,,,,,,,,,,,,,,,,,,,,,,,,,,,,,,,,,,,,,,,,,,,
1665772171.973319,1665772171.974039,45.000000,0.000000,4284.743652,4279.871582,4306.153809,4324.871582,4283.205078,4294.230957,4293.589844,4310.512695,4321.410156,4286.922852,4478.333496,4495.000000,4357.948730,4415.384766,0.000000,2.000000,52.000000,,,,0.000000,4.000000,4.000000,4.000000,4.000000,4.000000,4.000000,4.000000,4.000000,4.000000,4.000000,4.000000,4.000000,4.000000,4.000000,100.000000,,,,,,,,,,,,,,,,,,,,,,,,,,,,,,,,,,,,,,,,,,,,,,,
1665772171.981127,1665772171.981948,46.000000,0.000000,4281.922852,4284.230957,4305.769043,4321.538574,4289.230957,4291.282227,4286.153809,4301.025879,4305.128418,4279.871582,4472.948730,4492.692383,4351.922852,4411.153809,0.000000,2.000000,52.000000,,,,0.000000,4.000000,4.000000,4.000000,4.000000,4.000000,4.000000,4.000000,4.000000,4.000000,4.000000,4.000000,4.000000,4.000000,4.000000,100.000000,,,,,,,,,,,,,,,,,,,,,,,,,,,,,,,,,,,,,,,,,,,,,,,
1665772171.988936,1665772171.989756,47.000000,0.000000,4286.922852,4287.307617,4311.025879,4321.153809,4285.641113,4290.128418,4275.897461,4294.102539,4294.743652,4270.769043,4462.307617,4491.410156,4349.615234,4414.743652,0.000000,2.000000,52.000000,,,,0.000000,4.000000,4.000000,4.000000,4.000000,4.000000,4.000000,4.000000,4.000000,4.000000,4.000000,4.000000,4.000000,4.000000,4.000000,100.000000,,,,,,,,,,,,,,,,,,,,,,,,,,,,,,,,,,,,,,,,,,,,,,,
1665772171.996744,1665772171.997565,48.000000,0.000000,4298.205078,4288.846191,4319.102539,4324.871582,4280.384766,4288.846191,4275.641113,4289.871582,4295.256348,4266.538574,4460.897461,4493.589844,4349.871582,4421.922852,0.000000,2.000000,52.000000,,,,0.000000,4.000000,4.000000,4.000000,4.000000,4.000000,4.000000,4.000000,4.000000,4.000000,4.000000,4.000000,4.000000,4.000000,4.000000,100.000000,,,,,,,,,,,,,,,,,,,,,,,,,,,,,,,,,,,,,,,,,,,,,,,
1665772172.004552,1665772172.005373,49.000000,0.000000,4297.307617,4288.846191,4317.948730,4323.846191,4286.794922,4290.128418,4281.538574,4286.282227,4293.333496,4265.384766,4462.820313,4491.794922,4353.205078,4422.307617,0.000000,2.000000,52.000000,,,,0.000000,4.000000,4.000000,4.000000,4.000000,4.000000,4.000000,4.000000,4.000000,4.000000,4.000000,4.000000,4.000000,4.000000,4.000000,100.000000,,,,,,,,,,,,,,,,,,,,,,,,,,,,,,,,,,,,,,,,,,,,,,,
1665772172.012361,1665772172.013082,50.000000,0.000000,4292.948730,4283.333496,4317.948730,4324.230957,4297.051270,4298.974121,4292.948730,4291.025879,4287.179688,4263.205078,4460.384766,4495.256348,4349.615234,4423.333496,0.000000,2.000000,52.000000,,,,0.000000,4.000000,4.000000,4.000000,4.000000,4.000000,4.000000,4.000000,4.000000,4.000000,4.000000,4.000000,4.000000,4.000000,4.000000,100.000000,,,,,,,,,,,,,,,,,,,,,,,,,,,,,,,,,,,,,,,,,,,,,,,
1665772172.020169,1665772172.020890,51.000000,0.000000,4300.128418,4284.358887,4327.436035,4331.153809,4303.077148,4308.974121,4311.410156,4300.128418,4287.436035,4263.205078,4468.205078,4506.538574,4350.512695,4431.282227,0.000000,2.000000,52.000000,,,,0.000000,4.000000,4.000000,4.000000,4.000000,4.000000,4.000000,4.000000,4.000000,4.000000,4.000000,4.000000,4.000000,4.000000,4.000000,100.000000,,,,,,,,,,,,,,,,,,,,,,,,,,,,,,,,,,,,,,,,,,,,,,,
1665772172.027978,1665772172.028599,52.000000,0.000000,4304.358887,4290.512695,4328.205078,4335.128418,4305.641113,4311.538574,4319.871582,4301.025879,4291.282227,4268.205078,4480.128418,4511.410156,4362.179688,4430.384766,0.000000,2.000000,52.000000,,,,0.000000,4.000000,4.000000,4.000000,4.000000,4.000000,4.000000,4.000000,4.000000,4.000000,4.000000,4.000000,4.000000,4.000000,4.000000,100.000000,,,,,,,,,,,,,,,,,,,,,,,,,,,,,,,,,,,,,,,,,,,,,,,
1665772172.035786,1665772172.036407,53.000000,0.000000,4295.128418,4284.102539,4318.589844,4328.077148,4301.410156,4308.333496,4313.974121,4298.205078,4286.153809,4266.666504,4474.871582,4501.666504,4360.769043,4421.410156,0.000000,2.000000,52.000000,,,,0.000000,4.000000,4.000000,4.000000,4.000000,4.000000,4.000000,4.000000,4.000000,4.000000,4.000000,4.000000,4.000000,4.000000,4.000000,100.000000,,,,,,,,,,,,,,,,,,,,,,,,,,,,,,,,,,,,,,,,,,,,,,,
1665772172.043594,1665772172.044116,54.000000,0.000000,4291.282227,4276.025879,4315.897461,4322.563965,4294.487305,4301.794922,4307.563965,4300.000000,4283.974121,4262.051270,4471.025879,4496.410156,4352.948730,4420.384766,0.000000,2.000000,52.000000,,,,0.000000,4.000000,4.000000,4.000000,4.000000,4.000000,4.000000,4.000000,4.000000,4.000000,4.000000,4.000000,4.000000,4.000000,4.000000,100.000000,,,,,,,,,,,,,,,,,,,,,,,,,,,,,,,,,,,,,,,,,,,,,,,
1665772172.051403,1665772172.051924,55.000000,0.000000,4300.000000,4287.436035,4321.922852,4328.461426,4294.230957,4296.666504,4306.794922,4306.538574,4292.948730,4271.282227,4486.410156,4507.563965,4365.512695,4428.205078,0.000000,2.000000,52.000000,,,,0.000000,4.000000,4.000000,4.000000,4.000000,4.000000,4.000000,4.000000,4.000000,4.000000,4.000000,4.000000,4.000000,4.000000,4.000000,100.000000,,,,,,,,,,,,,,,,,,,,,,,,,,,,,,,,,,,,,,,,,,,,,,,
1665772172.059211,1665772172.059633,56.000000,0.000000,4307.820313,4301.153809,4328.205078,4338.461426,4300.641113,4300.512695,4308.205078,4314.358887,4302.563965,4283.333496,4498.589844,4522.179688,4382.692383,4439.615234,0.000000,2.000000,52.000000,,,,0.000000,4.000000,4.000000,4.000000,4.000000,4.000000,4.000000,4.000000,4.000000,4.000000,4.000000,4.000000,4.000000,4.000000,4.000000,100.000000,,,,,,,,,,,,,,,,,,,,,,,,,,,,,,,,,,,,,,,,,,,,,,,
1665772172.067019,1665772172.067541,57.000000,0.000000,4309.102539,4302.820313,4333.589844,4344.102539,4303.333496,4304.487305,4310.128418,4314.102539,4305.769043,4283.846191,4495.897461,4527.307617,4383.589844,4448.205078,0.000000,2.000000,52.000000,,,,0.000000,4.000000,4.000000,4.000000,4.000000,4.000000,4.000000,4.000000,4.000000,4.000000,4.000000,4.000000,4.000000,4.000000,4.000000,100.000000,,,,,,,,,,,,,,,,,,,,,,,,,,,,,,,,,,,,,,,,,,,,,,,
1665772172.074828,1665772172.075349,58.000000,0.000000,4313.974121,4306.153809,4336.025879,4344.230957,4304.358887,4301.666504,4308.333496,4309.102539,4303.974121,4279.230957,4491.666504,4524.615234,4381.410156,4448.077148,0.000000,2.000000,52.000000,,,,0.000000,4.000000,4.000000,4.000000,4.000000,4.000000,4.000000,4.000000,4.000000,4.000000,4.000000,4.000000,4.000000,4.000000,4.000000,100.000000,,,,,,,,,,,,,,,,,,,,,,,,,,,,,,,,,,,,,,,,,,,,,,,
1665772172.082636,1665772172.083158,59.000000,0.000000,4321.025879,4311.025879,4336.666504,4344.102539,4309.230957,4299.487305,4305.641113,4310.641113,4307.436035,4278.333496,4493.077148,4524.743652,4383.333496,4444.871582,0.000000,2.000000,52.000000,,,,0.000000,4.000000,4.000000,4.000000,4.000000,4.000000,4.000000,4.000000,4.000000,4.000000,4.000000,4.000000,4.000000,4.000000,4.000000,100.000000,,,,,,,,,,,,,,,,,,,,,,,,,,,,,,,,,,,,,,,,,,,,,,,
1665772172.090445,1665772172.090866,60.000000,0.000000,4324.871582,4312.563965,4342.307617,4348.846191,4307.051270,4299.230957,4306.282227,4312.179688,4312.436035,4280.897461,4493.077148,4530.256348,4383.717773,4446.922852,0.000000,2.000000,52.000000,,,,0.000000,4.000000,4.000000,4.000000,4.000000,4.000000,4.000000,4.000000,4.000000,4.000000,4.000000,4.000000,4.000000,4.000000,4.000000,100.000000,,,,,,,,,,,,,,,,,,,,,,,,,,,,,,,,,,,,,,,,,,,,,,,
1665772172.098253,1665772172.098675,61.000000,0.000000,4328.846191,4314.615234,4346.153809,4355.512695,4301.538574,4301.153809,4308.205078,4304.230957,4305.769043,4281.666504,4492.307617,4531.794922,4384.102539,4447.948730,0.000000,2.000000,52.000000,,,,0.000000,4.000000,4.000000,4.000000,4.000000,4.000000,4.000000,4.000000,4.000000,4.000000,4.000000,4.000000,4.000000,4.000000,4.000000,100.000000,,,,,,,,,,,,,,,,,,,,,,,,,,,,,,,,,,,,,,,,,,,,,,,
1665772172.106061,1665772172.106383,62.000000,0.000000,4329.102539,4312.307617,4341.153809,4352.436035,4307.563965,4306.794922,4309.615234,4296.282227,4292.563965,4279.743652,4494.102539,4526.282227,4383.974121,4446.153809,0.000000,2.000000,52.000000,,,,0.000000,4.000000,4.000000,4.000000,4.000000,4.000000,4.000000,4.000000,4.000000,4.000000,4.000000,4.000000,4.000000,4.000000,4.000000,100.000000,,,,,,,,,,,,,,,,,,,,,,,,,,,,,,,,,,,,,,,,,,,,,,,
1665772172.113870,1665772172.114292,63.000000,0.000000,4320.384766,4303.717773,4331.410156,4342.820313,4310.897461,4310.512695,4312.820313,4297.051270,4293.974121,4276.538574,4489.102539,4522.820313,4382.051270,4447.051270,0.000000,2.000000,52.000000,,,,0.000000,4.000000,4.000000,4.000000,4.000000,4.000000,4.000000,4.000000,4.000000,4.000000,4.000000,4.000000,4.000000,4.000000,4.000000,100.000000,,,,,,,,,,,,,,,,,,,,,,,,,,,,,,,,,,,,,,,,,,,,,,,
1665772172.121678,1665772172.122100,64.000000,0.000000,4310.000000,4295.897461,4324.743652,4338.461426,4300.769043,4312.179688,4321.025879,4299.743652,4295.128418,4271.794922,4479.358887,4519.358887,4377.436035,4439.358887,2035.000000,2.000000,52.000000,,,,0.000000,4.000000,4.000000,4.000000,4.000000,4.000000,4.000000,4.000000,4.000000,4.000000,4.000000,4.000000,4.000000,4.000000,4.000000,100.000000,,,,,,,,,,,,,,,,,,,,,,,,,,,,,,,,,,,,,,,,,,,,,,,
1665772172.129487,1665772172.130009,65.000000,0.000000,4301.794922,4285.512695,4317.051270,4332.307617,4293.333496,4312.692383,4323.077148,4300.512695,4283.846191,4264.487305,4474.487305,4508.974121,4368.589844,4424.358887,2149.000000,2.000000,52.000000,,,,0.000000,4.000000,4.000000,4.000000,4.000000,4.000000,4.000000,4.000000,4.000000,4.000000,4.000000,4.000000,4.000000,4.000000,4.000000,100.000000,,,,,,,,,,,,,,,,,,,,,,,,,,,,,,,,,,,,,,,,,,,,,,,
1665772172.137295,1665772172.137817,66.000000,0.000000,4292.307617,4275.897461,4307.563965,4324.358887,4289.487305,4304.615234,4312.307617,4303.077148,4285.512695,4262.692383,4474.358887,4501.922852,4362.051270,4420.641113,2286.000000,2.000000,52.000000,,,,0.000000,4.000000,4.000000,4.000000,4.000000,4.000000,4.000000,4.000000,4.000000,4.000000,4.000000,4.000000,4.000000,4.000000,4.000000,100.000000,,,,,,,,,,,,,,,,,,,,,,,,,,,,,,,,,,,,,,,,,,,,,,,
1665772172.145103,1665772172.145725,67.000000,0.000000,4288.717773,4277.436035,4305.128418,4324.871582,4283.333496,4295.769043,4301.410156,4309.102539,4297.563965,4273.333496,4474.615234,4504.871582,4362.436035,4423.974121,2301.000000,2.000000,52.000000,,,,0.000000,4.000000,4.000000,4.000000,4.000000,4.000000,4.000000,4.000000,4.000000,4.000000,4.000000,4.000000,4.000000,4.000000,4.000000,100.000000,,,,,,,,,,,,,,,,,,,,,,,,,,,,,,,,,,,,,,,,,,,,,,,
1665772172.152912,1665772172.153534,68.000000,0.000000,4293.077148,4282.051270,4309.102539,4326.666504,4280.512695,4296.538574,4305.769043,4314.102539,4300.384766,4279.102539,4476.794922,4507.948730,4361.666504,4421.666504,2384.000000,2.000000,52.000000,,,,0.000000,4.000000,4.000000,4.000000,4.000000,4.000000,4.000000,4.000000,4.000000,4.000000,4.000000,4.000000,4.000000,4.000000,4.000000,100.000000,,,,,,,,,,,,,,,,,,,,,,,,,,,,,,,,,,,,,,,,,,,,,,,
1665772172.160720,1665772172.161442,69.000000,0.000000,4287.820313,4280.384766,4308.589844,4320.384766,4284.358887,4293.461426,4304.871582,4310.641113,4293.717773,4271.153809,4477.179688,4502.948730,4356.410156,4417.436035,2291.000000,2.000000,52.000000,,,,0.000000,4.000000,4.000000,4.000000,4.000000,4.000000,4.000000,4.000000,4.000000,4.000000,4.000000,4.000000,4.000000,4.000000,4.000000,100.000000,,,,,,,,,,,,,,,,,,,,,,,,,,,,,,,,,,,,,,,,,,,,,,,
1665772172.168528,1665772172.169251,70.000000,0.000000,4276.025879,4278.717773,4301.025879,4312.051270,4289.487305,4281.025879,4284.358887,4298.333496,4284.615234,4265.641113,4473.589844,4491.153809,4355.128418,4414.230957,2130.000000,2.000000,52.000000,,,,0.000000,4.000000,4.000000,4.000000,4.000000,4.000000,4.000000,4.000000,4.000000,4.000000,4.000000,4.000000,4.000000,4.000000,4.000000,100.000000,,,,,,,,,,,,,,,,,,,,,,,,,,,,,,,,,,,,,,,,,,,,,,,
1665772172.176337,1665772172.177159,71.000000,0.000000,4280.897461,4284.615234,4301.282227,4311.538574,4288.974121,4277.051270,4272.948730,4292.436035,4282.820313,4268.205078,4475.000000,4484.743652,4357.692383,4413.717773,2186.000000,2.000000,52.000000,,,,0.000000,4.000000,4.000000,4.000000,4.000000,4.000000,4.000000,4.000000,4.000000,4.000000,4.000000,4.000000,4.000000,4.000000,4.000000,100.000000,,,,,,,,,,,,,,,,,,,,,,,,,,,,,,,,,,,,,,,,,,,,,,,
1665772172.184145,1665772172.184967,72.000000,0.000000,4298.205078,4293.974121,4315.000000,4321.794922,4289.230957,4286.025879,4282.820313,4297.692383,4287.436035,4267.051270,4477.820313,4489.871582,4358.461426,4420.641113,2309.000000,2.000000,52.000000,,,,0.000000,4.000000,4.000000,4.000000,4.000000,4.000000,4.000000,4.000000,4.000000,4.000000,4.000000,4.000000,4.000000,4.000000,4.000000,100.000000,,,,,,,,,,,,,,,,,,,,,,,,,,,,,,,,,,,,,,,,,,,,,,,
1665772172.191954,1665772172.192776,73.000000,0.000000,4305.384766,4299.615234,4323.205078,4332.179688,4291.666504,4291.794922,4290.769043,4295.512695,4284.358887,4260.769043,4473.717773,4491.282227,4360.256348,4427.051270,2424.000000,2.000000,52.000000,,,,0.000000,4.000000,4.000000,4.000000,4.000000,4.000000,4.000000,4.000000,4.000000,4.000000,4.000000,4.000000,4.000000,4.000000,4.000000,100.000000,,,,,,,,,,,,,,,,,,,,,,,,,,,,,,,,,,,,,,,,,,,,,,,
1665772172.199762,1665772172.200584,74.000000,0.000000,4304.102539,4298.589844,4320.769043,4328.717773,4293.717773,4292.436035,4292.436035,4284.743652,4278.205078,4262.820313,4473.589844,4491.794922,4366.153809,4428.205078,2566.000000,2.000000,52.000000,,,,0.000000,4.000000,4.000000,4.000000,4.000000,4.000000,4.000000,4.000000,4.000000,4.000000,4.000000,4.000000,4.000000,4.000000,4.000000,100.000000,,,,,,,,,,,,,,,,,,,,,,,,,,,,,,,,,,,,,,,,,,,,,,,
1665772172.207570,1665772172.208293,75.000000,0.000000,4308.205078,4298.461426,4321.538574,4324.358887,4296.410156,4294.871582,4301.410156,4286.282227,4285.897461,4269.230957,4478.974121,4501.794922,4370.384766,4429.615234,2563.000000,2.000000,52.000000,,,,0.000000,4.000000,4.000000,4.000000,4.000000,4.000000,4.000000,4.000000,4.000000,4.000000,4.000000,4.000000,4.000000,4.000000,4.000000,100.000000,,,,,,,,,,,,,,,,,,,,,,,,,,,,,,,,,,,,,,,,,,,,,,,
1665772172.215379,1665772172.216101,76.000000,0.000000,4311.410156,4300.000000,4324.102539,4329.102539,4299.102539,4299.102539,4310.128418,4296.282227,4295.128418,4271.153809,4479.358887,4509.358887,4368.077148,4429.230957,2718.000000,2.000000,52.000000,,,,0.000000,4.000000,4.000000,4.000000,4.000000,4.000000,4.000000,4.000000,4.000000,4.000000,4.000000,4.000000,4.000000,4.000000,4.000000,100.000000,,,,,,,,,,,,,,,,,,,,,,,,,,,,,,,,,,,,,,,,,,,,,,,
1665772172.223187,1665772172.223810,77.000000,0.000000,4310.384766,4297.820313,4323.589844,4329.487305,4296.666504,4301.153809,4315.000000,4300.769043,4294.358887,4273.461426,4480.128418,4513.717773,4368.333496,4428.846191,3353.000000,2.000000,52.000000,,,,0.000000,4.000000,4.000000,4.000000,4.000000,4.000000,4.000000,4.000000,4.000000,4.000000,4.000000,4.000000,4.000000,4.000000,4.000000,100.000000,,,,,,,,,,,,,,,,,,,,,,,,,,,,,,,,,,,,,,,,,,,,,,,
1665772172.230996,1665772172.231618,78.000000,0.000000,4307.563965,4296.538574,4322.563965,4326.666504,4294.871582,4304.102539,4318.717773,4304.487305,4294.487305,4279.871582,4484.230957,4518.589844,4374.230957,4430.512695,2566.000000,2.000000,52.000000,,,,0.000000,4.000000,4.000000,4.000000,4.000000,4.000000,4.000000,4.000000,4.000000,4.000000,4.000000,4.000000,4.000000,4.000000,4.000000,100.000000,,,,,,,,,,,,,,,,,,,,,,,,,,,,,,,,,,,,,,,,,,,,,,,
1665772172.238804,1665772172.239327,79.000000,0.000000,4303.589844,4295.000000,4320.384766,4325.128418,4296.794922,4307.179688,4317.307617,4309.230957,4295.897461,4282.948730,4485.897461,4514.743652,4371.922852,4429.102539,2563.000000,2.000000,52.000000,,,,0.000000,4.000000,4.000000,4.000000,4.000000,4.000000,4.000000,4.000000,4.000000,4.000000,4.000000,4.000000,4.000000,4.000000,4.000000,100.000000,,,,,,,,,,,,,,,,,,,,,,,,,,,,,,,,,,,,,,,,,,,,,,,
1665772172.246612,1665772172.247135,80.000000,0.000000,4300.256348,4287.051270,4314.871582,4317.307617,4295.384766,4302.179688,4305.128418,4307.179688,4293.589844,4278.333496,4486.153809,4504.230957,4363.205078,4427.692383,2718.000000,2.000000,52.000000,,,,0.000000,4.000000,4.000000,4.000000,4.000000,4.000000,4.000000,4.000000,4.000000,4.000000,4.000000,4.000000,4.000000,4.000000,4.000000,100.000000,,,,,,,,,,,,,,,,,,,,,,,,,,,,,,,,,,,,,,,,,,,,,,,
1665772172.254421,1665772172.254844,81.000000,0.000000,4304.487305,4283.717773,4316.794922,4315.128418,4295.384766,4296.410156,4295.512695,4305.769043,4293.077148,4278.974121,4490.000000,4509.487305,4369.358887,4435.000000,3353.000000,2.000000,52.000000,,,,0.000000,4.000000,4.000000,4.000000,4.000000,4.000000,4.000000,4.000000,4.000000,4.000000,4.000000,4.000000,4.000000,4.000000,4.000000,100.000000,,,,,,,,,,,,,,,,,,,,,,,,,,,,,,,,,,,,,,,,,,,,,,,
1665772172.262229,1665772172.262652,82.000000,0.000000,4316.025879,4293.077148,4325.000000,4324.487305,4297.436035,4296.666504,4300.512695,4304.871582,4294.487305,4285.128418,4491.922852,4522.307617,4383.974121,4444.487305,2566.000000,2.000000,52.000000,,,,0.000000,4.000000,4.000000,4.000000,4.000000,4.000000,4.000000,4.000000,4.000000,4.000000,4.000000,4.000000,4.000000,4.000000,4.000000,100.000000,,,,,,,,,,,,,,,,,,,,,,,,,,,,,,,,,,,,,,,,,,,,,,,
1665772172.270038,1665772172.270361,83.000000,0.000000,4322.051270,4299.487305,4326.794922,4327.820313,4299.487305,4295.000000,4299.230957,4296.922852,4287.307617,4280.000000,4489.487305,4516.025879,4381.025879,4443.846191,2563.000000,2.000000,52.000000,,,,0.000000,4.000000,4.000000,4.000000,4.000000,4.000000,4.000000,4.000000,4.000000,4.000000,4.000000,4.000000,4.000000,4.000000,4.000000,100.000000,,,,,,,,,,,,,,,,,,,,,,,,,,,,,,,,,,,,,,,,,,,,,,,
1665772172.277846,1665772172.278169,84.000000,0.000000,4317.820313,4296.153809,4324.871582,4324.615234,4303.333496,4290.769043,4284.358887,4292.051270,4277.692383,4272.307617,4487.179688,4503.974121,4371.666504,4441.538574,2718.000000,2.000000,52.000000,,,,0.000000,4.000000,4.000000,4.000000,4.000000,4.000000,4.000000,4.000000,4.000000,4.000000,4.000000,4.000000,4.000000,4.000000,4.000000,100.000000,,,,,,,,,,,,,,,,,,,,,,,,,,,,,,,,,,,,,,,,,,,,,,,
1665772172.285654,1665772172.285878,85.000000,0.000000,4313.205078,4300.128418,4327.820313,4328.461426,4310.000000,4293.461426,4283.205078,4295.000000,4278.589844,4273.205078,4489.230957,4505.000000,4373.974121,4444.487305,3353.000000,2.000000,52.000000,,,,0.000000,4.000000,4.000000,4.000000,4.000000,4.000000,4.000000,4.000000,4.000000,4.000000,4.000000,4.000000,4.000000,4.000000,4.000000,100.000000,,,,,,,,,,,,,,,,,,,,,,,,,,,,,,,,,,,,,,,,,,,,,,,
1665772172.293463,1665772172.293786,86.000000,0.000000,4312.820313,4306.025879,4327.436035,4329.871582,4311.794922,4298.846191,4295.384766,4295.000000,4280.000000,4271.922852,4488.333496,4504.487305,4374.487305,4440.256348,2566.000000,2.000000,52.000000,,,,0.000000,4.000000,4.000000,4.000000,4.000000,4.000000,4.000000,4.000000,4.000000,4.000000,4.000000,4.000000,4.000000,4.000000,4.000000,100.000000,,,,,,,,,,,,,,,,,,,,,,,,,,,,,,,,,,,,,,,,,,,,,,,
1665772172.301271,1665772172.301595,87.000000,0.000000,4310.512695,4301.922852,4320.256348,4321.794922,4307.051270,4297.051270,4298.205078,4288.717773,4279.487305,4268.589844,4483.846191,4495.769043,4371.153809,4430.128418,2563.000000,2.000000,52.000000,,,,0.000000,4.000000,4.000000,4.000000,4.000000,4.000000,4.000000,4.000000,4.000000,4.000000,4.000000,4.000000,4.000000,4.000000,4.000000,100.000000,,,,,,,,,,,,,,,,,,,,,,,,,,,,,,,,,,,,,,,,,,,,,,,
1665772172.309080,1665772172.309503,88.000000,0.000000,4307.692383,4299.230957,4320.128418,4317.692383,4306.410156,4300.512695,4301.410156,4293.205078,4290.256348,4277.948730,4488.461426,4501.410156,4376.666504,4430.769043,2718.000000,2.000000,52.000000,,,,0.000000,4.000000,4.000000,4.000000,4.000000,4.000000,4.000000,4.000000,4.000000,4.000000,4.000000,4.000000,4.000000,4.000000,4.000000,100.000000,,,,,,,,,,,,,,,,,,,,,,,,,,,,,,,,,,,,,,,,,,,,,,,
1665772172.316888,1665772172.317311,89.000000,0.000000,4302.179688,4299.358887,4318.974121,4317.692383,4306.282227,4310.256348,4311.410156,4303.974121,4300.128418,4285.256348,4487.563965,4508.333496,4374.871582,4431.538574,3353.000000,2.000000,52.000000,,,,0.000000,4.000000,4.000000,4.000000,4.000000,4.000000,4.000000,4.000000,4.000000,4.000000,4.000000,4.000000,4.000000,4.000000,4.000000,100.000000,,,,,,,,,,,,,,,,,,,,,,,,,,,,,,,,,,,,,,,,,,,,,,,
1665772172.324696,1665772172.325220,90.000000,0.000000,4292.436035,4293.589844,4308.077148,4311.025879,4298.205078,4307.692383,4311.153809,4306.538574,4297.179688,4277.563965,4476.025879,4495.641113,4363.077148,4418.461426,2566.000000,2.000000,52.000000,,,,0.000000,4.000000,4.000000,4.000000,4.000000,4.000000,4.000000,4.000000,4.000000,4.000000,4.000000,4.000000,4.000000,4.000000,4.000000,100.000000,,,,,,,,,,,,,,,,,,,,,,,,,,,,,,,,,,,,,,,,,,,,,,,
1665772172.332505,1665772172.333028,91.000000,0.000000,4290.769043,4285.384766,4302.563965,4300.641113,4292.436035,4297.692383,4305.512695,4308.333496,4296.794922,4279.230957,4475.769043,4492.051270,4366.153809,4413.717773,2563.000000,2.000000,52.000000,,,,0.000000,4.000000,4.000000,4.000000,4.000000,4.000000,4.000000,4.000000,4.000000,4.000000,4.000000,4.000000,4.000000,4.000000,4.000000,100.000000,,,,,,,,,,,,,,,,,,,,,,,,,,,,,,,,,,,,,,,,,,,,,,,
1665772172.340313,1665772172.340936,92.000000,0.000000,4297.692383,4280.897461,4305.769043,4298.333496,4294.871582,4298.205078,4306.282227,4310.256348,4301.282227,4289.487305,4480.897461,4505.128418,4374.358887,4422.820313,2718.000000,2.000000,52.000000,,,,0.000000,4.000000,4.000000,4.000000,4.000000,4.000000,4.000000,4.000000,4.000000,4.000000,4.000000,4.000000,4.000000,4.000000,4.000000,100.000000,,,,,,,,,,,,,,,,,,,,,,,,,,,,,,,,,,,,,,,,,,,,,,,
1665772172.348122,1665772172.348745,93.000000,0.000000,4302.179688,4280.000000,4309.102539,4303.717773,4293.461426,4305.897461,4305.897461,4307.436035,4299.230957,4289.743652,4481.410156,4505.769043,4370.384766,4428.333496,3353.000000,2.000000,52.000000,,,,0.000000,4.000000,4.000000,4.000000,4.000000,4.000000,4.000000,4.000000,4.000000,4.000000,4.000000,4.000000,4.000000,4.000000,4.000000,100.000000,1.000000,83.333336,4.000000,4.000000,3.000000,4.000000,3.000000,4.000000,4.000000,4.000000,4.000000,4.000000,4.000000,4.000000,4.000000,4.000000,1.000000,0.284465,-0.891699,-1.487912,0.697114,1.000000,0.000000,2.599095,2.599095,12.244337,0.023270,1.000000,0.377593,71.046898,-84.071167,303.680542,1.000000,0.697059,0.261992,0.092958,0.249747,1.000000,0.478623,5.942803,-4.253914,17.519217,1.000000,0.056587,0.056587,0.000000,1.000000
1665772172.355930,1665772172.356653,94.000000,0.000000,4311.153809,4287.563965,4313.589844,4311.794922,4291.153809,4305.384766,4300.000000,4307.051270,4295.128418,4292.051270,4486.922852,4503.333496,4375.384766,4433.717773,2566.000000,2.000000,52.000000,,,,0.000000,4.000000,4.000000,4.000000,4.000000,4.000000,4.000000,4.000000,4.000000,4.000000,4.000000,4.000000,4.000000,4.000000,4.000000,100.000000,,,,,,,,,,,,,,,,,,,,,,,,,,,,,,,,,,,,,,,,,,,,,,,
1665772172.363738,1665772172.364462,95.000000,0.000000,4325.000000,4299.615234,4320.000000,4318.461426,4302.051270,4298.461426,4292.692383,4306.794922,4296.282227,4297.436035,4498.589844,4517.051270,4393.461426,4446.282227,2563.000000,2.000000,52.000000,,,,0.000000,4.000000,4.000000,4.000000,4.000000,4.000000,4.000000,4.000000,4.000000,4.000000,4.000000,4.000000,4.000000,4.000000,4.000000,100.000000,,,,,,,,,,,,,,,,,,,,,,,,,,,,,,,,,,,,,,,,,,,,,,,
1665772172.371547,1665772172.372170,96.000000,0.000000,4332.948730,4306.922852,4330.512695,4322.051270,4311.666504,4294.615234,4288.589844,4302.051270,4293.461426,4295.769043,4501.794922,4526.794922,4397.307617,4458.717773,2718.000000,2.000000,52.000000,,,,0.000000,4.000000,4.000000,4.000000,4.000000,4.000000,4.000000,4.000000,4.000000,4.000000,4.000000,4.000000,4.000000,4.000000,4.000000,100.000000,,,,,,,,,,,,,,,,,,,,,,,,,,,,,,,,,,,,,,,,,,,,,,,
1665772172.379355,1665772172.379979,97.000000,0.000000,4336.025879,4312.051270,4336.153809,4328.077148,4310.256348,4293.333496,4284.743652,4296.922852,4284.102539,4290.128418,4496.025879,4524.230957,4389.230957,4463.461426,3353.000000,2.000000,52.000000,,,,0.000000,4.000000,4.000000,4.000000,4.000000,4.000000,4.000000,4.000000,4.000000,4.000000,4.000000,4.000000,4.000000,4.000000,4.000000,100.000000,,,,,,,,,,,,,,,,,,,,,,,,,,,,,,,,,,,,,,,,,,,,,,,
1665772172.387164,1665772172.387687,98.000000,0.000000,4337.051270,4318.461426,4335.384766,4335.512695,4312.820313,4297.179688,4288.589844,4294.615234,4278.589844,4286.666504,4497.051270,4522.948730,4388.461426,4463.717773,2566.000000,2.000000,52.000000,,,,0.000000,4.000000,4.000000,4.000000,4.000000,4.000000,4.000000,4.000000,4.000000,4.000000,4.000000,4.000000,4.000000,4.000000,4.000000,100.000000,,,,,,,,,,,,,,,,,,,,,,,,,,,,,,,,,,,,,,,,,,,,,,,
1665772172.394972,1665772172.395496,99.000000,0.000000,4336.153809,4325.512695,4338.205078,4339.487305,4325.128418,4306.538574,4306.666504,4297.179688,4283.461426,4284.487305,4503.846191,4524.743652,4393.717773,4463.077148,2563.000000,2.000000,52.000000,,,,0.000000,4.000000,4.000000,4.000000,4.000000,4.000000,4.000000,4.000000,4.000000,4.000000,4.000000,4.000000,4.000000,4.000000,4.000000,100.000000,,,,,,,,,,,,,,,,,,,,,,,,,,,,,,,,,,,,,,,,,,,,,,,
1665772172.402780,1665772172.403204,100.000000,0.000000,4329.615234,4321.794922,4336.410156,4334.230957,4327.948730,4313.077148,4320.897461,4307.307617,4291.794922,4283.974121,4500.897461,4527.179688,4390.512695,4457.948730,2718.000000,2.000000,52.000000,,,,0.000000,4.000000,4.000000,4.000000,4.000000,4.000000,4.000000,4.000000,4.000000,4.000000,4.000000,4.000000,4.000000,4.000000,4.000000,100.000000,,,,,,,,,,,,,,,,,,,,,,,,,,,,,,,,,,,,,,,,,,,,,,,
1665772172.410589,1665772172.411013,101.000000,0.000000,4312.692383,4305.000000,4322.179688,4320.128418,4313.333496,4310.512695,4317.563965,4312.436035,4293.333496,4282.179688,4491.025879,4522.051270,4378.461426,4442.436035,3353.000000,2.000000,52.000000,,,,0.000000,4.000000,4.000000,4.000000,4.000000,4.000000,4.000000,4.000000,4.000000,4.000000,4.000000,4.000000,4.000000,4.000000,4.000000,100.000000,,,,,,,,,,,,,,,,,,,,,,,,,,,,,,,,,,,,,,,,,,,,,,,
1665772172.418397,1665772172.418721,102.000000,0.000000,4295.384766,4291.538574,4310.769043,4305.128418,4301.410156,4306.153809,4312.051270,4309.871582,4293.846191,4277.820313,4488.205078,4508.846191,4370.769043,4427.436035,2566.000000,2.000000,52.000000,,,,0.000000,4.000000,4.000000,4.000000,4.000000,4.000000,4.000000,4.000000,4.000000,4.000000,4.000000,4.000000,4.000000,4.000000,4.000000,100.000000,,,,,,,,,,,,,,,,,,,,,,,,,,,,,,,,,,,,,,,,,,,,,,,
1665772172.426206,1665772172.426630,103.000000,0.000000,4293.589844,4292.179688,4307.563965,4299.743652,4305.641113,4309.230957,4316.794922,4316.794922,4301.922852,4280.641113,4489.487305,4504.615234,4371.538574,4428.461426,2563.000000,2.000000,52.000000,,,,0.000000,4.000000,4.000000,4.000000,4.000000,4.000000,4.000000,4.000000,4.000000,4.000000,4.000000,4.000000,4.000000,4.000000,4.000000,100.000000,,,,,,,,,,,,,,,,,,,,,,,,,,,,,,,,,,,,,,,,,,,,,,,
1665772172.434014,1665772172.434438,104.000000,0.000000,4295.769043,4293.974121,4304.358887,4296.538574,4306.794922,4313.077148,4317.179688,4323.974121,4311.282227,4285.641113,4490.384766,4508.974121,4373.077148,4433.717773,2718.000000,2.000000,52.000000,,,,0.000000,4.000000,4.000000,4.000000,4.000000,4.000000,4.000000,4.000000,4.000000,4.000000,4.000000,4.000000,4.000000,4.000000,4.000000,100.000000,,,,,,,,,,,,,,,,,,,,,,,,,,,,,,,,,,,,,,,,,,,,,,,
1665772172.441822,1665772172.442346,105.000000,0.000000,4290.512695,4285.641113,4302.051270,4289.102539,4298.589844,4312.436035,4313.205078,4320.128418,4310.384766,4283.077148,4491.410156,4505.641113,4372.051270,4428.077148,3353.000000,2.000000,52.000000,,,,0.000000,4.000000,4.000000,4.000000,4.000000,4.000000,4.000000,4.000000,4.000000,4.000000,4.000000,4.000000,4.000000,4.000000,4.000000,100.000000,,,,,,,,,,,,,,,,,,,,,,,,,,,,,,,,,,,,,,,,,,,,,,,
1665772172.449631,1665772172.450155,106.000000,0.000000,4291.282227,4282.307617,4302.948730,4290.512695,4297.179688,4308.461426,4312.820313,4315.641113,4304.615234,4284.743652,4489.743652,4502.692383,4376.410156,4422.948730,2566.000000,2.000000,52.000000,,,,0.000000,4.000000,4.000000,4.000000,4.000000,4.000000,4.000000,4.000000,4.000000,4.000000,4.000000,4.000000,4.000000,4.000000,4.000000,100.000000,,,,,,,,,,,,,,,,,,,,,,,,,,,,,,,,,,,,,,,,,,,,,,,
1665772172.457439,1665772172.457963,107.000000,0.000000,4302.692383,4289.487305,4305.641113,4299.230957,4298.205078,4302.436035,4307.563965,4311.794922,4303.077148,4292.307617,4490.128418,4506.410156,4381.025879,4430.384766,2563.000000,2.000000,52.000000,,,,0.000000,4.000000,4.000000,4.000000,4.000000,4.000000,4.000000,4.000000,4.000000,4.000000,4.000000,4.000000,4.000000,4.000000,4.000000,100.000000,,,,,,,,,,,,,,,,,,,,,,,,,,,,,,,,,,,,,,,,,,,,,,,
1665772172.465248,1665772172.465672,108.000000,0.000000,4312.948730,4293.589844,4306.666504,4305.000000,4297.436035,4298.205078,4295.128418,4303.205078,4298.077148,4292.820313,4490.128418,4506.153809,4382.563965,4439.102539,2718.000000,2.000000,52.000000,1,1,1,0.000000,4.000000,4.000000,4.000000,4.000000,4.000000,4.000000,4.000000,4.000000,4.000000,4.000000,4.000000,4.000000,4.000000,4.000000,100.000000,,,,,,,,,,,,,,,,,,,,,,,,,,,,,,,,,,,,,,,,,,,,,,,
1665772172.473056,1665772172.473480,109.000000,0.000000,4321.410156,4300.384766,4307.563965,4311.666504,4304.230957,4300.000000,4292.436035,4300.769043,4286.025879,4289.743652,4488.717773,4507.820313,4386.538574,4440.256348,3353.000000,2.000000,52.000000,,,,0.000000,4.000000,4.000000,4.000000,4.000000,4.000000,4.000000,4.000000,4.000000,4.000000,4.000000,4.000000,4.000000,4.000000,4.000000,100.000000,,,,,,,,,,,,,,,,,,,,,,,,,,,,,,,,,,,,,,,,,,,,,,,
1665772172.480864,1665772172.481189,110.000000,0.000000,4334.102539,4315.641113,4317.692383,4319.743652,4312.436035,4305.897461,4300.256348,4301.153809,4278.974121,4286.922852,4490.128418,4517.692383,4388.717773,4446.666504,2566.000000,2.000000,52.000000,,,,0.000000,4.000000,4.000000,4.000000,4.000000,4.000000,4.000000,4.000000,4.000000,4.000000,4.000000,4.000000,4.000000,4.000000,4.000000,100.000000,,,,,,,,,,,,,,,,,,,,,,,,,,,,,,,,,,,,,,,,,,,,,,,
1665772172.488673,1665772172.489097,111.000000,0.000000,4343.974121,4323.974121,4331.794922,4325.641113,4318.333496,4311.666504,4306.794922,4293.846191,4279.102539,4282.820313,4496.025879,4529.230957,4389.230957,4459.743652,2563.000000,2.000000,52.000000,,,,0.000000,4.000000,4.000000,4.000000,4.000000,4.000000,4.000000,4.000000,4.000000,4.000000,4.000000,4.000000,4.000000,4.000000,4.000000,100.000000,,,,,,,,,,,,,,,,,,,,,,,,,,,,,,,,,,,,,,,,,,,,,,,
1665772172.496481,1665772172.496906,112.000000,0.000000,4343.846191,4323.589844,4337.051270,4328.974121,4325.384766,4310.512695,4311.538574,4295.641113,4281.025879,4285.000000,4503.717773,4537.563965,4395.000000,4463.333496,2718.000000,2.000000,52.000000,,,,0.000000,4.000000,4.000000,4.000000,4.000000,4.000000,4.000000,4.000000,4.000000,4.000000,4.000000,4.000000,4.000000,4.000000,4.000000,100.000000,,,,,,,,,,,,,,,,,,,,,,,,,,,,,,,,,,,,,,,,,,,,,,,
1665772172.504289,1665772172.504814,113.000000,0.000000,4341.666504,4323.461426,4335.384766,4325.256348,4321.153809,4301.794922,4311.025879,4307.948730,4285.897461,4289.358887,4507.179688,4541.282227,4397.179688,4460.256348,3353.000000,2.000000,52.000000,,,,0.000000,4.000000,4.000000,4.000000,4.000000,4.000000,4.000000,4.000000,4.000000,4.000000,4.000000,4.000000,4.000000,4.000000,4.000000,100.000000,,,,,,,,,,,,,,,,,,,,,,,,,,,,,,,,,,,,,,,,,,,,,,,
1665772172.512098,1665772172.512622,114.000000,0.000000,4336.538574,4316.538574,4333.077148,4315.641113,4309.102539,4295.384766,4303.589844,4312.436035,4293.461426,4290.000000,4508.717773,4535.641113,4389.230957,4459.230957,2566.000000,2.000000,52.000000,,,,0.000000,4.000000,4.000000,4.000000,4.000000,4.000000,4.000000,4.000000,4.000000,4.000000,4.000000,4.000000,4.000000,4.000000,4.000000,100.000000,,,,,,,,,,,,,,,,,,,,,,,,,,,,,,,,,,,,,,,,,,,,,,,
1665772172.519906,1665772172.520531,115.000000,0.000000,4329.487305,4310.256348,4330.384766,4312.051270,4307.307617,4296.794922,4304.358887,4313.589844,4300.000000,4295.128418,4506.282227,4527.436035,4383.589844,4454.743652,2563.000000,2.000000,52.000000,,,,0.000000,4.000000,4.000000,4.000000,4.000000,4.000000,4.000000,4.000000,4.000000,4.000000,4.000000,4.000000,4.000000,4.000000,4.000000,100.000000,,,,,,,,,,,,,,,,,,,,,,,,,,,,,,,,,,,,,,,,,,,,,,,
1665772172.527715,1665772172.528339,116.000000,0.000000,4325.512695,4312.563965,4327.436035,4308.461426,4313.974121,4301.282227,4314.230957,4317.563965,4302.436035,4294.871582,4496.794922,4520.641113,4379.230957,4443.974121,2718.000000,2.000000,52.000000,,,,0.000000,4.000000,4.000000,4.000000,4.000000,4.000000,4.000000,4.000000,4.000000,4.000000,4.000000,4.000000,4.000000,4.000000,4.000000,100.000000,,,,,,,,,,,,,,,,,,,,,,,,,,,,,,,,,,,,,,,,,,,,,,,
1665772172.535523,1665772172.536248,117.000000,0.000000,4318.205078,4306.153809,4322.051270,4299.487305,4313.846191,4306.794922,4316.410156,4315.256348,4300.384766,4282.051270,4489.102539,4512.307617,4368.589844,4432.307617,3353.000000,2.000000,52.000000,,,,0.000000,4.000000,4.000000,4.000000,4.000000,4.000000,4.000000,4.000000,4.000000,4.000000,4.000000,4.000000,4.000000,4.000000,4.000000,100.000000,,,,,,,,,,,,,,,,,,,,,,,,,,,,,,,,,,,,,,,,,,,,,,,
1665772172.543331,1665772172.544056,118.000000,0.000000,4309.871582,4295.512695,4313.974121,4292.948730,4299.102539,4304.230957,4306.410156,4306.922852,4296.922852,4275.384766,4483.077148,4500.384766,4360.769043,4426.025879,2566.000000,2.000000,52.000000,,,,0.000000,4.000000,4.000000,4.000000,4.000000,4.000000,4.000000,4.000000,4.000000,4.000000,4.000000,4.000000,4.000000,4.000000,4.000000,100.000000,,,,,,,,,,,,,,,,,,,,,,,,,,,,,,,,,,,,,,,,,,,,,,,
1665772172.551140,1665772172.551964,119.000000,0.000000,4309.230957,4295.897461,4309.615234,4293.333496,4291.282227,4295.000000,4296.922852,4299.615234,4295.128418,4278.461426,4476.794922,4494.743652,4364.871582,4426.794922,2563.000000,2.000000,52.000000,,,,0.000000,4.000000,4.000000,4.000000,4.000000,4.000000,4.000000,4.000000,4.000000,4.000000,4.000000,4.000000,4.000000,4.000000,4.000000,100.000000,,,,,,,,,,,,,,,,,,,,,,,,,,,,,,,,,,,,,,,,,,,,,,,
1665772172.558948,1665772172.559773,120.000000,0.000000,4311.922852,4298.205078,4309.358887,4292.563965,4303.589844,4297.179688,4298.333496,4296.538574,4293.846191,4280.384766,4476.538574,4497.820313,4372.692383,4426.922852,2718.000000,2.000000,52.000000,,,,0.000000,4.000000,4.000000,4.000000,4.000000,4.000000,4.000000,4.000000,4.000000,4.000000,4.000000,4.000000,4.000000,4.000000,4.000000,100.000000,,,,,,,,,,,,,,,,,,,,,,,,,,,,,,,,,,,,,,,,,,,,,,,
1665772172.566757,1665772172.567581,121.000000,0.000000,4311.153809,4292.948730,4304.487305,4286.282227,4307.051270,4306.410156,4298.205078,4296.794922,4292.820313,4278.974121,4479.743652,4501.666504,4373.461426,4424.871582,3353.000000,2.000000,52.000000,,,,0.000000,4.000000,4.000000,4.000000,4.000000,4.000000,4.000000,4.000000,4.000000,4.000000,4.000000,4.000000,4.000000,4.000000,4.000000,100.000000,,,,,,,,,,,,,,,,,,,,,,,,,,,,,,,,,,,,,,,,,,,,,,,
1665772172.574565,1665772172.575390,122.000000,0.000000,4311.922852,4290.512695,4301.666504,4284.230957,4294.487305,4301.538574,4288.333496,4295.512695,4294.871582,4280.512695,4482.436035,4507.563965,4374.487305,4432.948730,2566.000000,2.000000,52.000000,,,,0.000000,4.000000,4.000000,4.000000,4.000000,4.000000,4.000000,4.000000,4.000000,4.000000,4.000000,4.000000,4.000000,4.000000,4.000000,100.000000,,,,,,,,,,,,,,,,,,,,,,,,,,,,,,,,,,,,,,,,,,,,,,,
1665772172.582373,1665772172.583098,123.000000,0.000000,4320.256348,4302.307617,4310.641113,4292.820313,4297.948730,4294.615234,4287.692383,4296.922852,4295.769043,4292.948730,4497.563965,4521.153809,4389.102539,4445.128418,2563.000000,2.000000,52.000000,,,,0.000000,4.000000,4.000000,4.000000,4.000000,4.000000,4.000000,4.000000,4.000000,4.000000,4.000000,4.000000,4.000000,4.000000,4.000000,100.000000,,,,,,,,,,,,,,,,,,,,,,,,,,,,,,,,,,,,,,,,,,,,,,,
1665772172.590182,1665772172.590907,124.000000,0.000000,4331.538574,4315.256348,4321.794922,4306.282227,4316.025879,4302.051270,4299.743652,4306.153809,4298.461426,4305.384766,4511.538574,4532.563965,4403.846191,4448.717773,2718.000000,2.000000,52.000000,,,,0.000000,4.000000,4.000000,4.000000,4.000000,4.000000,4.000000,4.000000,4.000000,4.000000,4.000000,4.000000,4.000000,4.000000,4.000000,100.000000,,,,,,,,,,,,,,,,,,,,,,,,,,,,,,,,,,,,,,,,,,,,,,,
1665772172.597990,1665772172.598615,125.000000,0.000000,4335.000000,4320.769043,4325.000000,4312.692383,4324.487305,4313.077148,4311.538574,4313.333496,4298.974121,4301.794922,4503.717773,4533.205078,4397.436035,4444.871582,3353.000000,2.000000,52.000000,,,,0.000000,4.000000,4.000000,4.000000,4.000000,4.000000,4.000000,4.000000,4.000000,4.000000,4.000000,4.000000,4.000000,4.000000,4.000000,100.000000,,,,,,,,,,,,,,,,,,,,,,,,,,,,,,,,,,,,,,,,,,,,,,,
1665772172.605798,1665772172.606424,126.000000,0.000000,4329.358887,4323.333496,4326.025879,4314.230957,4326.922852,4314.358887,4319.230957,4312.051270,4289.358887,4289.102539,4492.948730,4526.025879,4380.641113,4436.922852,2566.000000,2.000000,52.000000,,,,0.000000,4.000000,4.000000,4.000000,4.000000,4.000000,4.000000,4.000000,4.000000,4.000000,4.000000,4.000000,4.000000,4.000000,4.000000,100.000000,,,,,,,,,,,,,,,,,,,,,,,,,,,,,,,,,,,,,,,,,,,,,,,
1665772172.613607,1665772172.614132,127.000000,0.000000,4326.282227,4321.025879,4324.102539,4312.563965,4327.820313,4309.358887,4318.974121,4306.922852,4278.589844,4276.922852,4486.538574,4513.974121,4370.384766,4428.974121,52.000000,2.000000,52.000000,,,,0.000000,4.000000,4.000000,4.000000,4.000000,4.000000,4.000000,4.000000,4.000000,4.000000,4.000000,4.000000,4.000000,4.000000,4.000000,100.000000,,,,,,,,,,,,,,,,,,,,,,,,,,,,,,,,,,,,,,,,,,,,,,,
1665772172.621415,1665772172.621941,0.000000,0.000000,4323.461426,4315.897461,4318.333496,4307.307617,4321.922852,4311.410156,4314.487305,4307.563965,4278.717773,4270.769043,4480.000000,4506.153809,4367.948730,4426.794922,2039.000000,2.000000,52.000000,,,,0.000000,4.000000,4.000000,4.000000,4.000000,4.000000,4.000000,4.000000,4.000000,4.000000,4.000000,4.000000,4.000000,4.000000,4.000000,100.000000,,,,,,,,,,,,,,,,,,,,,,,,,,,,,,,,,,,,,,,,,,,,,,,
1665772172.629224,1665772172.629649,1.000000,0.000000,4314.487305,4310.641113,4311.794922,4298.717773,4314.743652,4314.487305,4315.256348,4312.820313,4283.717773,4272.307617,4478.461426,4503.333496,4366.282227,4424.230957,2162.000000,2.000000,52.000000,,,,0.000000,4.000000,4.000000,4.000000,4.000000,4.000000,4.000000,4.000000,4.000000,4.000000,4.000000,4.000000,4.000000,4.000000,4.000000,100.000000,,,,,,,,,,,,,,,,,,,,,,,,,,,,,,,,,,,,,,,,,,,,,,,
1665772172.637032,1665772172.637458,2.000000,0.000000,4306.025879,4301.794922,4306.794922,4285.897461,4311.153809,4305.000000,4311.922852,4310.512695,4280.769043,4271.025879,4477.820313,4492.307617,4361.153809,4413.205078,2266.000000,2.000000,52.000000,,,,0.000000,4.000000,4.000000,4.000000,4.000000,4.000000,4.000000,4.000000,4.000000,4.000000,4.000000,4.000000,4.000000,4.000000,4.000000,100.000000,,,,,,,,,,,,,,,,,,,,,,,,,,,,,,,,,,,,,,,,,,,,,,,
1665772172.644840,1665772172.645166,3.000000,0.000000,4302.051270,4297.820313,4302.436035,4280.256348,4311.282227,4296.153809,4301.922852,4304.102539,4278.717773,4268.589844,4474.743652,4483.974121,4360.256348,4408.589844,2301.000000,2.000000,52.000000,,,,0.000000,4.000000,4.000000,4.000000,4.000000,4.000000,4.000000,4.000000,4.000000,4.000000,4.000000,4.000000,4.000000,4.000000,4.000000,100.000000,,,,,,,,,,,,,,,,,,,,,,,,,,,,,,,,,,,,,,,,,,,,,,,
1665772172.652649,1665772172.652975,4.000000,0.000000,4305.769043,4306.538574,4305.000000,4288.333496,4313.077148,4303.717773,4304.743652,4306.666504,4287.820313,4275.769043,4480.128418,4494.743652,4368.205078,4420.128418,2383.000000,2.000000,52.000000,,,,0.000000,4.000000,4.000000,4.000000,4.000000,4.000000,4.000000,4.000000,4.000000,4.000000,4.000000,4.000000,4.000000,4.000000,4.000000,100.000000,,,,,,,,,,,,,,,,,,,,,,,,,,,,,,,,,,,,,,,,,,,,,,,
1665772172.660457,1665772172.660683,5.000000,0.000000,4316.025879,4312.179688,4310.769043,4292.820313,4311.922852,4306.025879,4306.410156,4306.666504,4294.743652,4285.512695,4490.512695,4507.692383,4375.769043,4431.025879,2282.000000,2.000000,52.000000,,,,0.000000,4.000000,4.000000,4.000000,4.000000,4.000000,4.000000,4.000000,4.000000,4.000000,4.000000,4.000000,4.000000,4.000000,4.000000,100.000000,,,,,,,,,,,,,,,,,,,,,,,,,,,,,,,,,,,,,,,,,,,,,,,
1665772172.668266,1665772172.668492,6.000000,0.000000,4323.205078,4310.000000,4312.820313,4287.692383,4308.461426,4295.769043,4294.487305,4298.717773,4293.717773,4288.333496,4493.846191,4511.410156,4379.230957,4430.641113,2119.000000,2.000000,52.000000,,,,0.000000,4.000000,4.000000,4.000000,4.000000,4.000000,4.000000,4.000000,4.000000,4.000000,4.000000,4.000000,4.000000,4.000000,4.000000,100.000000,,,,,,,,,,,,,,,,,,,,,,,,,,,,,,,,,,,,,,,,,,,,,,,
1665772172.676074,1665772172.676200,7.000000,0.000000,4326.153809,4311.153809,4315.000000,4285.641113,4308.589844,4298.717773,4290.256348,4297.820313,4292.820313,4289.487305,4495.641113,4520.769043,4382.948730,4431.025879,2194.000000,2.000000,52.000000,,,,0.000000,4.000000,4.000000,4.000000,4.000000,4.000000,4.000000,4.000000,4.000000,4.000000,4.000000,4.000000,4.000000,4.000000,4.000000,100.000000,,,,,,,,,,,,,,,,,,,,,,,,,,,,,,,,,,,,,,,,,,,,,,,
1665772172.683882,1665772172.684009,8.000000,0.000000,4328.333496,4312.436035,4313.461426,4285.128418,4311.410156,4308.846191,4296.794922,4299.102539,4294.230957,4295.769043,4495.641113,4523.333496,4382.179688,4434.102539,2301.000000,2.000000,52.000000,,,,0.000000,4.000000,4.000000,4.000000,4.000000,4.000000,4.000000,4.000000,4.000000,4.000000,4.000000,4.000000,4.000000,4.000000,4.000000,100.000000,,,,,,,,,,,,,,,,,,,,,,,,,,,,,,,,,,,,,,,,,,,,,,,
1665772172.691691,1665772172.691717,9.000000,0.000000,4324.743652,4308.589844,4309.102539,4281.025879,4311.794922,4311.025879,4305.000000,4299.871582,4294.230957,4295.512695,4492.948730,4510.384766,4376.025879,4426.922852,2423.000000,2.000000,52.000000,,,,0.000000,4.000000,4.000000,4.000000,4.000000,4.000000,4.000000,4.000000,4.000000,4.000000,4.000000,4.000000,4.000000,4.000000,4.000000,100.000000,,,,,,,,,,,,,,,,,,,,,,,,,,,,,,,,,,,,,,,,,,,,,,,
1665772172.699499,1665772172.699626,10.000000,0.000000,4317.051270,4301.538574,4309.487305,4280.769043,4310.897461,4312.307617,4311.666504,4308.461426,4295.000000,4285.256348,4487.820313,4506.410156,4369.871582,4420.384766,2556.000000,2.000000,52.000000,,,,0.000000,4.000000,4.000000,4.000000,4.000000,4.000000,4.000000,4.000000,4.000000,4.000000,4.000000,4.000000,4.000000,4.000000,4.000000,100.000000,,,,,,,,,,,,,,,,,,,,,,,,,,,,,,,,,,,,,,,,,,,,,,,
1665772172.707307,1665772172.707434,11.000000,0.000000,4311.538574,4295.384766,4310.000000,4281.025879,4310.512695,4311.282227,4315.000000,4313.846191,4295.128418,4278.589844,4478.717773,4509.487305,4360.641113,4420.128418,2560.000000,2.000000,52.000000,,,,0.000000,4.000000,4.000000,4.000000,4.000000,4.000000,4.000000,4.000000,4.000000,4.000000,4.000000,4.000000,4.000000,4.000000,4.000000,100.000000,,,,,,,,,,,,,,,,,,,,,,,,,,,,,,,,,,,,,,,,,,,,,,,
1665772172.715116,1665772172.715342,12.000000,0.000000,4308.077148,4295.128418,4303.333496,4278.461426,4311.538574,4309.358887,4314.871582,4310.769043,4294.358887,4280.384766,4474.487305,4495.897461,4355.128418,4414.871582,2723.000000,2.000000,52.000000,,,,0.000000,4.000000,4.000000,4.000000,4.000000,4.000000,4.000000,4.000000,4.000000,4.000000,4.000000,4.000000,4.000000,4.000000,4.000000,100.000000,,,,,,,,,,,,,,,,,,,,,,,,,,,,,,,,,,,,,,,,,,,,,,,
1665772172.722924,1665772172.723151,13.000000,0.000000,4309.615234,4298.846191,4300.641113,4281.794922,4314.102539,4307.820313,4310.384766,4312.179688,4296.282227,4278.077148,4482.307617,4490.256348,4360.384766,4415.641113,3345.000000,2.000000,52.000000,,,,0.000000,4.000000,4.000000,4.000000,4.000000,4.000000,4.000000,4.000000,4.000000,4.000000,4.000000,4.000000,4.000000,4.000000,4.000000,100.000000,,,,,,,,,,,,,,,,,,,,,,,,,,,,,,,,,,,,,,,,,,,,,,,
1665772172.730733,1665772172.731059,14.000000,0.000000,4318.717773,4304.743652,4304.871582,4290.000000,4314.487305,4302.051270,4303.717773,4315.000000,4296.922852,4277.820313,4491.410156,4505.897461,4368.333496,4427.820313,2556.000000,2.000000,52.000000,,,,0.000000,4.000000,4.000000,4.000000,4.000000,4.000000,4.000000,4.000000,4.000000,4.000000,4.000000,4.000000,4.000000,4.000000,4.000000,100.000000,,,,,,,,,,,,,,,,,,,,,,,,,,,,,,,,,,,,,,,,,,,,,,,
1665772172.738541,1665772172.738868,15.000000,0.000000,4323.846191,4305.512695,4305.000000,4289.743652,4312.051270,4298.205078,4303.205078,4311.666504,4293.461426,4280.000000,4490.512695,4507.436035,4369.230957,4430.512695,2560.000000,2.000000,52.000000,,,,0.000000,4.000000,4.000000,4.000000,4.000000,4.000000,4.000000,4.000000,4.000000,4.000000,4.000000,4.000000,4.000000,4.000000,4.000000,100.000000,,,,,,,,,,,,,,,,,,,,,,,,,,,,,,,,,,,,,,,,,,,,,,,
1665772172.746349,1665772172.746776,16.000000,0.000000,4317.436035,4299.102539,4301.025879,4283.589844,4309.102539,4300.512695,4301.666504,4307.436035,4288.974121,4272.051270,4488.205078,4490.769043,4366.153809,4420.897461,0.000000,2.000000,52.000000,,,,0.000000,4.000000,4.000000,4.000000,4.000000,4.000000,4.000000,4.000000,4.000000,4.000000,4.000000,4.000000,4.000000,4.000000,4.000000,100.000000,,,,,,,,,,,,,,,,,,,,,,,,,,,,,,,,,,,,,,,,,,,,,,,
1665772172.754158,1665772172.754584,17.000000,0.000000,4313.205078,4299.487305,4299.358887,4287.051270,4311.794922,4299.358887,4294.871582,4299.615234,4288.077148,4263.717773,4488.974121,4487.179688,4365.128418,4418.461426,0.000000,2.000000,52.000000,,,,0.000000,4.000000,4.000000,4.000000,4.000000,4.000000,4.000000,4.000000,4.000000,4.000000,4.000000,4.000000,4.000000,4.000000,4.000000,100.000000,,,,,,,,,,,,,,,,,,,,,,,,,,,,,,,,,,,,,,,,,,,,,,,
1665772172.761966,1665772172.762493,18.000000,0.000000,4314.743652,4301.538574,4299.615234,4297.820313,4310.128418,4295.769043,4294.102539,4291.025879,4287.179688,4264.743652,4485.128418,4487.179688,4364.743652,4417.563965,0.000000,2.000000,52.000000,,,,0.000000,4.000000,4.000000,4.000000,4.000000,4.000000,4.000000,4.000000,4.000000,4.000000,4.000000,4.000000,4.000000,4.000000,4.000000,100.000000,,,,,,,,,,,,,,,,,,,,,,,,,,,,,,,,,,,,,,,,,,,,,,,
1665772172.769775,1665772172.770301,19.000000,0.000000,4311.922852,4296.794922,4301.538574,4304.102539,4302.051270,4296.666504,4296.410156,4292.051270,4283.077148,4265.128418,4476.538574,4480.384766,4361.794922,4413.077148,0.000000,2.000000,52.000000,,,,0.000000,4.000000,4.000000,4.000000,4.000000,4.000000,4.000000,4.000000,4.000000,4.000000,4.000000,4.000000,4.000000,4.000000,4.000000,100.000000,,,,,,,,,,,,,,,,,,,,,,,,,,,,,,,,,,,,,,,,,,,,,,,
1665772172.777583,1665772172.778010,20.000000,0.000000,4301.153809,4292.051270,4300.384766,4306.666504,4298.461426,4296.794922,4288.461426,4291.282227,4282.051270,4262.948730,4473.974121,4481.153809,4354.615234,4413.077148,0.000000,2.000000,52.000000,,,,0.000000,4.000000,4.000000,4.000000,4.000000,4.000000,4.000000,4.000000,4.000000,4.000000,4.000000,4.000000,4.000000,4.000000,4.000000,100.000000,,,,,,,,,,,,,,,,,,,,,,,,,,,,,,,,,,,,,,,,,,,,,,,
1665772172.785391,1665772172.785818,21.000000,0.000000,4292.307617,4283.205078,4296.922852,4308.461426,4289.358887,4293.205078,4280.512695,4284.615234,4281.922852,4260.897461,4474.230957,4480.897461,4348.974121,4411.410156,0.000000,2.000000,52.000000,,,,0.000000,4.000000,4.000000,4.000000,4.000000,4.000000,4.000000,4.000000,4.000000,4.000000,4.000000,4.000000,4.000000,4.000000,4.000000,100.000000,,,,,,,,,,,,,,,,,,,,,,,,,,,,,,,,,,,,,,,,,,,,,,,
1665772172.793200,1665772172.793527,22.000000,0.000000,4292.051270,4278.589844,4300.256348,4317.436035,4280.384766,4293.333496,4286.538574,4286.410156,4280.897461,4258.077148,4471.538574,4478.461426,4350.641113,4408.205078,0.000000,2.000000,52.000000,,,,0.000000,4.000000,4.000000,4.000000,4.000000,4.000000,4.000000,4.000000,4.000000,4.000000,4.000000,4.000000,4.000000,4.000000,4.000000,100.000000,,,,,,,,,,,,,,,,,,,,,,,,,,,,,,,,,,,,,,,,,,,,,,,
1665772172.801008,1665772172.801335,23.000000,0.000000,4297.179688,4288.974121,4313.333496,4332.948730,4290.000000,4297.179688,4296.666504,4301.410156,4285.897461,4262.820313,4476.794922,4488.974121,4359.615234,4412.051270,0.000000,2.000000,52.000000,,,,0.000000,4.000000,4.000000,4.000000,4.000000,4.000000,4.000000,4.000000,4.000000,4.000000,4.000000,4.000000,4.000000,4.000000,4.000000,100.000000,,,,,,,,,,,,,,,,,,,,,,,,,,,,,,,,,,,,,,,,,,,,,,,
1665772172.808817,1665772172.809044,24.000000,0.000000,4295.769043,4292.948730,4316.666504,4338.717773,4293.589844,4298.846191,4301.153809,4309.358887,4288.974121,4266.922852,4481.666504,4497.436035,4360.128418,4417.436035,0.000000,2.000000,52.000000,,,,0.000000,4.000000,4.000000,4.000000,4.000000,4.000000,4.000000,4.000000,4.000000,4.000000,4.000000,4.000000,4.000000,4.000000,4.000000,100.000000,,,,,,,,,,,,,,,,,,,,,,,,,,,,,,,,,,,,,,,,,,,,,,,
1665772172.816625,1665772172.816852,25.000000,0.000000,4288.205078,4281.153809,4305.000000,4334.230957,4279.358887,4294.358887,4299.230957,4300.641113,4282.436035,4255.769043,4471.025879,4488.205078,4348.461426,4415.256348,0.000000,2.000000,52.000000,,,,0.000000,4.000000,4.000000,4.000000,4.000000,4.000000,4.000000,4.000000,4.000000,4.000000,4.000000,4.000000,4.000000,4.000000,4.000000,100.000000,,,,,,,,,,,,,,,,,,,,,,,,,,,,,,,,,,,,,,,,,,,,,,,
1665772172.824433,1665772172.824561,26.000000,0.000000,4286.025879,4279.230957,4299.871582,4337.307617,4280.384766,4290.897461,4290.256348,4294.487305,4275.897461,4245.384766,4458.461426,4477.436035,4343.717773,4411.153809,0.000000,2.000000,52.000000,,,,0.000000,4.000000,4.000000,4.000000,4.000000,4.000000,4.000000,4.000000,4.000000,4.000000,4.000000,4.000000,4.000000,4.000000,4.000000,100.000000,,,,,,,,,,,,,,,,,,,,,,,,,,,,,,,,,,,,,,,,,,,,,,,
1665772172.832242,1665772172.832469,27.000000,0.000000,4287.436035,4286.282227,4303.589844,4342.563965,4295.512695,4291.025879,4281.666504,4295.897461,4275.384766,4247.179688,4459.487305,4478.717773,4350.128418,4413.974121,0.000000,2.000000,52.000000,,,,0.000000,4.000000,4.000000,4.000000,4.000000,4.000000,4.000000,4.000000,4.000000,4.000000,4.000000,4.000000,4.000000,4.000000,4.000000,100.000000,,,,,,,,,,,,,,,,,,,,,,,,,,,,,,,,,,,,,,,,,,,,,,,
1665772172.840050,1665772172.840277,28.000000,0.000000,4289.102539,4285.000000,4308.589844,4342.436035,4296.666504,4291.282227,4283.333496,4297.436035,4277.307617,4249.358887,4467.692383,4485.897461,4351.794922,4420.641113,0.000000,2.000000,52.000000,,,,0.000000,4.000000,4.000000,4.000000,4.000000,4.000000,4.000000,4.000000,4.000000,4.000000,4.000000,4.000000,4.000000,4.000000,4.000000,100.000000,,,,,,,,,,,,,,,,,,,,,,,,,,,,,,,,,,,,,,,,,,,,,,,
1665772172.847859,1665772172.848086,29.000000,0.000000,4286.922852,4283.205078,4313.077148,4341.153809,4293.205078,4291.666504,4287.948730,4296.538574,4279.615234,4247.051270,4473.077148,4491.025879,4348.589844,4424.743652,0.000000,2.000000,52.000000,,,,0.000000,4.000000,4.000000,4.000000,4.000000,4.000000,4.000000,4.000000,4.000000,4.000000,4.000000,4.000000,4.000000,4.000000,4.000000,100.000000,1.000000,91.666664,4.000000,4.000000,3.000000,4.000000,4.000000,4.000000,4.000000,4.000000,4.000000,4.000000,4.000000,4.000000,4.000000,4.000000,1.000000,0.276757,-1.067724,-1.488169,0.697162,1.000000,0.007010,2.666704,2.599095,12.244337,0.022987,1.000000,0.381981,72.487434,-84.062843,303.658508,1.000000,0.697059,0.260061,0.092958,0.249747,1.000000,0.473507,5.961854,-4.253249,17.518181,1.000000,0.058781,0.058781,0.000000,1.000000
1665772172.855667,1665772172.855794,30.000000,0.000000,4278.589844,4281.282227,4310.000000,4336.410156,4290.641113,4292.436035,4287.307617,4295.000000,4280.128418,4247.179688,4475.769043,4488.461426,4353.205078,4422.820313,0.000000,2.000000,52.000000,,,,0.000000,4.000000,4.000000,4.000000,4.000000,4.000000,4.000000,4.000000,4.000000,4.000000,4.000000,4.000000,4.000000,4.000000,4.000000,100.000000,,,,,,,,,,,,,,,,,,,,,,,,,,,,,,,,,,,,,,,,,,,,,,,
1665772172.863475,1665772172.863703,31.000000,0.000000,4276.282227,4280.128418,4302.051270,4332.692383,4289.871582,4291.922852,4287.820313,4293.205078,4277.179688,4247.563965,4474.743652,4485.769043,4357.051270,4419.358887,0.000000,2.000000,52.000000,,,,0.000000,4.000000,4.000000,4.000000,4.000000,4.000000,4.000000,4.000000,4.000000,4.000000,4.000000,4.000000,4.000000,4.000000,4.000000,100.000000,,,,,,,,,,,,,,,,,,,,,,,,,,,,,,,,,,,,,,,,,,,,,,,
1665772172.871284,1665772172.871511,32.000000,0.000000,4286.410156,4288.077148,4309.230957,4340.256348,4294.743652,4295.512695,4297.051270,4294.871582,4276.666504,4250.256348,4473.461426,4488.974121,4354.871582,4421.922852,0.000000,2.000000,52.000000,,,,0.000000,4.000000,4.000000,4.000000,4.000000,4.000000,4.000000,4.000000,4.000000,4.000000,4.000000,4.000000,4.000000,4.000000,4.000000,100.000000,,,,,,,,,,,,,,,,,,,,,,,,,,,,,,,,,,,,,,,,,,,,,,,
1665772172.879092,1665772172.879420,33.000000,0.000000,4292.436035,4298.205078,4321.922852,4355.897461,4298.333496,4301.794922,4306.153809,4300.512695,4279.615234,4257.692383,4476.666504,4493.461426,4360.897461,4428.333496,0.000000,2.000000,52.000000,,,,0.000000,4.000000,4.000000,4.000000,4.000000,4.000000,4.000000,4.000000,4.000000,4.000000,4.000000,4.000000,4.000000,4.000000,4.000000,100.000000,,,,,,,,,,,,,,,,,,,,,,,,,,,,,,,,,,,,,,,,,,,,,,,
1665772172.886901,1665772172.887228,34.000000,0.000000,4287.820313,4299.230957,4317.692383,4363.077148,4293.974121,4301.538574,4303.205078,4298.846191,4282.563965,4260.769043,4478.974121,4494.230957,4367.948730,4429.102539,0.000000,2.000000,52.000000,,,,0.000000,4.000000,4.000000,4.000000,4.000000,4.000000,4.000000,4.000000,4.000000,4.000000,4.000000,4.000000,4.000000,4.000000,4.000000,100.000000,,,,,,,,,,,,,,,,,,,,,,,,,,,,,,,,,,,,,,,,,,,,,,,
1665772172.894709,1665772172.895136,35.000000,0.000000,4281.282227,4288.461426,4303.077148,4354.230957,4284.615234,4295.384766,4290.128418,4292.692383,4281.153809,4259.487305,4475.897461,4490.256348,4360.769043,4423.077148,0.000000,2.000000,52.000000,,,,0.000000,4.000000,4.000000,4.000000,4.000000,4.000000,4.000000,4.000000,4.000000,4.000000,4.000000,4.000000,4.000000,4.000000,4.000000,100.000000,,,,,,,,,,,,,,,,,,,,,,,,,,,,,,,,,,,,,,,,,,,,,,,
1665772172.902517,1665772172.902945,36.000000,0.000000,4280.512695,4282.179688,4301.922852,4350.641113,4279.743652,4294.358887,4287.948730,4298.205078,4282.948730,4260.512695,4475.897461,4491.153809,4356.666504,4422.948730,0.000000,2.000000,52.000000,,,,0.000000,4.000000,4.000000,4.000000,4.000000,4.000000,4.000000,4.000000,4.000000,4.000000,4.000000,4.000000,4.000000,4.000000,4.000000,100.000000,,,,,,,,,,,,,,,,,,,,,,,,,,,,,,,,,,,,,,,,,,,,,,,
1665772172.910326,1665772172.910853,37.000000,0.000000,4289.615234,4289.615234,4312.692383,4362.692383,4278.589844,4293.205078,4299.102539,4309.358887,4294.102539,4267.948730,4480.769043,4503.333496,4370.384766,4428.461426,0.000000,2.000000,52.000000,,,,0.000000,4.000000,4.000000,4.000000,4.000000,4.000000,4.000000,4.000000,4.000000,4.000000,4.000000,4.000000,4.000000,4.000000,4.000000,100.000000,,,,,,,,,,,,,,,,,,,,,,,,,,,,,,,,,,,,,,,,,,,,,,,
1665772172.918134,1665772172.918662,38.000000,0.000000,4297.820313,4296.666504,4315.000000,4369.615234,4278.589844,4288.205078,4298.077148,4310.128418,4298.205078,4275.769043,4484.615234,4511.025879,4378.461426,4432.179688,0.000000,2.000000,52.000000,,,,0.000000,4.000000,4.000000,4.000000,4.000000,4.000000,4.000000,4.000000,4.000000,4.000000,4.000000,4.000000,4.000000,4.000000,4.000000,100.000000,,,,,,,,,,,,,,,,,,,,,,,,,,,,,,,,,,,,,,,,,,,,,,,
1665772172.925943,1665772172.926570,39.000000,0.000000,4300.769043,4295.897461,4313.846191,4366.282227,4289.230957,4290.256348,4291.794922,4304.743652,4294.230957,4277.179688,4488.333496,4508.077148,4376.282227,4437.307617,0.000000,2.000000,52.000000,,,,0.000000,4.000000,4.000000,4.000000,4.000000,4.000000,4.000000,4.000000,4.000000,4.000000,4.000000,4.000000,4.000000,4.000000,4.000000,100.000000,,,,,,,,,,,,,,,,,,,,,,,,,,,,,,,,,,,,,,,,,,,,,,,
1665772172.933751,1665772172.934378,40.000000,0.000000,4301.410156,4295.256348,4316.922852,4366.025879,4294.487305,4293.589844,4292.948730,4302.563965,4293.461426,4272.820313,4487.692383,4508.333496,4376.153809,4439.487305,0.000000,2.000000,52.000000,,,,0.000000,4.000000,4.000000,4.000000,4.000000,4.000000,4.000000,4.000000,4.000000,4.000000,4.000000,4.000000,4.000000,4.000000,4.000000,100.000000,,,,,,,,,,,,,,,,,,,,,,,,,,,,,,,,,,,,,,,,,,,,,,,
1665772172.941559,1665772172.942287,41.000000,0.000000,4299.743652,4294.102539,4316.666504,4367.051270,4284.615234,4291.666504,4293.205078,4298.974121,4289.358887,4267.820313,4480.000000,4509.871582,4374.743652,4435.512695,0.000000,2.000000,52.000000,,,,0.000000,4.000000,4.000000,4.000000,4.000000,4.000000,4.000000,4.000000,4.000000,4.000000,4.000000,4.000000,4.000000,4.000000,4.000000,100.000000,,,,,,,,,,,,,,,,,,,,,,,,,,,,,,,,,,,,,,,,,,,,,,,
1665772172.949368,1665772172.950095,42.000000,0.000000,4295.128418,4287.948730,4313.205078,4368.077148,4285.256348,4291.794922,4290.769043,4295.256348,4279.358887,4265.128418,4475.769043,4501.538574,4370.128418,4430.512695,0.000000,2.000000,52.000000,,,,0.000000,4.000000,4.000000,4.000000,4.000000,4.000000,4.000000,4.000000,4.000000,4.000000,4.000000,4.000000,4.000000,4.000000,4.000000,100.000000,,,,,,,,,,,,,,,,,,,,,,,,,,,,,,,,,,,,,,,,,,,,,,,
1665772172.957176,1665772172.957804,43.000000,0.000000,4293.717773,4289.743652,4316.025879,4371.538574,4297.820313,4297.563965,4296.922852,4298.077148,4276.538574,4264.743652,4477.563965,4494.871582,4368.589844,4429.743652,0.000000,2.000000,52.000000,,,,0.000000,4.000000,4.000000,4.000000,4.000000,4.000000,4.000000,4.000000,4.000000,4.000000,4.000000,4.000000,4.000000,4.000000,4.000000,100.000000,,,,,,,,,,,,,,,,,,,,,,,,,,,,,,,,,,,,,,,,,,,,,,,
1665772172.964985,1665772172.965612,44.000000,0.000000,4293.333496,4293.077148,4316.666504,4369.615234,4299.230957,4302.820313,4306.538574,4301.282227,4279.615234,4264.615234,4476.922852,4496.410156,4367.307617,4431.025879,0.000000,2.000000,52.000000,,,,0.000000,4.000000,4.000000,4.000000,4.000000,4.000000,4.000000,4.000000,4.000000,4.000000,4.000000,4.000000,4.000000,4.000000,4.000000,100.000000,,,,,,,,,,,,,,,,,,,,,,,,,,,,,,,,,,,,,,,,,,,,,,,
1665772172.972793,1665772172.973321,45.000000,0.000000,4288.333496,4285.897461,4307.179688,4358.717773,4294.615234,4304.615234,4307.948730,4304.487305,4281.410156,4262.692383,4481.794922,4498.333496,4365.897461,4430.897461,0.000000,2.000000,52.000000,,,,0.000000,4.000000,4.000000,4.000000,4.000000,4.000000,4.000000,4.000000,4.000000,4.000000,4.000000,4.000000,4.000000,4.000000,4.000000,100.000000,,,,,,,,,,,,,,,,,,,,,,,,,,,,,,,,,,,,,,,,,,,,,,,
1665772172.980601,1665772172.981229,46.000000,0.000000,4283.974121,4277.692383,4303.205078,4348.205078,4295.641113,4303.846191,4308.846191,4311.282227,4289.102539,4267.948730,4489.615234,4502.820313,4370.128418,4429.487305,0.000000,2.000000,52.000000,,,,0.000000,4.000000,4.000000,4.000000,4.000000,4.000000,4.000000,4.000000,4.000000,4.000000,4.000000,4.000000,4.000000,4.000000,4.000000,100.000000,,,,,,,,,,,,,,,,,,,,,,,,,,,,,,,,,,,,,,,,,,,,,,,
1665772172.988410,1665772172.989038,47.000000,0.000000,4283.717773,4280.256348,4309.615234,4344.358887,4295.512695,4298.846191,4309.743652,4313.205078,4297.179688,4271.538574,4484.358887,4505.641113,4371.538574,4425.641113,0.000000,2.000000,52.000000,,,,0.000000,4.000000,4.000000,4.000000,4.000000,4.000000,4.000000,4.000000,4.000000,4.000000,4.000000,4.000000,4.000000,4.000000,4.000000,100.000000,,,,,,,,,,,,,,,,,,,,,,,,,,,,,,,,,,,,,,,,,,,,,,,
1665772172.996218,1665772172.996946,48.000000,0.000000,4292.051270,4293.333496,4312.820313,4348.589844,4294.743652,4293.333496,4304.743652,4310.384766,4296.666504,4267.179688,4480.512695,4502.179688,4373.974121,4425.897461,0.000000,2.000000,52.000000,,,,0.000000,4.000000,4.000000,4.000000,4.000000,4.000000,4.000000,4.000000,4.000000,4.000000,4.000000,4.000000,4.000000,4.000000,4.000000,100.000000,,,,,,,,,,,,,,,,,,,,,,,,,,,,,,,,,,,,,,,,,,,,,,,
1665772173.004027,1665772173.004754,49.000000,0.000000,4302.692383,4304.743652,4315.128418,4356.153809,4295.000000,4292.692383,4305.256348,4311.153809,4296.538574,4270.769043,4489.615234,4506.538574,4384.743652,4436.410156,0.000000,2.000000,52.000000,,,,0.000000,4.000000,4.000000,4.000000,4.000000,4.000000,4.000000,4.000000,4.000000,4.000000,4.000000,4.000000,4.000000,4.000000,4.000000,100.000000,,,,,,,,,,,,,,,,,,,,,,,,,,,,,,,,,,,,,,,,,,,,,,,
1665772173.011835,1665772173.012663,50.000000,0.000000,4306.282227,4305.769043,4323.461426,4356.153809,4293.717773,4295.000000,4308.974121,4311.666504,4298.589844,4274.871582,4494.102539,4515.000000,4389.358887,4446.794922,0.000000,2.000000,52.000000,,,,0.000000,4.000000,4.000000,4.000000,4.000000,4.000000,4.000000,4.000000,4.000000,4.000000,4.000000,4.000000,4.000000,4.000000,4.000000,100.000000,,,,,,,,,,,,,,,,,,,,,,,,,,,,,,,,,,,,,,,,,,,,,,,
1665772173.019643,1665772173.020471,51.000000,0.000000,4308.846191,4302.179688,4326.025879,4354.487305,4296.794922,4293.461426,4299.743652,4306.282227,4297.436035,4266.922852,4487.179688,4513.589844,4384.102539,4445.512695,0.000000,2.000000,52.000000,,,,0.000000,4.000000,4.000000,4.000000,4.000000,4.000000,4.000000,4.000000,4.000000,4.000000,4.000000,4.000000,4.000000,4.000000,4.000000,100.000000,,,,,,,,,,,,,,,,,,,,,,,,,,,,,,,,,,,,,,,,,,,,,,,
1665772173.027452,1665772173.028280,52.000000,0.000000,4313.589844,4307.948730,4321.538574,4359.615234,4302.563965,4293.461426,4290.512695,4304.871582,4295.256348,4268.717773,4487.307617,4516.025879,4382.948730,4443.333496,0.000000,2.000000,52.000000,,,,0.000000,4.000000,4.000000,4.000000,4.000000,4.000000,4.000000,4.000000,4.000000,4.000000,4.000000,4.000000,4.000000,4.000000,4.000000,100.000000,,,,,,,,,,,,,,,,,,,,,,,,,,,,,,,,,,,,,,,,,,,,,,,
1665772173.035260,1665772173.035988,53.000000,0.000000,4317.307617,4316.538574,4324.487305,4362.436035,4306.282227,4297.563965,4296.666504,4305.256348,4294.615234,4280.128418,4491.282227,4525.256348,4384.230957,4448.205078,0.000000,2.000000,52.000000,,,,0.000000,4.000000,4.000000,4.000000,4.000000,4.000000,4.000000,4.000000,4.000000,4.000000,4.000000,4.000000,4.000000,4.000000,4.000000,100.000000,,,,,,,,,,,,,,,,,,,,,,,,,,,,,,,,,,,,,,,,,,,,,,,
1665772173.043068,1665772173.043797,54.000000,0.000000,4316.538574,4308.974121,4325.512695,4357.051270,4304.743652,4298.077148,4301.153809,4301.282227,4293.461426,4277.436035,4488.461426,4523.717773,4381.794922,4445.897461,0.000000,2.000000,52.000000,,,,0.000000,4.000000,4.000000,4.000000,4.000000,4.000000,4.000000,4.000000,4.000000,4.000000,4.000000,4.000000,4.000000,4.000000,4.000000,100.000000,,,,,,,,,,,,,,,,,,,,,,,,,,,,,,,,,,,,,,,,,,,,,,,
1665772173.050877,1665772173.051505,55.000000,0.000000,4306.794922,4295.512695,4316.153809,4351.282227,4301.794922,4299.358887,4303.333496,4302.051270,4293.077148,4275.897461,4488.846191,4519.230957,4384.615234,4440.897461,0.000000,2.000000,52.000000,,,,0.000000,4.000000,4.000000,4.000000,4.000000,4.000000,4.000000,4.000000,4.000000,4.000000,4.000000,4.000000,4.000000,4.000000,4.000000,100.000000,,,,,,,,,,,,,,,,,,,,,,,,,,,,,,,,,,,,,,,,,,,,,,,
1665772173.058685,1665772173.059413,56.000000,0.000000,4297.307617,4292.948730,4313.589844,4349.871582,4299.871582,4307.051270,4312.692383,4309.871582,4295.000000,4283.846191,4492.820313,4520.769043,4385.769043,4440.256348,0.000000,2.000000,52.000000,,,,0.000000,4.000000,4.000000,4.000000,4.000000,4.000000,4.000000,4.000000,4.000000,4.000000,4.000000,4.000000,4.000000,4.000000,4.000000,100.000000,,,,,,,,,,,,,,,,,,,,,,,,,,,,,,,,,,,,,,,,,,,,,,,
1665772173.066494,1665772173.067222,57.000000,0.000000,4294.615234,4292.948730,4314.358887,4345.128418,4297.436035,4311.282227,4317.820313,4311.666504,4296.794922,4280.384766,4491.538574,4514.230957,4377.179688,4435.641113,0.000000,2.000000,52.000000,,,,0.000000,4.000000,4.000000,4.000000,4.000000,4.000000,4.000000,4.000000,4.000000,4.000000,4.000000,4.000000,4.000000,4.000000,4.000000,100.000000,,,,,,,,,,,,,,,,,,,,,,,,,,,,,,,,,,,,,,,,,,,,,,,
1665772173.074302,1665772173.075130,58.000000,0.000000,4294.358887,4286.538574,4310.128418,4341.025879,4299.871582,4308.461426,4317.948730,4311.538574,4297.179688,4274.358887,4488.333496,4503.974121,4372.436035,4430.512695,0.000000,2.000000,52.000000,,,,0.000000,4.000000,4.000000,4.000000,4.000000,4.000000,4.000000,4.000000,4.000000,4.000000,4.000000,4.000000,4.000000,4.000000,4.000000,100.000000,,,,,,,,,,,,,,,,,,,,,,,,,,,,,,,,,,,,,,,,,,,,,,,
1665772173.082110,1665772173.082939,59.000000,0.000000,4292.563965,4286.410156,4310.897461,4345.641113,4305.000000,4306.025879,4320.512695,4318.589844,4297.820313,4276.025879,4490.512695,4506.922852,4373.077148,4435.128418,0.000000,2.000000,52.000000,,,,0.000000,4.000000,4.000000,4.000000,4.000000,4.000000,4.000000,4.000000,4.000000,4.000000,4.000000,4.000000,4.000000,4.000000,4.000000,100.000000,,,,,,,,,,,,,,,,,,,,,,,,,,,,,,,,,,,,,,,,,,,,,,,
1665772173.089919,1665772173.090847,60.000000,0.000000,4294.230957,4297.563965,4314.487305,4351.410156,4303.461426,4303.846191,4321.153809,4321.025879,4299.358887,4271.922852,4491.282227,4509.102539,4372.692383,4439.615234,0.000000,2.000000,52.000000,,,,0.000000,4.000000,4.000000,4.000000,4.000000,4.000000,4.000000,4.000000,4.000000,4.000000,4.000000,4.000000,4.000000,4.000000,4.000000,100.000000,,,,,,,,,,,,,,,,,,,,,,,,,,,,,,,,,,,,,,,,,,,,,,,
1665772173.097727,1665772173.098656,61.000000,0.000000,4295.769043,4302.436035,4310.000000,4348.205078,4298.205078,4298.461426,4311.794922,4313.717773,4297.563965,4264.358887,4485.000000,4498.205078,4372.307617,4431.922852,0.000000,2.000000,52.000000,,,,0.000000,4.000000,4.000000,4.000000,4.000000,4.000000,4.000000,4.000000,4.000000,4.000000,4.000000,4.000000,4.000000,4.000000,4.000000,100.000000,,,,,,,,,,,,,,,,,,,,,,,,,,,,,,,,,,,,,,,,,,,,,,,
1665772173.105536,1665772173.106564,62.000000,0.000000,4290.512695,4294.743652,4303.589844,4339.230957,4295.256348,4291.410156,4299.743652,4306.538574,4291.794922,4263.717773,4476.794922,4487.179688,4368.461426,4423.333496,0.000000,2.000000,52.000000,,,,0.000000,4.000000,4.000000,4.000000,4.000000,4.000000,4.000000,4.000000,4.000000,4.000000,4.000000,4.000000,4.000000,4.000000,4.000000,100.000000,,,,,,,,,,,,,,,,,,,,,,,,,,,,,,,,,,,,,,,,,,,,,,,
1665772173.113344,1665772173.114372,63.000000,0.000000,4288.589844,4293.974121,4303.974121,4338.846191,4293.333496,4289.102539,4293.717773,4300.256348,4289.487305,4263.205078,4472.436035,4489.615234,4363.461426,4424.102539,0.000000,2.000000,52.000000,,,,0.000000,4.000000,4.000000,4.000000,4.000000,4.000000,4.000000,4.000000,4.000000,4.000000,4.000000,4.000000,4.000000,4.000000,4.000000,100.000000,,,,,,,,,,,,,,,,,,,,,,,,,,,,,,,,,,,,,,,,,,,,,,,
1665772173.121152,1665772173.122281,64.000000,0.000000,4298.077148,4308.205078,4312.436035,4347.948730,4294.487305,4292.692383,4292.820313,4297.179688,4291.410156,4264.743652,4479.230957,4501.666504,4369.487305,4434.871582,2049.000000,2.000000,52.000000,,,,0.000000,4.000000,4.000000,4.000000,4.000000,4.000000,4.000000,4.000000,4.000000,4.000000,4.000000,4.000000,4.000000,4.000000,4.000000,100.000000,,,,,,,,,,,,,,,,,,,,,,,,,,,,,,,,,,,,,,,,,,,,,,,
1665772173.128961,1665772173.130089,65.000000,0.000000,4311.410156,4318.589844,4321.282227,4352.307617,4300.384766,4295.769043,4293.846191,4300.256348,4298.846191,4277.692383,4488.717773,4510.897461,4382.179688,4441.922852,2145.000000,2.000000,52.000000,,,,0.000000,4.000000,4.000000,4.000000,4.000000,4.000000,4.000000,4.000000,4.000000,4.000000,4.000000,4.000000,4.000000,4.000000,4.000000,100.000000,,,,,,,,,,,,,,,,,,,,,,,,,,,,,,,,,,,,,,,,,,,,,,,
1665772173.136769,1665772173.137798,66.000000,0.000000,4310.256348,4309.871582,4318.333496,4343.974121,4297.307617,4292.820313,4291.666504,4298.077148,4298.077148,4280.512695,4483.717773,4505.769043,4385.000000,4434.743652,2264.000000,2.000000,52.000000,,,,0.000000,4.000000,4.000000,4.000000,4.000000,4.000000,4.000000,4.000000,4.000000,4.000000,4.000000,4.000000,4.000000,4.000000,4.000000,100.000000,,,,,,,,,,,,,,,,,,,,,,,,,,,,,,,,,,,,,,,,,,,,,,,
1665772173.144577,1665772173.145606,67.000000,0.000000,4300.128418,4296.666504,4310.128418,4335.128418,4290.000000,4292.179688,4293.077148,4292.179688,4284.487305,4267.820313,4475.128418,4497.436035,4380.384766,4425.512695,2317.000000,2.000000,52.000000,,,,0.000000,4.000000,4.000000,4.000000,4.000000,4.000000,4.000000,4.000000,4.000000,4.000000,4.000000,4.000000,4.000000,4.000000,4.000000,100.000000,,,,,,,,,,,,,,,,,,,,,,,,,,,,,,,,,,,,,,,,,,,,,,,
1665772173.152386,1665772173.153315,68.000000,0.000000,4303.461426,4293.461426,4314.358887,4335.512695,4292.820313,4300.512695,4303.974121,4299.358887,4283.589844,4268.077148,4480.897461,4505.256348,4380.128418,4428.846191,2388.000000,2.000000,52.000000,,,,0.000000,4.000000,4.000000,4.000000,4.000000,4.000000,4.000000,4.000000,4.000000,4.000000,4.000000,4.000000,4.000000,4.000000,4.000000,100.000000,,,,,,,,,,,,,,,,,,,,,,,,,,,,,,,,,,,,,,,,,,,,,,,
1665772173.160194,1665772173.161123,69.000000,0.000000,4311.025879,4294.358887,4318.846191,4332.051270,4290.641113,4304.358887,4315.256348,4308.974121,4295.000000,4280.384766,4490.897461,4515.384766,4384.743652,4440.000000,2281.000000,2.000000,52.000000,,,,0.000000,4.000000,4.000000,4.000000,4.000000,4.000000,4.000000,4.000000,4.000000,4.000000,4.000000,4.000000,4.000000,4.000000,4.000000,100.000000,,,,,,,,,,,,,,,,,,,,,,,,,,,,,,,,,,,,,,,,,,,,,,,
1665772173.168003,1665772173.168832,70.000000,0.000000,4313.205078,4290.384766,4312.820313,4326.922852,4279.487305,4303.461426,4315.641113,4312.179688,4298.461426,4282.948730,4492.307617,4514.102539,4385.769043,4446.153809,2140.000000,2.000000,52.000000,,,,0.000000,4.000000,4.000000,4.000000,4.000000,4.000000,4.000000,4.000000,4.000000,4.000000,4.000000,4.000000,4.000000,4.000000,4.000000,100.000000,,,,,,,,,,,,,,,,,,,,,,,,,,,,,,,,,,,,,,,,,,,,,,,
1665772173.175811,1665772173.176640,71.000000,0.000000,4308.589844,4288.333496,4308.974121,4328.077148,4282.563965,4305.641113,4310.769043,4314.230957,4298.333496,4278.717773,4487.820313,4511.666504,4380.384766,4443.589844,2191.000000,2.000000,52.000000,,,,0.000000,4.000000,4.000000,4.000000,4.000000,4.000000,4.000000,4.000000,4.000000,4.000000,4.000000,4.000000,4.000000,4.000000,4.000000,100.000000,,,,,,,,,,,,,,,,,,,,,,,,,,,,,,,,,,,,,,,,,,,,,,,
1665772173.183619,1665772173.184349,72.000000,0.000000,4302.436035,4293.333496,4310.769043,4330.384766,4293.333496,4305.256348,4309.871582,4315.769043,4300.641113,4274.871582,4480.000000,4505.256348,4370.000000,4434.487305,2301.000000,2.000000,52.000000,,,,0.000000,4.000000,4.000000,4.000000,4.000000,4.000000,4.000000,4.000000,4.000000,4.000000,4.000000,4.000000,4.000000,4.000000,4.000000,100.000000,,,,,,,,,,,,,,,,,,,,,,,,,,,,,,,,,,,,,,,,,,,,,,,
1665772173.191428,1665772173.192157,73.000000,0.000000,4302.436035,4296.538574,4307.563965,4331.794922,4294.743652,4299.615234,4310.384766,4316.410156,4298.333496,4268.205078,4472.692383,4493.717773,4360.128418,4428.846191,2403.000000,2.000000,52.000000,,,,0.000000,4.000000,4.000000,4.000000,4.000000,4.000000,4.000000,4.000000,4.000000,4.000000,4.000000,4.000000,4.000000,4.000000,4.000000,100.000000,,,,,,,,,,,,,,,,,,,,,,,,,,,,,,,,,,,,,,,,,,,,,,,
1665772173.199236,1665772173.199866,74.000000,0.000000,4304.871582,4294.743652,4301.538574,4333.717773,4298.205078,4298.205078,4307.179688,4314.871582,4293.846191,4263.974121,4472.436035,4488.974121,4356.538574,4428.846191,2555.000000,2.000000,52.000000,,,,0.000000,4.000000,4.000000,4.000000,4.000000,4.000000,4.000000,4.000000,4.000000,4.000000,4.000000,4.000000,4.000000,4.000000,4.000000,100.000000,,,,,,,,,,,,,,,,,,,,,,,,,,,,,,,,,,,,,,,,,,,,,,,
1665772173.207045,1665772173.207674,75.000000,0.000000,4305.000000,4297.692383,4303.846191,4335.000000,4305.641113,4297.820313,4296.025879,4306.410156,4288.333496,4263.717773,4474.487305,4489.743652,4359.615234,4427.563965,2560.000000,2.000000,52.000000,,,,0.000000,4.000000,4.000000,4.000000,4.000000,4.000000,4.000000,4.000000,4.000000,4.000000,4.000000,4.000000,4.000000,4.000000,4.000000,100.000000,,,,,,,,,,,,,,,,,,,,,,,,,,,,,,,,,,,,,,,,,,,,,,,
1665772173.214853,1665772173.215383,76.000000,0.000000,4303.461426,4304.487305,4307.307617,4335.512695,4304.358887,4293.717773,4288.846191,4297.436035,4280.769043,4260.256348,4474.230957,4487.948730,4364.615234,4424.743652,2725.000000,2.000000,52.000000,,,,0.000000,4.000000,4.000000,4.000000,4.000000,4.000000,4.000000,4.000000,4.000000,4.000000,4.000000,4.000000,4.000000,4.000000,4.000000,100.000000,,,,,,,,,,,,,,,,,,,,,,,,,,,,,,,,,,,,,,,,,,,,,,,
1665772173.222661,1665772173.223191,77.000000,0.000000,4305.897461,4305.128418,4306.153809,4333.461426,4298.461426,4289.615234,4290.384766,4294.871582,4281.153809,4262.051270,4474.871582,4488.717773,4364.743652,4421.666504,3345.000000,2.000000,52.000000,,,,0.000000,4.000000,4.000000,4.000000,4.000000,4.000000,4.000000,4.000000,4.000000,4.000000,4.000000,4.000000,4.000000,4.000000,4.000000,100.000000,,,,,,,,,,,,,,,,,,,,,,,,,,,,,,,,,,,,,,,,,,,,,,,
1665772173.230470,1665772173.230900,78.000000,0.000000,4308.077148,4299.230957,4304.615234,4326.538574,4292.179688,4284.102539,4284.102539,4290.897461,4279.743652,4262.820313,4474.102539,4490.000000,4364.102539,4419.615234,2555.000000,2.000000,52.000000,,,,0.000000,4.000000,4.000000,4.000000,4.000000,4.000000,4.000000,4.000000,4.000000,4.000000,4.000000,4.000000,4.000000,4.000000,4.000000,100.000000,,,,,,,,,,,,,,,,,,,,,,,,,,,,,,,,,,,,,,,,,,,,,,,
1665772173.238278,1665772173.238708,79.000000,0.000000,4309.615234,4296.153809,4305.512695,4321.538574,4288.461426,4285.769043,4284.230957,4287.948730,4274.487305,4252.820313,4472.820313,4488.205078,4370.641113,4422.692383,2560.000000,2.000000,52.000000,,,,0.000000,4.000000,4.000000,4.000000,4.000000,4.000000,4.000000,4.000000,4.000000,4.000000,4.000000,4.000000,4.000000,4.000000,4.000000,100.000000,,,,,,,,,,,,,,,,,,,,,,,,,,,,,,,,,,,,,,,,,,,,,,,
1665772173.246086,1665772173.246417,80.000000,0.000000,4313.333496,4297.307617,4308.846191,4322.948730,4293.461426,4294.102539,4299.230957,4291.025879,4277.179688,4248.461426,4475.769043,4498.717773,4377.307617,4428.846191,2725.000000,2.000000,52.000000,,,,0.000000,4.000000,4.000000,4.000000,4.000000,4.000000,4.000000,4.000000,4.000000,4.000000,4.000000,4.000000,4.000000,4.000000,4.000000,100.000000,,,,,,,,,,,,,,,,,,,,,,,,,,,,,,,,,,,,,,,,,,,,,,,
1665772173.253895,1665772173.254325,81.000000,0.000000,4316.666504,4294.871582,4311.794922,4323.205078,4298.333496,4294.871582,4303.589844,4293.077148,4275.000000,4252.820313,4479.358887,4508.974121,4376.666504,4430.769043,3345.000000,2.000000,52.000000,,,,0.000000,4.000000,4.000000,4.000000,4.000000,4.000000,4.000000,4.000000,4.000000,4.000000,4.000000,4.000000,4.000000,4.000000,4.000000,100.000000,,,,,,,,,,,,,,,,,,,,,,,,,,,,,,,,,,,,,,,,,,,,,,,
1665772173.261703,1665772173.262133,82.000000,0.000000,4316.410156,4293.333496,4311.666504,4321.538574,4294.230957,4291.922852,4298.333496,4292.563965,4265.128418,4249.358887,4476.025879,4499.487305,4371.922852,4430.512695,2555.000000,2.000000,52.000000,,,,0.000000,4.000000,4.000000,4.000000,4.000000,4.000000,4.000000,4.000000,4.000000,4.000000,4.000000,4.000000,4.000000,4.000000,4.000000,100.000000,,,,,,,,,,,,,,,,,,,,,,,,,,,,,,,,,,,,,,,,,,,,,,,
1665772173.269512,1665772173.270042,83.000000,0.000000,4315.512695,4295.256348,4309.358887,4320.128418,4290.897461,4293.077148,4300.769043,4295.512695,4268.333496,4250.769043,4471.153809,4494.615234,4370.769043,4428.974121,2560.000000,2.000000,52.000000,,,,0.000000,4.000000,4.000000,4.000000,4.000000,4.000000,4.000000,4.000000,4.000000,4.000000,4.000000,4.000000,4.000000,4.000000,4.000000,100.000000,,,,,,,,,,,,,,,,,,,,,,,,,,,,,,,,,,,,,,,,,,,,,,,
1665772173.277320,1665772173.277850,84.000000,0.000000,4315.128418,4288.846191,4306.538574,4315.384766,4294.102539,4296.666504,4304.358887,4303.205078,4284.230957,4268.589844,4474.743652,4504.743652,4375.000000,4427.307617,2725.000000,2.000000,52.000000,,,,0.000000,4.000000,4.000000,4.000000,4.000000,4.000000,4.000000,4.000000,4.000000,4.000000,4.000000,4.000000,4.000000,4.000000,4.000000,100.000000,,,,,,,,,,,,,,,,,,,,,,,,,,,,,,,,,,,,,,,,,,,,,,,
1665772173.285128,1665772173.285759,85.000000,0.000000,4304.358887,4279.615234,4300.641113,4310.897461,4296.794922,4300.000000,4306.153809,4310.769043,4294.615234,4276.794922,4480.000000,4506.025879,4373.846191,4427.820313,3345.000000,2.000000,52.000000,,,,0.000000,4.000000,4.000000,4.000000,4.000000,4.000000,4.000000,4.000000,4.000000,4.000000,4.000000,4.000000,4.000000,4.000000,4.000000,100.000000,,,,,,,,,,,,,,,,,,,,,,,,,,,,,,,,,,,,,,,,,,,,,,,
1665772173.292937,1665772173.293567,86.000000,0.000000,4293.077148,4277.820313,4295.256348,4309.615234,4295.641113,4300.512695,4306.025879,4308.974121,4296.666504,4267.692383,4473.333496,4489.358887,4358.846191,4423.205078,2555.000000,2.000000,52.000000,,,,0.000000,4.000000,4.000000,4.000000,4.000000,4.000000,4.000000,4.000000,4.000000,4.000000,4.000000,4.000000,4.000000,4.000000,4.000000,100.000000,,,,,,,,,,,,,,,,,,,,,,,,,,,,,,,,,,,,,,,,,,,,,,,
1665772173.300745,1665772173.301475,87.000000,0.000000,4294.358887,4279.743652,4293.589844,4308.717773,4295.769043,4296.282227,4296.025879,4298.205078,4292.948730,4263.717773,4463.077148,4477.051270,4347.179688,4409.102539,2560.000000,2.000000,52.000000,,,,0.000000,4.000000,4.000000,4.000000,4.000000,4.000000,4.000000,4.000000,4.000000,4.000000,4.000000,4.000000,4.000000,4.000000,4.000000,100.000000,,,,,,,,,,,,,,,,,,,,,,,,,,,,,,,,,,,,,,,,,,,,,,,
1665772173.308554,1665772173.309284,88.000000,0.000000,4295.897461,4278.461426,4293.589844,4309.102539,4301.153809,4294.230957,4288.205078,4293.333496,4283.846191,4266.153809,4461.538574,4473.461426,4352.436035,4401.282227,2725.000000,2.000000,52.000000,,,,0.000000,4.000000,4.000000,4.000000,4.000000,4.000000,4.000000,4.000000,4.000000,4.000000,4.000000,4.000000,4.000000,4.000000,4.000000,100.000000,,,,,,,,,,,,,,,,,,,,,,,,,,,,,,,,,,,,,,,,,,,,,,,
1665772173.316362,1665772173.317092,89.000000,0.000000,4293.846191,4281.410156,4297.179688,4311.153809,4302.307617,4295.897461,4289.871582,4295.897461,4280.384766,4264.615234,4465.384766,4473.205078,4357.436035,4406.410156,3345.000000,2.000000,52.000000,,,,0.000000,4.000000,4.000000,4.000000,4.000000,4.000000,4.000000,4.000000,4.000000,4.000000,4.000000,4.000000,4.000000,4.000000,4.000000,100.000000,,,,,,,,,,,,,,,,,,,,,,,,,,,,,,,,,,,,,,,,,,,,,,,
1665772173.324170,1665772173.324901,90.000000,0.000000,4301.666504,4290.256348,4302.820313,4309.871582,4301.153809,4293.717773,4291.153809,4296.410156,4282.692383,4261.153809,4470.384766,4481.282227,4356.282227,4413.846191,2555.000000,2.000000,52.000000,,,,0.000000,4.000000,4.000000,4.000000,4.000000,4.000000,4.000000,4.000000,4.000000,4.000000,4.000000,4.000000,4.000000,4.000000,4.000000,100.000000,,,,,,,,,,,,,,,,,,,,,,,,,,,,,,,,,,,,,,,,,,,,,,,
1665772173.331979,1665772173.332609,91.000000,0.000000,4311.153809,4294.743652,4304.615234,4309.102539,4303.077148,4293.333496,4293.461426,4293.717773,4282.179688,4263.461426,4475.256348,4489.743652,4359.615234,4418.077148,2560.000000,2.000000,52.000000,,,,0.000000,4.000000,4.000000,4.000000,4.000000,4.000000,4.000000,4.000000,4.000000,4.000000,4.000000,4.000000,4.000000,4.000000,4.000000,100.000000,,,,,,,,,,,,,,,,,,,,,,,,,,,,,,,,,,,,,,,,,,,,,,,
1665772173.339787,1665772173.340418,92.000000,0.000000,4311.410156,4295.769043,4304.615234,4311.153809,4303.589844,4294.358887,4296.410156,4292.948730,4281.025879,4267.436035,4477.179688,4490.769043,4366.538574,4421.794922,2725.000000,2.000000,52.000000,,,,0.000000,4.000000,4.000000,4.000000,4.000000,4.000000,4.000000,4.000000,4.000000,4.000000,4.000000,4.000000,4.000000,4.000000,4.000000,100.000000,,,,,,,,,,,,,,,,,,,,,,,,,,,,,,,,,,,,,,,,,,,,,,,
1665772173.347596,1665772173.348126,93.000000,0.000000,4312.692383,4295.769043,4305.384766,4305.641113,4301.410156,4285.128418,4290.256348,4292.563965,4281.538574,4264.615234,4475.641113,4489.487305,4368.974121,4423.077148,3345.000000,2.000000,52.000000,,,,0.000000,4.000000,4.000000,4.000000,4.000000,4.000000,4.000000,4.000000,4.000000,4.000000,4.000000,4.000000,4.000000,4.000000,4.000000,100.000000,1.000000,100.000000,4.000000,4.000000,4.000000,4.000000,4.000000,4.000000,4.000000,4.000000,4.000000,4.000000,4.000000,4.000000,4.000000,4.000000,1.000000,0.266295,-1.183727,-1.488454,0.697225,1.000000,0.002818,2.626273,2.599095,12.244337,0.022633,1.000000,0.384581,73.336769,-84.054245,303.636505,1.000000,0.697059,0.218978,0.092958,0.249747,1.000000,0.477991,6.431095,-4.252554,17.517149,1.000000,0.059966,0.059966,0.000000,1.000000
1665772173.355404,1665772173.355935,94.000000,0.000000,4318.333496,4293.974121,4306.666504,4301.922852,4300.000000,4277.948730,4285.384766,4292.563965,4280.769043,4260.769043,4476.922852,4493.589844,4368.205078,4424.487305,2555.000000,2.000000,52.000000,,,,0.000000,4.000000,4.000000,4.000000,4.000000,4.000000,4.000000,4.000000,4.000000,4.000000,4.000000,4.000000,4.000000,4.000000,4.000000,100.000000,,,,,,,,,,,,,,,,,,,,,,,,,,,,,,,,,,,,,,,,,,,,,,,
1665772173.363212,1665772173.363643,95.000000,0.000000,4320.769043,4291.282227,4306.794922,4303.333496,4297.820313,4287.436035,4291.410156,4292.820313,4279.358887,4263.333496,4477.179688,4495.384766,4366.282227,4424.358887,2560.000000,2.000000,52.000000,,,,0.000000,4.000000,4.000000,4.000000,4.000000,4.000000,4.000000,4.000000,4.000000,4.000000,4.000000,4.000000,4.000000,4.000000,4.000000,100.000000,,,,,,,,,,,,,,,,,,,,,,,,,,,,,,,,,,,,,,,,,,,,,,,
1665772173.371021,1665772173.371452,96.000000,0.000000,4319.743652,4290.256348,4307.948730,4299.871582,4295.384766,4297.692383,4301.794922,4293.077148,4279.743652,4265.769043,4472.051270,4492.436035,4367.051270,4421.538574,2725.000000,2.000000,52.000000,,,,0.000000,4.000000,4.000000,4.000000,4.000000,4.000000,4.000000,4.000000,4.000000,4.000000,4.000000,4.000000,4.000000,4.000000,4.000000,100.000000,,,,,,,,,,,,,,,,,,,,,,,,,,,,,,,,,,,,,,,,,,,,,,,
1665772173.378829,1665772173.379160,97.000000,0.000000,4316.794922,4288.717773,4304.743652,4294.871582,4292.948730,4297.948730,4303.589844,4295.256348,4279.487305,4263.974121,4473.205078,4493.589844,4369.615234,4417.820313,3345.000000,2.000000,52.000000,,,,0.000000,4.000000,4.000000,4.000000,4.000000,4.000000,4.000000,4.000000,4.000000,4.000000,4.000000,4.000000,4.000000,4.000000,4.000000,100.000000,,,,,,,,,,,,,,,,,,,,,,,,,,,,,,,,,,,,,,,,,,,,,,,
1665772173.386638,1665772173.386969,98.000000,0.000000,4314.487305,4286.538574,4298.717773,4296.538574,4293.205078,4300.769043,4298.333496,4297.563965,4277.051270,4260.641113,4471.538574,4491.025879,4362.307617,4415.641113,2555.000000,2.000000,52.000000,,,,0.000000,4.000000,4.000000,4.000000,4.000000,4.000000,4.000000,4.000000,4.000000,4.000000,4.000000,4.000000,4.000000,4.000000,4.000000,100.000000,,,,,,,,,,,,,,,,,,,,,,,,,,,,,,,,,,,,,,,,,,,,,,,
1665772173.394446,1665772173.394677,99.000000,0.000000,4316.538574,4292.179688,4302.820313,4304.230957,4302.436035,4305.512695,4300.256348,4298.077148,4276.153809,4258.205078,4464.487305,4488.077148,4355.128418,4414.743652,2560.000000,2.000000,52.000000,,,,0.000000,4.000000,4.000000,4.000000,4.000000,4.000000,4.000000,4.000000,4.000000,4.000000,4.000000,4.000000,4.000000,4.000000,4.000000,100.000000,,,,,,,,,,,,,,,,,,,,,,,,,,,,,,,,,,,,,,,,,,,,,,,
1665772173.402254,1665772173.402486,100.000000,0.000000,4317.436035,4299.358887,4312.563965,4309.743652,4313.333496,4305.000000,4307.051270,4299.230957,4280.128418,4260.256348,4468.589844,4492.436035,4361.666504,4416.282227,2725.000000,2.000000,52.000000,,,,0.000000,4.000000,4.000000,4.000000,4.000000,4.000000,4.000000,4.000000,4.000000,4.000000,4.000000,4.000000,4.000000,4.000000,4.000000,100.000000,,,,,,,,,,,,,,,,,,,,,,,,,,,,,,,,,,,,,,,,,,,,,,,
1665772173.410063,1665772173.410194,101.000000,0.000000,4310.256348,4294.871582,4308.077148,4304.487305,4313.846191,4302.051270,4304.102539,4299.871582,4282.692383,4265.128418,4472.307617,4491.025879,4361.410156,4415.769043,3345.000000,2.000000,52.000000,,,,0.000000,4.000000,4.000000,4.000000,4.000000,4.000000,4.000000,4.000000,4.000000,4.000000,4.000000,4.000000,4.000000,4.000000,4.000000,100.000000,,,,,,,,,,,,,,,,,,,,,,,,,,,,,,,,,,,,,,,,,,,,,,,
1665772173.417871,1665772173.418003,102.000000,0.000000,4304.615234,4286.666504,4295.384766,4296.922852,4312.051270,4297.948730,4294.871582,4297.436035,4280.769043,4263.589844,4464.615234,4476.794922,4347.436035,4405.512695,2555.000000,2.000000,52.000000,,,,0.000000,4.000000,4.000000,4.000000,4.000000,4.000000,4.000000,4.000000,4.000000,4.000000,4.000000,4.000000,4.000000,4.000000,4.000000,100.000000,,,,,,,,,,,,,,,,,,,,,,,,,,,,,,,,,,,,,,,,,,,,,,,
1665772173.425680,1665772173.425711,103.000000,0.000000,4310.641113,4292.692383,4293.589844,4303.077148,4312.692383,4294.487305,4292.179688,4297.436035,4283.846191,4267.179688,4467.692383,4475.384766,4351.922852,4403.205078,2560.000000,2.000000,52.000000,,,,0.000000,4.000000,4.000000,4.000000,4.000000,4.000000,4.000000,4.000000,4.000000,4.000000,4.000000,4.000000,4.000000,4.000000,4.000000,100.000000,,,,,,,,,,,,,,,,,,,,,,,,,,,,,,,,,,,,,,,,,,,,,,,
1665772173.433488,1665772173.433620,104.000000,0.000000,4315.128418,4304.743652,4301.794922,4312.436035,4312.051270,4293.589844,4294.743652,4299.358887,4293.846191,4277.179688,4480.897461,4490.256348,4371.025879,4415.256348,2725.000000,2.000000,52.000000,,,,0.000000,4.000000,4.000000,4.000000,4.000000,4.000000,4.000000,4.000000,4.000000,4.000000,4.000000,4.000000,4.000000,4.000000,4.000000,100.000000,,,,,,,,,,,,,,,,,,,,,,,,,,,,,,,,,,,,,,,,,,,,,,,
1665772173.441296,1665772173.441428,105.000000,0.000000,4311.282227,4303.205078,4305.256348,4308.333496,4312.820313,4294.230957,4294.871582,4296.538574,4295.000000,4274.102539,4479.230957,4493.461426,4367.307617,4419.230957,3345.000000,2.000000,52.000000,,,,0.000000,4.000000,4.000000,4.000000,4.000000,4.000000,4.000000,4.000000,4.000000,4.000000,4.000000,4.000000,4.000000,4.000000,4.000000,100.000000,,,,,,,,,,,,,,,,,,,,,,,,,,,,,,,,,,,,,,,,,,,,,,,
1665772173.449105,1665772173.449336,106.000000,0.000000,4309.871582,4295.128418,4302.820313,4299.230957,4312.051270,4291.025879,4290.384766,4295.128418,4286.410156,4266.666504,4475.256348,4487.820313,4355.897461,4414.871582,2555.000000,2.000000,52.000000,,,,0.000000,4.000000,4.000000,4.000000,4.000000,4.000000,4.000000,4.000000,4.000000,4.000000,4.000000,4.000000,4.000000,4.000000,4.000000,100.000000,,,,,,,,,,,,,,,,,,,,,,,,,,,,,,,,,,,,,,,,,,,,,,,
1665772173.456913,1665772173.457145,107.000000,0.000000,4311.282227,4293.846191,4302.692383,4294.871582,4303.333496,4283.205078,4288.333496,4295.641113,4281.410156,4269.230957,4477.692383,4490.000000,4361.410156,4416.153809,2560.000000,2.000000,52.000000,,,,0.000000,4.000000,4.000000,4.000000,4.000000,4.000000,4.000000,4.000000,4.000000,4.000000,4.000000,4.000000,4.000000,4.000000,4.000000,100.000000,,,,,,,,,,,,,,,,,,,,,,,,,,,,,,,,,,,,,,,,,,,,,,,
1665772173.464722,1665772173.465053,108.000000,0.000000,4311.153809,4294.743652,4302.692383,4293.461426,4294.871582,4278.974121,4291.538574,4289.615234,4281.153809,4267.692383,4474.358887,4490.256348,4367.051270,4417.179688,2725.000000,2.000000,52.000000,,,,0.000000,4.000000,4.000000,4.000000,4.000000,4.000000,4.000000,4.000000,4.000000,4.000000,4.000000,4.000000,4.000000,4.000000,4.000000,100.000000,,,,,,,,,,,,,,,,,,,,,,,,,,,,,,,,,,,,,,,,,,,,,,,
1665772173.472530,1665772173.472862,109.000000,0.000000,4316.153809,4295.769043,4302.692383,4292.179688,4291.282227,4277.692383,4290.384766,4287.820313,4281.922852,4260.769043,4474.230957,4490.384766,4366.794922,4412.692383,3345.000000,2.000000,52.000000,,,,0.000000,4.000000,4.000000,4.000000,4.000000,4.000000,4.000000,4.000000,4.000000,4.000000,4.000000,4.000000,4.000000,4.000000,4.000000,100.000000,,,,,,,,,,,,,,,,,,,,,,,,,,,,,,,,,,,,,,,,,,,,,,,
1665772173.480338,1665772173.480770,110.000000,0.000000,4325.128418,4297.692383,4305.256348,4292.563965,4289.487305,4278.205078,4287.307617,4293.717773,4281.666504,4268.205078,4478.974121,4500.769043,4371.538574,4416.538574,2555.000000,2.000000,52.000000,,,,0.000000,4.000000,4.000000,4.000000,4.000000,4.000000,4.000000,4.000000,4.000000,4.000000,4.000000,4.000000,4.000000,4.000000,4.000000,100.000000,,,,,,,,,,,,,,,,,,,,,,,,,,,,,,,,,,,,,,,,,,,,,,,
1665772173.488147,1665772173.488578,111.000000,0.000000,4327.692383,4296.794922,4309.230957,4295.000000,4289.615234,4286.538574,4293.461426,4296.538574,4281.794922,4281.538574,4480.128418,4508.717773,4377.563965,4420.897461,2560.000000,2.000000,52.000000,,,,0.000000,4.000000,4.000000,4.000000,4.000000,4.000000,4.000000,4.000000,4.000000,4.000000,4.000000,4.000000,4.000000,4.000000,4.000000,100.000000,,,,,,,,,,,,,,,,,,,,,,,,,,,,,,,,,,,,,,,,,,,,,,,
1665772173.495955,1665772173.496487,112.000000,0.000000,4325.769043,4293.717773,4305.512695,4294.358887,4292.692383,4296.922852,4301.410156,4298.589844,4284.743652,4277.563965,4477.563965,4504.102539,4375.000000,4418.205078,2725.000000,2.000000,52.000000,,,,0.000000,4.000000,4.000000,4.000000,4.000000,4.000000,4.000000,4.000000,4.000000,4.000000,4.000000,4.000000,4.000000,4.000000,4.000000,100.000000,,,,,,,,,,,,,,,,,,,,,,,,,,,,,,,,,,,,,,,,,,,,,,,
1665772173.503764,1665772173.504295,113.000000,0.000000,4324.358887,4293.205078,4297.948730,4294.358887,4297.820313,4299.743652,4304.487305,4303.333496,4285.512695,4266.025879,4476.025879,4495.128418,4367.436035,4419.487305,3345.000000,2.000000,52.000000,,,,0.000000,4.000000,4.000000,4.000000,4.000000,4.000000,4.000000,4.000000,4.000000,4.000000,4.000000,4.000000,4.000000,4.000000,4.000000,100.000000,,,,,,,,,,,,,,,,,,,,,,,,,,,,,,,,,,,,,,,,,,,,,,,
1665772173.511572,1665772173.512204,114.000000,0.000000,4320.000000,4294.102539,4297.051270,4294.230957,4306.794922,4298.717773,4303.846191,4301.538574,4282.307617,4270.641113,4476.538574,4493.461426,4365.897461,4422.436035,2555.000000,2.000000,52.000000,,,,0.000000,4.000000,4.000000,4.000000,4.000000,4.000000,4.000000,4.000000,4.000000,4.000000,4.000000,4.000000,4.000000,4.000000,4.000000,100.000000,,,,,,,,,,,,,,,,,,,,,,,,,,,,,,,,,,,,,,,,,,,,,,,
1665772173.519380,1665772173.520012,115.000000,0.000000,4313.846191,4290.384766,4296.538574,4287.179688,4313.077148,4298.077148,4299.743652,4299.102539,4281.794922,4281.666504,4478.717773,4493.333496,4368.846191,4417.692383,2560.000000,2.000000,52.000000,,,,0.000000,4.000000,4.000000,4.000000,4.000000,4.000000,4.000000,4.000000,4.000000,4.000000,4.000000,4.000000,4.000000,4.000000,4.000000,100.000000,,,,,,,,,,,,,,,,,,,,,,,,,,,,,,,,,,,,,,,,,,,,,,,
1665772173.527189,1665772173.527721,116.000000,0.000000,4307.051270,4282.692383,4290.512695,4280.897461,4307.948730,4298.333496,4293.333496,4298.846191,4282.563965,4272.307617,4474.743652,4482.692383,4362.820313,4405.769043,2725.000000,2.000000,52.000000,,,,0.000000,4.000000,4.000000,4.000000,4.000000,4.000000,4.000000,4.000000,4.000000,4.000000,4.000000,4.000000,4.000000,4.000000,4.000000,100.000000,,,,,,,,,,,,,,,,,,,,,,,,,,,,,,,,,,,,,,,,,,,,,,,
1665772173.534997,1665772173.535529,117.000000,0.000000,4306.538574,4278.846191,4286.794922,4281.538574,4302.179688,4295.000000,4285.384766,4289.743652,4276.922852,4261.153809,4464.230957,4472.692383,4350.000000,4396.410156,3345.000000,2.000000,52.000000,,,,0.000000,4.000000,4.000000,4.000000,4.000000,4.000000,4.000000,4.000000,4.000000,4.000000,4.000000,4.000000,4.000000,4.000000,4.000000,100.000000,,,,,,,,,,,,,,,,,,,,,,,,,,,,,,,,,,,,,,,,,,,,,,,
1665772173.542806,1665772173.543237,118.000000,0.000000,4308.333496,4281.666504,4288.461426,4281.282227,4303.974121,4286.666504,4278.717773,4277.692383,4272.692383,4264.615234,4459.487305,4470.512695,4347.563965,4394.743652,2555.000000,2.000000,52.000000,,,,0.000000,4.000000,4.000000,4.000000,4.000000,4.000000,4.000000,4.000000,4.000000,4.000000,4.000000,4.000000,4.000000,4.000000,4.000000,100.000000,,,,,,,,,,,,,,,,,,,,,,,,,,,,,,,,,,,,,,,,,,,,,,,
1665772173.550614,1665772173.551146,119.000000,0.000000,4301.153809,4283.077148,4287.179688,4278.717773,4307.179688,4286.282227,4277.692383,4278.077148,4274.487305,4265.897461,4462.307617,4468.205078,4351.922852,4396.794922,2560.000000,2.000000,52.000000,,,,0.000000,4.000000,4.000000,4.000000,4.000000,4.000000,4.000000,4.000000,4.000000,4.000000,4.000000,4.000000,4.000000,4.000000,4.000000,100.000000,,,,,,,,,,,,,,,,,,,,,,,,,,,,,,,,,,,,,,,,,,,,,,,
1665772173.558422,1665772173.558954,120.000000,0.000000,4296.666504,4278.717773,4286.794922,4274.358887,4302.563965,4294.871582,4281.410156,4288.077148,4278.846191,4263.333496,4466.666504,4466.153809,4349.615234,4396.410156,2725.000000,2.000000,52.000000,,,,0.000000,4.000000,4.000000,4.000000,4.000000,4.000000,4.000000,4.000000,4.000000,4.000000,4.000000,4.000000,4.000000,4.000000,4.000000,100.000000,,,,,,,,,,,,,,,,,,,,,,,,,,,,,,,,,,,,,,,,,,,,,,,
1665772173.566231,1665772173.566863,121.000000,0.000000,4305.128418,4278.589844,4290.641113,4270.769043,4292.948730,4295.641113,4287.436035,4296.666504,4286.922852,4265.128418,4467.948730,4474.102539,4349.102539,4398.333496,3345.000000,2.000000,52.000000,,,,0.000000,4.000000,4.000000,4.000000,4.000000,4.000000,4.000000,4.000000,4.000000,4.000000,4.000000,4.000000,4.000000,4.000000,4.000000,100.000000,,,,,,,,,,,,,,,,,,,,,,,,,,,,,,,,,,,,,,,,,,,,,,,
1665772173.574039,1665772173.574671,122.000000,0.000000,4315.128418,4286.922852,4294.615234,4274.615234,4289.743652,4289.743652,4295.512695,4305.128418,4297.692383,4274.615234,4475.897461,4488.846191,4365.384766,4412.436035,2555.000000,2.000000,52.000000,,,,0.000000,4.000000,4.000000,4.000000,4.000000,4.000000,4.000000,4.000000,4.000000,4.000000,4.000000,4.000000,4.000000,4.000000,4.000000,100.000000,,,,,,,,,,,,,,,,,,,,,,,,,,,,,,,,,,,,,,,,,,,,,,,
1665772173.581847,1665772173.582480,123.000000,0.000000,4321.153809,4294.487305,4299.871582,4280.000000,4292.179688,4289.743652,4298.717773,4313.077148,4303.333496,4288.333496,4490.256348,4501.666504,4381.282227,4426.025879,2560.000000,2.000000,52.000000,,,,0.000000,4.000000,4.000000,4.000000,4.000000,4.000000,4.000000,4.000000,4.000000,4.000000,4.000000,4.000000,4.000000,4.000000,4.000000,100.000000,,,,,,,,,,,,,,,,,,,,,,,,,,,,,,,,,,,,,,,,,,,,,,,
1665772173.589656,1665772173.590188,124.000000,0.000000,4323.461426,4293.589844,4301.025879,4276.922852,4293.077148,4292.692383,4298.974121,4313.589844,4301.410156,4289.358887,4490.256348,4506.794922,4374.743652,4428.077148,2725.000000,2.000000,52.000000,,,,0.000000,4.000000,4.000000,4.000000,4.000000,4.000000,4.000000,4.000000,4.000000,4.000000,4.000000,4.000000,4.000000,4.000000,4.000000,100.000000,,,,,,,,,,,,,,,,,,,,,,,,,,,,,,,,,,,,,,,,,,,,,,,
1665772173.597464,1665772173.597997,125.000000,0.000000,4321.153809,4290.256348,4298.333496,4275.256348,4291.666504,4296.538574,4305.641113,4310.128418,4298.077148,4281.922852,4477.307617,4505.256348,4368.333496,4421.922852,3345.000000,2.000000,52.000000,,,,0.000000,4.000000,4.000000,4.000000,4.000000,4.000000,4.000000,4.000000,4.000000,4.000000,4.000000,4.000000,4.000000,4.000000,4.000000,100.000000,,,,,,,,,,,,,,,,,,,,,,,,,,,,,,,,,,,,,,,,,,,,,,,
1665772173.605273,1665772173.605705,126.000000,0.000000,4325.000000,4295.000000,4302.948730,4282.948730,4296.025879,4299.615234,4312.051270,4310.000000,4299.102539,4284.743652,4476.025879,4505.256348,4374.358887,4423.461426,2555.000000,2.000000,52.000000,,,,0.000000,4.000000,4.000000,4.000000,4.000000,4.000000,4.000000,4.000000,4.000000,4.000000,4.000000,4.000000,4.000000,4.000000,4.000000,100.000000,,,,,,,,,,,,,,,,,,,,,,,,,,,,,,,,,,,,,,,,,,,,,,,
