title:Psychopy_cris_classical_ec_2022-10-12T135659.585411, start timestamp:1665608219.501730, stop timestamp:1665608280.532055, headset type:EPOCX, headset serial:E2020A42, headset firmware:720, channels:86, sampling rate:eeg_128;pm_2, samples:7817      , version:2.1, 
Timestamp,OriginalTimestamp,EEG.Counter,EEG.Interpolated,EEG.AF3,EEG.F7,EEG.F3,EEG.FC5,EEG.T7,EEG.P7,EEG.O1,EEG.O2,EEG.P8,EEG.T8,EEG.FC6,EEG.F4,EEG.F8,EEG.AF4,EEG.RawCq,EEG.Battery,EEG.BatteryPercent,MarkerIndex,MarkerType,MarkerValueInt,EEG.MarkerHardware,CQ.AF3,CQ.F7,CQ.F3,CQ.FC5,CQ.T7,CQ.P7,CQ.O1,CQ.O2,CQ.P8,CQ.T8,CQ.FC6,CQ.F4,CQ.F8,CQ.AF4,CQ.Overall,EQ.SampleRateQuality,EQ.OVERALL,EQ.AF3,EQ.F7,EQ.F3,EQ.FC5,EQ.T7,EQ.P7,EQ.O1,EQ.O2,EQ.P8,EQ.T8,EQ.FC6,EQ.F4,EQ.F8,EQ.AF4,PM.Engagement.IsActive,PM.Engagement.Scaled,PM.Engagement.Raw,PM.Engagement.Min,PM.Engagement.Max,PM.Excitement.IsActive,PM.Excitement.Scaled,PM.Excitement.Raw,PM.Excitement.Min,PM.Excitement.Max,PM.LongTermExcitement,PM.Stress.IsActive,PM.Stress.Scaled,PM.Stress.Raw,PM.Stress.Min,PM.Stress.Max,PM.Relaxation.IsActive,PM.Relaxation.Scaled,PM.Relaxation.Raw,PM.Relaxation.Min,PM.Relaxation.Max,PM.Interest.IsActive,PM.Interest.Scaled,PM.Interest.Raw,PM.Interest.Min,PM.Interest.Max,PM.Focus.IsActive,PM.Focus.Scaled,PM.Focus.Raw,PM.Focus.Min,PM.Focus.Max
1665608219.501730,1665608219.501948,92.000000,0.000000,4297.307617,4339.102539,4282.692383,4319.102539,4294.615234,4291.794922,4290.897461,4297.692383,4281.410156,4251.410156,4446.666504,4446.153809,4335.769043,4416.666504,2553.000000,4.000000,91.000000,,,,0.000000,4.000000,4.000000,4.000000,4.000000,4.000000,2.000000,4.000000,4.000000,4.000000,4.000000,4.000000,4.000000,4.000000,4.000000,83.333336,,,,,,,,,,,,,,,,,,,,,,,,,,,,,,,,,,,,,,,,,,,,,,,
1665608219.509538,1665608219.509857,93.000000,0.000000,4297.307617,4339.358887,4284.871582,4321.538574,4297.051270,4293.205078,4291.410156,4294.871582,4280.256348,4247.948730,4444.487305,4445.384766,4332.692383,4418.717773,2262.000000,4.000000,91.000000,,,,0.000000,4.000000,4.000000,4.000000,4.000000,4.000000,2.000000,4.000000,4.000000,4.000000,4.000000,4.000000,4.000000,4.000000,4.000000,83.333336,,,,,,,,,,,,,,,,,,,,,,,,,,,,,,,,,,,,,,,,,,,,,,,
1665608219.517346,1665608219.517665,94.000000,0.000000,4295.769043,4332.820313,4293.077148,4323.077148,4301.153809,4298.846191,4302.051270,4311.538574,4284.230957,4253.077148,4455.641113,4455.512695,4329.358887,4430.256348,2688.000000,4.000000,91.000000,,,,0.000000,4.000000,4.000000,4.000000,4.000000,4.000000,2.000000,4.000000,4.000000,4.000000,4.000000,4.000000,4.000000,4.000000,4.000000,83.333336,,,,,,,,,,,,,,,,,,,,,,,,,,,,,,,,,,,,,,,,,,,,,,,
1665608219.525155,1665608219.525574,95.000000,0.000000,4297.179688,4322.179688,4292.563965,4321.153809,4299.871582,4297.948730,4301.538574,4312.948730,4289.230957,4261.410156,4459.487305,4457.179688,4342.307617,4434.358887,2713.000000,4.000000,91.000000,,,,0.000000,4.000000,4.000000,4.000000,4.000000,4.000000,2.000000,4.000000,4.000000,4.000000,4.000000,4.000000,4.000000,4.000000,4.000000,83.333336,,,,,,,,,,,,,,,,,,,,,,,,,,,,,,,,,,,,,,,,,,,,,,,
1665608219.532963,1665608219.533382,96.000000,0.000000,4297.820313,4313.846191,4282.307617,4313.461426,4289.743652,4291.922852,4284.743652,4288.846191,4279.615234,4250.769043,4445.512695,4450.641113,4346.025879,4419.358887,2553.000000,4.000000,91.000000,,,,0.000000,4.000000,4.000000,4.000000,4.000000,4.000000,2.000000,4.000000,4.000000,4.000000,4.000000,4.000000,4.000000,4.000000,4.000000,83.333336,,,,,,,,,,,,,,,,,,,,,,,,,,,,,,,,,,,,,,,,,,,,,,,
1665608219.540771,1665608219.541290,97.000000,0.000000,4287.436035,4295.384766,4270.641113,4301.922852,4281.922852,4293.077148,4276.410156,4281.922852,4270.512695,4242.436035,4439.743652,4457.307617,4333.717773,4402.436035,2262.000000,4.000000,91.000000,,,,0.000000,4.000000,4.000000,4.000000,4.000000,4.000000,2.000000,4.000000,4.000000,4.000000,4.000000,4.000000,4.000000,4.000000,4.000000,83.333336,,,,,,,,,,,,,,,,,,,,,,,,,,,,,,,,,,,,,,,,,,,,,,,
1665608219.548580,1665608219.549099,98.000000,0.000000,4272.692383,4271.666504,4263.589844,4289.102539,4280.384766,4297.948730,4281.922852,4294.358887,4275.384766,4256.282227,4448.846191,4473.333496,4340.256348,4399.230957,2688.000000,4.000000,91.000000,,,,0.000000,4.000000,4.000000,4.000000,4.000000,4.000000,2.000000,4.000000,4.000000,4.000000,4.000000,4.000000,4.000000,4.000000,4.000000,83.333336,,,,,,,,,,,,,,,,,,,,,,,,,,,,,,,,,,,,,,,,,,,,,,,
1665608219.556388,1665608219.557007,99.000000,0.000000,4263.974121,4260.000000,4259.230957,4279.358887,4275.769043,4296.153809,4282.307617,4299.615234,4280.897461,4261.538574,4449.743652,4484.102539,4354.102539,4393.333496,2713.000000,4.000000,91.000000,,,,0.000000,4.000000,4.000000,4.000000,4.000000,4.000000,2.000000,4.000000,4.000000,4.000000,4.000000,4.000000,4.000000,4.000000,4.000000,83.333336,,,,,,,,,,,,,,,,,,,,,,,,,,,,,,,,,,,,,,,,,,,,,,,
1665608219.564196,1665608219.564816,100.000000,0.000000,4261.282227,4260.769043,4256.282227,4279.102539,4271.410156,4292.307617,4280.000000,4301.025879,4281.153809,4254.230957,4441.410156,4496.922852,4343.589844,4382.820313,2553.000000,4.000000,91.000000,,,,0.000000,4.000000,4.000000,4.000000,4.000000,4.000000,2.000000,4.000000,4.000000,4.000000,4.000000,4.000000,4.000000,4.000000,4.000000,83.333336,,,,,,,,,,,,,,,,,,,,,,,,,,,,,,,,,,,,,,,,,,,,,,,
1665608219.572005,1665608219.572724,101.000000,0.000000,4262.051270,4265.897461,4259.615234,4291.538574,4276.153809,4293.589844,4288.589844,4304.871582,4282.692383,4260.128418,4441.922852,4518.717773,4338.077148,4389.487305,2262.000000,4.000000,91.000000,,,,0.000000,4.000000,4.000000,4.000000,4.000000,4.000000,2.000000,4.000000,4.000000,4.000000,4.000000,4.000000,4.000000,4.000000,4.000000,83.333336,,,,,,,,,,,,,,,,,,,,,,,,,,,,,,,,,,,,,,,,,,,,,,,
1665608219.579813,1665608219.580532,102.000000,0.000000,4266.666504,4264.102539,4266.153809,4296.794922,4282.179688,4297.179688,4297.820313,4303.589844,4285.128418,4266.922852,4451.410156,4532.692383,4346.025879,4400.384766,2688.000000,4.000000,91.000000,,,,0.000000,4.000000,4.000000,4.000000,4.000000,4.000000,2.000000,4.000000,4.000000,4.000000,4.000000,4.000000,4.000000,4.000000,4.000000,83.333336,,,,,,,,,,,,,,,,,,,,,,,,,,,,,,,,,,,,,,,,,,,,,,,
1665608219.587622,1665608219.588241,103.000000,0.000000,4272.820313,4259.743652,4270.769043,4290.000000,4278.974121,4297.820313,4297.179688,4300.128418,4286.025879,4263.461426,4456.794922,4531.666504,4344.871582,4400.128418,2713.000000,4.000000,91.000000,,,,0.000000,4.000000,4.000000,4.000000,4.000000,4.000000,2.000000,4.000000,4.000000,4.000000,4.000000,4.000000,4.000000,4.000000,4.000000,83.333336,,,,,,,,,,,,,,,,,,,,,,,,,,,,,,,,,,,,,,,,,,,,,,,
1665608219.595430,1665608219.596049,104.000000,0.000000,4281.922852,4270.897461,4277.820313,4291.538574,4280.000000,4296.025879,4298.461426,4306.666504,4292.820313,4267.820313,4462.820313,4534.230957,4353.589844,4409.230957,2553.000000,4.000000,91.000000,,,,0.000000,4.000000,4.000000,4.000000,4.000000,4.000000,2.000000,4.000000,4.000000,4.000000,4.000000,4.000000,4.000000,4.000000,4.000000,83.333336,,,,,,,,,,,,,,,,,,,,,,,,,,,,,,,,,,,,,,,,,,,,,,,
1665608219.603238,1665608219.603758,105.000000,0.000000,4284.102539,4279.743652,4281.025879,4300.000000,4288.077148,4297.692383,4299.102539,4311.794922,4296.410156,4271.794922,4460.512695,4533.333496,4357.820313,4414.487305,2262.000000,4.000000,91.000000,,,,0.000000,4.000000,4.000000,4.000000,4.000000,4.000000,2.000000,4.000000,4.000000,4.000000,4.000000,4.000000,4.000000,4.000000,4.000000,83.333336,,,,,,,,,,,,,,,,,,,,,,,,,,,,,,,,,,,,,,,,,,,,,,,
1665608219.611047,1665608219.611566,106.000000,0.000000,4271.282227,4268.974121,4268.461426,4294.871582,4286.025879,4297.948730,4288.974121,4302.948730,4286.153809,4261.153809,4442.563965,4514.871582,4337.820313,4397.692383,2688.000000,4.000000,91.000000,,,,0.000000,4.000000,4.000000,4.000000,4.000000,4.000000,2.000000,4.000000,4.000000,4.000000,4.000000,4.000000,4.000000,4.000000,4.000000,83.333336,,,,,,,,,,,,,,,,,,,,,,,,,,,,,,,,,,,,,,,,,,,,,,,
1665608219.618855,1665608219.619275,107.000000,0.000000,4262.307617,4256.410156,4259.487305,4284.230957,4277.179688,4289.743652,4275.769043,4292.563965,4277.692383,4256.410156,4439.358887,4499.487305,4344.102539,4391.410156,2713.000000,4.000000,91.000000,,,,0.000000,4.000000,4.000000,4.000000,4.000000,4.000000,2.000000,4.000000,4.000000,4.000000,4.000000,4.000000,4.000000,4.000000,4.000000,83.333336,,,,,,,,,,,,,,,,,,,,,,,,,,,,,,,,,,,,,,,,,,,,,,,
1665608219.626664,1665608219.627083,108.000000,0.000000,4265.769043,4255.256348,4262.820313,4284.487305,4269.487305,4281.025879,4266.410156,4283.846191,4273.077148,4255.897461,4450.769043,4493.589844,4370.897461,4400.000000,2553.000000,4.000000,91.000000,,,,0.000000,4.000000,4.000000,4.000000,4.000000,4.000000,2.000000,4.000000,4.000000,4.000000,4.000000,4.000000,4.000000,4.000000,4.000000,83.333336,,,,,,,,,,,,,,,,,,,,,,,,,,,,,,,,,,,,,,,,,,,,,,,
1665608219.634472,1665608219.634792,109.000000,0.000000,4264.358887,4255.769043,4261.538574,4281.410156,4265.128418,4280.128418,4262.051270,4271.922852,4261.922852,4244.871582,4440.897461,4479.871582,4362.051270,4392.563965,2262.000000,4.000000,91.000000,,,,0.000000,4.000000,4.000000,4.000000,4.000000,4.000000,2.000000,4.000000,4.000000,4.000000,4.000000,4.000000,4.000000,4.000000,4.000000,83.333336,,,,,,,,,,,,,,,,,,,,,,,,,,,,,,,,,,,,,,,,,,,,,,,
1665608219.642280,1665608219.642600,110.000000,0.000000,4258.589844,4258.717773,4257.820313,4276.922852,4269.615234,4284.358887,4268.717773,4272.692383,4257.436035,4239.230957,4423.717773,4475.000000,4332.563965,4379.230957,2688.000000,4.000000,91.000000,,,,0.000000,4.000000,4.000000,4.000000,4.000000,4.000000,2.000000,4.000000,4.000000,4.000000,4.000000,4.000000,4.000000,4.000000,4.000000,83.333336,,,,,,,,,,,,,,,,,,,,,,,,,,,,,,,,,,,,,,,,,,,,,,,
1665608219.650089,1665608219.650409,111.000000,0.000000,4263.333496,4277.051270,4263.589844,4291.794922,4279.358887,4291.538574,4280.128418,4290.256348,4271.666504,4246.282227,4429.358887,4486.410156,4325.384766,4384.102539,2713.000000,4.000000,91.000000,,,,0.000000,4.000000,4.000000,4.000000,4.000000,4.000000,2.000000,4.000000,4.000000,4.000000,4.000000,4.000000,4.000000,4.000000,4.000000,83.333336,,,,,,,,,,,,,,,,,,,,,,,,,,,,,,,,,,,,,,,,,,,,,,,
1665608219.657897,1665608219.658217,112.000000,0.000000,4270.000000,4298.205078,4268.846191,4305.641113,4283.077148,4296.538574,4281.025879,4300.641113,4283.846191,4252.307617,4437.179688,4491.025879,4331.794922,4392.307617,2553.000000,4.000000,91.000000,,,,0.000000,4.000000,4.000000,4.000000,4.000000,4.000000,2.000000,4.000000,4.000000,4.000000,4.000000,4.000000,4.000000,4.000000,4.000000,83.333336,,,,,,,,,,,,,,,,,,,,,,,,,,,,,,,,,,,,,,,,,,,,,,,
1665608219.665706,1665608219.666026,113.000000,0.000000,4267.563965,4299.743652,4262.307617,4298.974121,4280.769043,4294.487305,4276.025879,4293.461426,4278.333496,4249.487305,4428.717773,4480.641113,4320.128418,4386.410156,2262.000000,4.000000,91.000000,,,,0.000000,4.000000,4.000000,4.000000,4.000000,4.000000,2.000000,4.000000,4.000000,4.000000,4.000000,4.000000,4.000000,4.000000,4.000000,83.333336,,,,,,,,,,,,,,,,,,,,,,,,,,,,,,,,,,,,,,,,,,,,,,,
1665608219.673514,1665608219.673834,114.000000,0.000000,4261.538574,4283.846191,4257.179688,4290.641113,4280.769043,4292.948730,4277.436035,4289.871582,4273.077148,4246.538574,4420.641113,4473.846191,4294.487305,4378.205078,2688.000000,4.000000,91.000000,,,,0.000000,4.000000,4.000000,4.000000,4.000000,4.000000,2.000000,4.000000,4.000000,4.000000,4.000000,4.000000,4.000000,4.000000,4.000000,83.333336,,,,,,,,,,,,,,,,,,,,,,,,,,,,,,,,,,,,,,,,,,,,,,,
1665608219.681322,1665608219.681543,115.000000,0.000000,4262.948730,4278.974121,4261.922852,4295.256348,4281.794922,4295.769043,4282.179688,4297.436035,4279.743652,4256.153809,4430.512695,4477.948730,4300.769043,4387.179688,2713.000000,4.000000,91.000000,,,,0.000000,4.000000,4.000000,4.000000,4.000000,4.000000,2.000000,4.000000,4.000000,4.000000,4.000000,4.000000,4.000000,4.000000,4.000000,83.333336,,,,,,,,,,,,,,,,,,,,,,,,,,,,,,,,,,,,,,,,,,,,,,,
1665608219.689131,1665608219.689351,116.000000,0.000000,4275.641113,4283.717773,4267.692383,4298.846191,4282.307617,4296.025879,4284.743652,4301.153809,4285.641113,4267.820313,4447.179688,4484.743652,4340.897461,4403.205078,2553.000000,4.000000,91.000000,,,,0.000000,4.000000,4.000000,4.000000,4.000000,4.000000,2.000000,4.000000,4.000000,4.000000,4.000000,4.000000,4.000000,4.000000,4.000000,83.333336,,,,,,,,,,,,,,,,,,,,,,,,,,,,,,,,,,,,,,,,,,,,,,,
1665608219.696939,1665608219.697060,117.000000,0.000000,4274.871582,4271.666504,4266.025879,4291.922852,4280.000000,4293.333496,4283.333496,4296.282227,4281.538574,4263.846191,4447.307617,4482.179688,4349.743652,4402.692383,2262.000000,4.000000,91.000000,,,,0.000000,4.000000,4.000000,4.000000,4.000000,4.000000,2.000000,4.000000,4.000000,4.000000,4.000000,4.000000,4.000000,4.000000,4.000000,83.333336,,,,,,,,,,,,,,,,,,,,,,,,,,,,,,,,,,,,,,,,,,,,,,,
1665608219.704748,1665608219.704968,118.000000,0.000000,4263.205078,4258.846191,4262.820313,4287.307617,4276.410156,4291.794922,4280.000000,4293.717773,4278.461426,4259.230957,4439.487305,4472.436035,4330.769043,4396.410156,2688.000000,4.000000,91.000000,,,,0.000000,4.000000,4.000000,4.000000,4.000000,4.000000,2.000000,4.000000,4.000000,4.000000,4.000000,4.000000,4.000000,4.000000,4.000000,83.333336,,,,,,,,,,,,,,,,,,,,,,,,,,,,,,,,,,,,,,,,,,,,,,,
1665608219.712556,1665608219.712776,119.000000,0.000000,4270.641113,4263.333496,4268.717773,4289.230957,4279.743652,4293.974121,4279.615234,4292.436035,4280.512695,4265.256348,4445.000000,4470.512695,4335.897461,4400.512695,2713.000000,4.000000,91.000000,,,,0.000000,4.000000,4.000000,4.000000,4.000000,4.000000,2.000000,4.000000,4.000000,4.000000,4.000000,4.000000,4.000000,4.000000,4.000000,83.333336,,,,,,,,,,,,,,,,,,,,,,,,,,,,,,,,,,,,,,,,,,,,,,,
1665608219.720364,1665608219.720685,120.000000,0.000000,4273.077148,4264.230957,4266.794922,4287.948730,4276.538574,4293.077148,4279.102539,4289.230957,4280.512695,4261.153809,4444.487305,4466.794922,4342.307617,4395.128418,2553.000000,4.000000,91.000000,,,,0.000000,4.000000,4.000000,4.000000,4.000000,4.000000,2.000000,4.000000,4.000000,4.000000,4.000000,4.000000,4.000000,4.000000,4.000000,83.333336,,,,,,,,,,,,,,,,,,,,,,,,,,,,,,,,,,,,,,,,,,,,,,,
1665608219.728173,1665608219.728493,121.000000,0.000000,4251.025879,4249.230957,4252.948730,4279.871582,4265.897461,4288.205078,4276.922852,4290.256348,4276.410156,4250.128418,4426.794922,4456.282227,4325.512695,4379.743652,2262.000000,4.000000,91.000000,,,,0.000000,4.000000,4.000000,4.000000,4.000000,4.000000,2.000000,4.000000,4.000000,4.000000,4.000000,4.000000,4.000000,4.000000,4.000000,83.333336,,,,,,,,,,,,,,,,,,,,,,,,,,,,,,,,,,,,,,,,,,,,,,,
1665608219.735981,1665608219.736402,122.000000,0.000000,4248.974121,4246.282227,4253.846191,4277.051270,4268.974121,4291.153809,4286.794922,4298.333496,4280.512695,4256.538574,4431.666504,4457.051270,4324.871582,4384.102539,2688.000000,4.000000,91.000000,,,,0.000000,4.000000,4.000000,4.000000,4.000000,4.000000,2.000000,4.000000,4.000000,4.000000,4.000000,4.000000,4.000000,4.000000,4.000000,83.333336,,,,,,,,,,,,,,,,,,,,,,,,,,,,,,,,,,,,,,,,,,,,,,,
1665608219.743789,1665608219.744210,123.000000,0.000000,4267.820313,4254.871582,4266.666504,4280.769043,4279.230957,4296.538574,4294.102539,4306.025879,4291.922852,4267.563965,4454.487305,4467.563965,4344.615234,4399.487305,2713.000000,4.000000,91.000000,,,,0.000000,4.000000,4.000000,4.000000,4.000000,4.000000,2.000000,4.000000,4.000000,4.000000,4.000000,4.000000,4.000000,4.000000,4.000000,83.333336,,,,,,,,,,,,,,,,,,,,,,,,,,,,,,,,,,,,,,,,,,,,,,,
1665608219.751598,1665608219.752118,124.000000,0.000000,4269.358887,4253.974121,4267.436035,4286.538574,4278.461426,4293.974121,4289.102539,4304.743652,4291.538574,4267.692383,4455.769043,4468.333496,4350.769043,4402.179688,2553.000000,4.000000,91.000000,,,,0.000000,4.000000,4.000000,4.000000,4.000000,4.000000,2.000000,4.000000,4.000000,4.000000,4.000000,4.000000,4.000000,4.000000,4.000000,83.333336,,,,,,,,,,,,,,,,,,,,,,,,,,,,,,,,,,,,,,,,,,,,,,,
1665608219.759406,1665608219.760027,125.000000,0.000000,4265.512695,4249.358887,4263.461426,4286.666504,4274.102539,4292.436035,4287.948730,4294.743652,4278.461426,4262.948730,4441.153809,4464.871582,4339.102539,4397.307617,2262.000000,4.000000,91.000000,,,,0.000000,4.000000,4.000000,4.000000,4.000000,4.000000,2.000000,4.000000,4.000000,4.000000,4.000000,4.000000,4.000000,4.000000,4.000000,83.333336,,,,,,,,,,,,,,,,,,,,,,,,,,,,,,,,,,,,,,,,,,,,,,,
1665608219.767215,1665608219.767835,126.000000,0.000000,4266.922852,4245.641113,4266.538574,4279.102539,4276.025879,4295.384766,4288.205078,4290.641113,4271.282227,4259.230957,4440.769043,4465.000000,4329.358887,4392.948730,2688.000000,4.000000,91.000000,,,,0.000000,4.000000,4.000000,4.000000,4.000000,4.000000,2.000000,4.000000,4.000000,4.000000,4.000000,4.000000,4.000000,4.000000,4.000000,83.333336,,,,,,,,,,,,,,,,,,,,,,,,,,,,,,,,,,,,,,,,,,,,,,,
1665608219.775023,1665608219.775644,127.000000,0.000000,4266.282227,4250.641113,4275.128418,4281.282227,4283.974121,4296.666504,4289.358887,4302.436035,4281.666504,4268.717773,4455.512695,4468.461426,4336.282227,4399.230957,91.000000,4.000000,91.000000,,,,0.000000,4.000000,4.000000,4.000000,4.000000,4.000000,2.000000,4.000000,4.000000,4.000000,4.000000,4.000000,4.000000,4.000000,4.000000,83.333336,,,,,,,,,,,,,,,,,,,,,,,,,,,,,,,,,,,,,,,,,,,,,,,
1665608219.782831,1665608219.783352,0.000000,0.000000,4270.769043,4261.282227,4280.641113,4289.230957,4289.230957,4298.205078,4296.666504,4312.948730,4293.846191,4282.307617,4460.256348,4471.282227,4352.051270,4412.179688,2314.000000,4.000000,91.000000,,,,0.000000,4.000000,4.000000,4.000000,4.000000,4.000000,2.000000,4.000000,4.000000,4.000000,4.000000,4.000000,4.000000,4.000000,4.000000,83.333336,,,,,,,,,,,,,,,,,,,,,,,,,,,,,,,,,,,,,,,,,,,,,,,
1665608219.790640,1665608219.791161,1.000000,0.000000,4269.871582,4255.128418,4273.461426,4282.563965,4283.846191,4298.846191,4294.487305,4308.974121,4290.897461,4272.051270,4451.538574,4465.256348,4350.769043,4407.820313,2279.000000,4.000000,91.000000,,,,0.000000,4.000000,4.000000,4.000000,4.000000,4.000000,2.000000,4.000000,4.000000,4.000000,4.000000,4.000000,4.000000,4.000000,4.000000,83.333336,,,,,,,,,,,,,,,,,,,,,,,,,,,,,,,,,,,,,,,,,,,,,,,
1665608219.798448,1665608219.798869,2.000000,0.000000,4260.128418,4245.384766,4267.948730,4275.128418,4283.333496,4298.461426,4290.384766,4305.384766,4287.179688,4260.384766,4448.846191,4460.000000,4338.974121,4399.743652,2272.000000,4.000000,91.000000,,,,0.000000,4.000000,4.000000,4.000000,4.000000,4.000000,2.000000,4.000000,4.000000,4.000000,4.000000,4.000000,4.000000,4.000000,4.000000,83.333336,,,,,,,,,,,,,,,,,,,,,,,,,,,,,,,,,,,,,,,,,,,,,,,
1665608219.806256,1665608219.806778,3.000000,0.000000,4271.153809,4260.384766,4282.051270,4281.410156,4296.922852,4307.179688,4305.512695,4313.717773,4296.794922,4272.436035,4457.307617,4470.769043,4343.974121,4411.922852,2401.000000,4.000000,91.000000,,,,0.000000,4.000000,4.000000,4.000000,4.000000,4.000000,2.000000,4.000000,4.000000,4.000000,4.000000,4.000000,4.000000,4.000000,4.000000,83.333336,,,,,,,,,,,,,,,,,,,,,,,,,,,,,,,,,,,,,,,,,,,,,,,
1665608219.814065,1665608219.814586,4.000000,0.000000,4288.205078,4269.487305,4288.974121,4284.358887,4300.256348,4312.820313,4309.230957,4314.743652,4299.743652,4275.384766,4460.000000,4475.128418,4352.563965,4418.717773,2403.000000,4.000000,91.000000,,,,0.000000,4.000000,4.000000,4.000000,4.000000,4.000000,2.000000,4.000000,4.000000,4.000000,4.000000,4.000000,4.000000,4.000000,4.000000,83.333336,,,,,,,,,,,,,,,,,,,,,,,,,,,,,,,,,,,,,,,,,,,,,,,
1665608219.821873,1665608219.822394,5.000000,0.000000,4284.871582,4253.205078,4281.794922,4280.512695,4293.205078,4304.102539,4292.820313,4304.358887,4287.692383,4262.948730,4454.230957,4464.102539,4345.769043,4409.743652,1601.000000,4.000000,91.000000,,,,0.000000,4.000000,4.000000,4.000000,4.000000,4.000000,2.000000,4.000000,4.000000,4.000000,4.000000,4.000000,4.000000,4.000000,4.000000,83.333336,1.000000,83.333336,4.000000,4.000000,4.000000,4.000000,4.000000,2.000000,4.000000,4.000000,4.000000,4.000000,4.000000,4.000000,4.000000,4.000000,1.000000,0.553197,-0.213325,-1.107507,0.345077,1.000000,0.075919,3.282128,2.379215,14.272295,0.089501,1.000000,0.385139,44.582489,-426.058197,731.895142,1.000000,0.171785,0.166484,0.111712,0.332378,1.000000,0.430930,3.910468,-7.459992,18.710478,1.000000,0.345933,0.345933,0.000000,1.000000
1665608219.829682,1665608219.830103,6.000000,0.000000,4281.794922,4247.307617,4285.897461,4279.871582,4293.333496,4297.820313,4291.538574,4303.717773,4283.333496,4262.307617,4453.333496,4463.333496,4337.820313,4406.794922,2262.000000,4.000000,91.000000,,,,0.000000,4.000000,4.000000,4.000000,4.000000,4.000000,2.000000,4.000000,4.000000,4.000000,4.000000,4.000000,4.000000,4.000000,4.000000,83.333336,,,,,,,,,,,,,,,,,,,,,,,,,,,,,,,,,,,,,,,,,,,,,,,
1665608219.837490,1665608219.837911,7.000000,0.000000,4289.358887,4259.102539,4294.743652,4278.717773,4293.461426,4301.410156,4296.538574,4308.205078,4288.333496,4265.256348,4456.794922,4469.230957,4342.820313,4411.025879,2311.000000,4.000000,91.000000,,,,0.000000,4.000000,4.000000,4.000000,4.000000,4.000000,2.000000,4.000000,4.000000,4.000000,4.000000,4.000000,4.000000,4.000000,4.000000,83.333336,,,,,,,,,,,,,,,,,,,,,,,,,,,,,,,,,,,,,,,,,,,,,,,
1665608219.845298,1665608219.845620,8.000000,0.000000,4294.871582,4266.666504,4295.897461,4282.692383,4293.974121,4307.948730,4301.410156,4314.230957,4294.487305,4264.102539,4461.282227,4471.538574,4356.538574,4419.615234,2384.000000,4.000000,91.000000,,,,0.000000,4.000000,4.000000,4.000000,4.000000,4.000000,2.000000,4.000000,4.000000,4.000000,4.000000,4.000000,4.000000,4.000000,4.000000,83.333336,,,,,,,,,,,,,,,,,,,,,,,,,,,,,,,,,,,,,,,,,,,,,,,
1665608219.853107,1665608219.853528,9.000000,0.000000,4295.512695,4265.512695,4296.025879,4288.846191,4298.974121,4311.794922,4308.846191,4317.948730,4296.025879,4265.128418,4460.128418,4471.666504,4354.615234,4423.205078,2358.000000,4.000000,91.000000,,,,0.000000,4.000000,4.000000,4.000000,4.000000,4.000000,2.000000,4.000000,4.000000,4.000000,4.000000,4.000000,4.000000,4.000000,4.000000,83.333336,,,,,,,,,,,,,,,,,,,,,,,,,,,,,,,,,,,,,,,,,,,,,,,
1665608219.860915,1665608219.861337,10.000000,0.000000,4295.000000,4263.974121,4294.230957,4286.282227,4299.358887,4310.256348,4308.333496,4313.589844,4293.077148,4264.358887,4464.230957,4471.282227,4352.563965,4418.717773,2678.000000,4.000000,91.000000,,,,0.000000,4.000000,4.000000,4.000000,4.000000,4.000000,2.000000,4.000000,4.000000,4.000000,4.000000,4.000000,4.000000,4.000000,4.000000,83.333336,,,,,,,,,,,,,,,,,,,,,,,,,,,,,,,,,,,,,,,,,,,,,,,
1665608219.868724,1665608219.869245,11.000000,0.000000,4295.128418,4265.769043,4293.589844,4283.589844,4297.051270,4306.538574,4306.410156,4320.000000,4298.461426,4267.179688,4472.051270,4472.436035,4362.307617,4420.000000,2710.000000,4.000000,91.000000,,,,0.000000,4.000000,4.000000,4.000000,4.000000,4.000000,2.000000,4.000000,4.000000,4.000000,4.000000,4.000000,4.000000,4.000000,4.000000,83.333336,,,,,,,,,,,,,,,,,,,,,,,,,,,,,,,,,,,,,,,,,,,,,,,
1665608219.876532,1665608219.877054,12.000000,0.000000,4290.769043,4265.897461,4294.615234,4285.256348,4297.563965,4306.794922,4308.974121,4330.384766,4304.487305,4271.025879,4461.538574,4472.948730,4348.589844,4417.307617,2551.000000,4.000000,91.000000,,,,0.000000,4.000000,4.000000,4.000000,4.000000,4.000000,2.000000,4.000000,4.000000,4.000000,4.000000,4.000000,4.000000,4.000000,4.000000,83.333336,,,,,,,,,,,,,,,,,,,,,,,,,,,,,,,,,,,,,,,,,,,,,,,
1665608219.884340,1665608219.884962,13.000000,0.000000,4286.922852,4268.846191,4293.205078,4287.179688,4298.717773,4312.820313,4307.307617,4323.461426,4305.000000,4275.128418,4457.179688,4469.230957,4343.461426,4411.666504,2257.000000,4.000000,91.000000,,,,0.000000,4.000000,4.000000,4.000000,4.000000,4.000000,2.000000,4.000000,4.000000,4.000000,4.000000,4.000000,4.000000,4.000000,4.000000,83.333336,,,,,,,,,,,,,,,,,,,,,,,,,,,,,,,,,,,,,,,,,,,,,,,
1665608219.892149,1665608219.892770,14.000000,0.000000,4292.563965,4278.333496,4292.051270,4287.692383,4298.205078,4312.692383,4302.436035,4317.051270,4305.641113,4283.077148,4476.538574,4466.794922,4388.846191,4421.410156,2678.000000,4.000000,91.000000,,,,0.000000,4.000000,4.000000,4.000000,4.000000,4.000000,2.000000,4.000000,4.000000,4.000000,4.000000,4.000000,4.000000,4.000000,4.000000,83.333336,,,,,,,,,,,,,,,,,,,,,,,,,,,,,,,,,,,,,,,,,,,,,,,
1665608219.899957,1665608219.900679,15.000000,0.000000,4297.948730,4275.512695,4294.230957,4283.717773,4296.153809,4301.794922,4297.436035,4318.974121,4302.692383,4284.871582,4486.410156,4465.128418,4418.589844,4431.922852,2710.000000,4.000000,91.000000,,,,0.000000,4.000000,4.000000,4.000000,4.000000,4.000000,2.000000,4.000000,4.000000,4.000000,4.000000,4.000000,4.000000,4.000000,4.000000,83.333336,,,,,,,,,,,,,,,,,,,,,,,,,,,,,,,,,,,,,,,,,,,,,,,
1665608219.907766,1665608219.908487,16.000000,0.000000,4293.974121,4255.897461,4294.615234,4276.666504,4294.487305,4297.179688,4292.307617,4310.000000,4298.461426,4286.282227,4481.794922,4464.487305,4412.307617,4426.922852,0.000000,4.000000,91.000000,,,,0.000000,4.000000,4.000000,4.000000,4.000000,4.000000,2.000000,4.000000,4.000000,4.000000,4.000000,4.000000,4.000000,4.000000,4.000000,83.333336,,,,,,,,,,,,,,,,,,,,,,,,,,,,,,,,,,,,,,,,,,,,,,,
1665608219.915574,1665608219.916395,17.000000,0.000000,4292.563965,4250.769043,4293.461426,4276.410156,4292.563965,4301.282227,4290.384766,4304.743652,4301.153809,4293.717773,4491.410156,4467.307617,4435.512695,4425.384766,0.000000,4.000000,91.000000,,,,0.000000,4.000000,4.000000,4.000000,4.000000,4.000000,2.000000,4.000000,4.000000,4.000000,4.000000,4.000000,4.000000,4.000000,4.000000,83.333336,,,,,,,,,,,,,,,,,,,,,,,,,,,,,,,,,,,,,,,,,,,,,,,
1665608219.923382,1665608219.924204,18.000000,0.000000,4295.641113,4262.051270,4294.358887,4280.512695,4293.461426,4301.153809,4291.794922,4312.563965,4302.051270,4291.025879,4497.307617,4467.307617,4454.487305,4430.000000,0.000000,4.000000,91.000000,,,,0.000000,4.000000,4.000000,4.000000,4.000000,4.000000,2.000000,4.000000,4.000000,4.000000,4.000000,4.000000,4.000000,4.000000,4.000000,83.333336,,,,,,,,,,,,,,,,,,,,,,,,,,,,,,,,,,,,,,,,,,,,,,,
1665608219.931191,1665608219.932112,19.000000,0.000000,4291.922852,4263.205078,4292.692383,4278.717773,4293.974121,4302.179688,4295.641113,4311.666504,4293.461426,4273.333496,4476.922852,4460.897461,4417.692383,4427.179688,0.000000,4.000000,91.000000,,,,0.000000,4.000000,4.000000,4.000000,4.000000,4.000000,2.000000,4.000000,4.000000,4.000000,4.000000,4.000000,4.000000,4.000000,4.000000,83.333336,,,,,,,,,,,,,,,,,,,,,,,,,,,,,,,,,,,,,,,,,,,,,,,
1665608219.938999,1665608219.939921,20.000000,0.000000,4291.153809,4260.641113,4290.512695,4276.666504,4287.692383,4310.000000,4303.717773,4310.256348,4293.717773,4268.205078,4473.205078,4458.717773,4407.051270,4426.666504,0.000000,4.000000,91.000000,,,,0.000000,4.000000,4.000000,4.000000,4.000000,4.000000,2.000000,4.000000,4.000000,4.000000,4.000000,4.000000,4.000000,4.000000,4.000000,83.333336,,,,,,,,,,,,,,,,,,,,,,,,,,,,,,,,,,,,,,,,,,,,,,,
1665608219.946807,1665608219.947829,21.000000,0.000000,4301.025879,4263.077148,4294.871582,4276.538574,4281.153809,4311.025879,4309.487305,4324.743652,4309.102539,4285.769043,4502.820313,4467.179688,4459.102539,4440.641113,0.000000,4.000000,91.000000,,,,0.000000,4.000000,4.000000,4.000000,4.000000,4.000000,2.000000,4.000000,4.000000,4.000000,4.000000,4.000000,4.000000,4.000000,4.000000,83.333336,,,,,,,,,,,,,,,,,,,,,,,,,,,,,,,,,,,,,,,,,,,,,,,
1665608219.954616,1665608219.955638,22.000000,0.000000,4310.512695,4268.333496,4304.615234,4282.179688,4286.410156,4307.563965,4310.128418,4337.051270,4321.282227,4302.692383,4519.358887,4476.282227,4490.641113,4456.025879,0.000000,4.000000,91.000000,,,,0.000000,4.000000,4.000000,4.000000,4.000000,4.000000,2.000000,4.000000,4.000000,4.000000,4.000000,4.000000,4.000000,4.000000,4.000000,83.333336,,,,,,,,,,,,,,,,,,,,,,,,,,,,,,,,,,,,,,,,,,,,,,,
1665608219.962424,1665608219.963346,23.000000,0.000000,4314.358887,4282.948730,4307.948730,4292.948730,4295.384766,4310.641113,4305.384766,4332.692383,4322.436035,4304.358887,4508.589844,4475.769043,4476.794922,4456.410156,0.000000,4.000000,91.000000,,,,0.000000,4.000000,4.000000,4.000000,4.000000,4.000000,2.000000,4.000000,4.000000,4.000000,4.000000,4.000000,4.000000,4.000000,4.000000,83.333336,,,,,,,,,,,,,,,,,,,,,,,,,,,,,,,,,,,,,,,,,,,,,,,
1665608219.970233,1665608219.971155,24.000000,0.000000,4310.000000,4305.000000,4299.487305,4295.384766,4297.179688,4311.794922,4297.436035,4318.589844,4308.846191,4293.717773,4498.717773,4465.128418,4462.820313,4445.128418,0.000000,4.000000,91.000000,,,,0.000000,4.000000,4.000000,4.000000,4.000000,4.000000,2.000000,4.000000,4.000000,4.000000,4.000000,4.000000,4.000000,4.000000,4.000000,83.333336,,,,,,,,,,,,,,,,,,,,,,,,,,,,,,,,,,,,,,,,,,,,,,,
1665608219.978041,1665608219.978863,25.000000,0.000000,4301.025879,4317.436035,4294.358887,4295.128418,4297.563965,4311.538574,4298.846191,4313.333496,4295.384766,4282.948730,4486.282227,4459.358887,4440.769043,4435.897461,0.000000,4.000000,91.000000,,,,0.000000,4.000000,4.000000,4.000000,4.000000,4.000000,2.000000,4.000000,4.000000,4.000000,4.000000,4.000000,4.000000,4.000000,4.000000,83.333336,,,,,,,,,,,,,,,,,,,,,,,,,,,,,,,,,,,,,,,,,,,,,,,
1665608219.985849,1665608219.986671,26.000000,0.000000,4305.256348,4319.743652,4304.743652,4304.230957,4298.717773,4312.179688,4306.794922,4318.461426,4297.179688,4276.666504,4477.179688,4466.282227,4417.820313,4441.153809,0.000000,4.000000,91.000000,,,,0.000000,4.000000,4.000000,4.000000,4.000000,4.000000,2.000000,4.000000,4.000000,4.000000,4.000000,4.000000,4.000000,4.000000,4.000000,83.333336,,,,,,,,,,,,,,,,,,,,,,,,,,,,,,,,,,,,,,,,,,,,,,,
1665608219.993658,1665608219.994380,27.000000,0.000000,4321.794922,4323.589844,4320.000000,4312.563965,4297.307617,4311.153809,4308.589844,4322.692383,4304.871582,4279.743652,4495.641113,4476.282227,4437.820313,4456.025879,0.000000,4.000000,91.000000,,,,0.000000,4.000000,4.000000,4.000000,4.000000,4.000000,2.000000,4.000000,4.000000,4.000000,4.000000,4.000000,4.000000,4.000000,4.000000,83.333336,,,,,,,,,,,,,,,,,,,,,,,,,,,,,,,,,,,,,,,,,,,,,,,
1665608220.001466,1665608220.002188,28.000000,0.000000,4329.871582,4330.769043,4328.717773,4312.820313,4297.948730,4308.846191,4308.846191,4325.641113,4306.410156,4288.205078,4509.230957,4478.846191,4466.538574,4463.717773,0.000000,4.000000,91.000000,,,,0.000000,4.000000,4.000000,4.000000,4.000000,4.000000,2.000000,4.000000,4.000000,4.000000,4.000000,4.000000,4.000000,4.000000,4.000000,83.333336,,,,,,,,,,,,,,,,,,,,,,,,,,,,,,,,,,,,,,,,,,,,,,,
1665608220.009274,1665608220.009897,29.000000,0.000000,4328.205078,4340.769043,4327.820313,4315.000000,4299.487305,4309.358887,4310.384766,4328.461426,4301.922852,4284.871582,4496.410156,4476.538574,4458.846191,4464.871582,0.000000,4.000000,91.000000,,,,0.000000,4.000000,4.000000,4.000000,4.000000,4.000000,2.000000,4.000000,4.000000,4.000000,4.000000,4.000000,4.000000,4.000000,4.000000,83.333336,,,,,,,,,,,,,,,,,,,,,,,,,,,,,,,,,,,,,,,,,,,,,,,
1665608220.017083,1665608220.017705,30.000000,0.000000,4323.205078,4345.256348,4316.922852,4316.922852,4297.436035,4310.641113,4304.871582,4322.563965,4297.948730,4271.153809,4486.153809,4468.974121,4433.205078,4458.974121,0.000000,4.000000,91.000000,,,,0.000000,4.000000,4.000000,4.000000,4.000000,4.000000,2.000000,4.000000,4.000000,4.000000,4.000000,4.000000,4.000000,4.000000,4.000000,83.333336,,,,,,,,,,,,,,,,,,,,,,,,,,,,,,,,,,,,,,,,,,,,,,,
1665608220.024891,1665608220.025414,31.000000,0.000000,4306.666504,4333.717773,4298.589844,4306.153809,4291.666504,4301.922852,4293.974121,4307.307617,4289.743652,4257.436035,4478.205078,4453.205078,4403.974121,4437.820313,0.000000,4.000000,91.000000,,,,0.000000,4.000000,4.000000,4.000000,4.000000,4.000000,2.000000,4.000000,4.000000,4.000000,4.000000,4.000000,4.000000,4.000000,4.000000,83.333336,,,,,,,,,,,,,,,,,,,,,,,,,,,,,,,,,,,,,,,,,,,,,,,
1665608220.032700,1665608220.033222,32.000000,0.000000,4293.846191,4316.666504,4290.897461,4292.948730,4291.025879,4296.666504,4295.000000,4308.461426,4291.025879,4259.102539,4471.282227,4450.641113,4395.256348,4427.051270,0.000000,4.000000,91.000000,,,,0.000000,4.000000,4.000000,4.000000,4.000000,4.000000,2.000000,4.000000,4.000000,4.000000,4.000000,4.000000,4.000000,4.000000,4.000000,83.333336,,,,,,,,,,,,,,,,,,,,,,,,,,,,,,,,,,,,,,,,,,,,,,,
1665608220.040508,1665608220.040931,33.000000,0.000000,4300.897461,4311.794922,4301.410156,4292.179688,4292.820313,4301.666504,4302.563965,4325.128418,4306.282227,4276.538574,4485.641113,4465.512695,4425.512695,4443.846191,0.000000,4.000000,91.000000,,,,0.000000,4.000000,4.000000,4.000000,4.000000,4.000000,2.000000,4.000000,4.000000,4.000000,4.000000,4.000000,4.000000,4.000000,4.000000,83.333336,,,,,,,,,,,,,,,,,,,,,,,,,,,,,,,,,,,,,,,,,,,,,,,
1665608220.048316,1665608220.048739,34.000000,0.000000,4308.205078,4311.538574,4305.384766,4293.974121,4287.948730,4300.641113,4297.307617,4322.948730,4305.641113,4281.794922,4490.128418,4464.358887,4437.820313,4446.153809,0.000000,4.000000,91.000000,,,,0.000000,4.000000,4.000000,4.000000,4.000000,4.000000,2.000000,4.000000,4.000000,4.000000,4.000000,4.000000,4.000000,4.000000,4.000000,83.333336,,,,,,,,,,,,,,,,,,,,,,,,,,,,,,,,,,,,,,,,,,,,,,,
1665608220.056125,1665608220.056448,35.000000,0.000000,4307.436035,4310.128418,4297.436035,4291.794922,4287.307617,4300.000000,4292.051270,4312.051270,4298.333496,4277.563965,4477.436035,4453.717773,4423.717773,4432.820313,0.000000,4.000000,91.000000,,,,0.000000,4.000000,4.000000,4.000000,4.000000,4.000000,2.000000,4.000000,4.000000,4.000000,4.000000,4.000000,4.000000,4.000000,4.000000,83.333336,,,,,,,,,,,,,,,,,,,,,,,,,,,,,,,,,,,,,,,,,,,,,,,
1665608220.063933,1665608220.064356,36.000000,0.000000,4308.589844,4317.563965,4296.794922,4295.769043,4295.128418,4309.102539,4301.794922,4317.820313,4304.102539,4280.769043,4482.051270,4457.948730,4428.974121,4439.871582,0.000000,4.000000,91.000000,,,,0.000000,4.000000,4.000000,4.000000,4.000000,4.000000,2.000000,4.000000,4.000000,4.000000,4.000000,4.000000,4.000000,4.000000,4.000000,83.333336,,,,,,,,,,,,,,,,,,,,,,,,,,,,,,,,,,,,,,,,,,,,,,,
1665608220.071741,1665608220.072165,37.000000,0.000000,4308.717773,4320.000000,4299.230957,4303.205078,4296.794922,4310.897461,4309.871582,4320.512695,4304.102539,4277.179688,4482.051270,4460.000000,4415.512695,4444.358887,0.000000,4.000000,91.000000,,,,0.000000,4.000000,4.000000,4.000000,4.000000,4.000000,2.000000,4.000000,4.000000,4.000000,4.000000,4.000000,4.000000,4.000000,4.000000,83.333336,,,,,,,,,,,,,,,,,,,,,,,,,,,,,,,,,,,,,,,,,,,,,,,
1665608220.079550,1665608220.080073,38.000000,0.000000,4308.205078,4312.692383,4298.461426,4305.256348,4294.615234,4301.538574,4303.589844,4310.641113,4295.897461,4267.692383,4472.179688,4455.256348,4391.410156,4433.205078,0.000000,4.000000,91.000000,,,,0.000000,4.000000,4.000000,4.000000,4.000000,4.000000,2.000000,4.000000,4.000000,4.000000,4.000000,4.000000,4.000000,4.000000,4.000000,83.333336,,,,,,,,,,,,,,,,,,,,,,,,,,,,,,,,,,,,,,,,,,,,,,,
1665608220.087358,1665608220.087882,39.000000,0.000000,4317.179688,4317.820313,4309.230957,4309.871582,4298.589844,4298.717773,4298.077148,4310.256348,4299.358887,4276.410156,4485.256348,4463.589844,4425.897461,4443.461426,0.000000,4.000000,91.000000,,,,0.000000,4.000000,4.000000,4.000000,4.000000,4.000000,2.000000,4.000000,4.000000,4.000000,4.000000,4.000000,4.000000,4.000000,4.000000,83.333336,,,,,,,,,,,,,,,,,,,,,,,,,,,,,,,,,,,,,,,,,,,,,,,
1665608220.095167,1665608220.095790,40.000000,0.000000,4322.692383,4321.794922,4313.846191,4311.666504,4299.230957,4299.102539,4297.948730,4314.102539,4302.307617,4286.922852,4498.974121,4470.512695,4464.615234,4460.128418,0.000000,4.000000,91.000000,,,,0.000000,4.000000,4.000000,4.000000,4.000000,4.000000,2.000000,4.000000,4.000000,4.000000,4.000000,4.000000,4.000000,4.000000,4.000000,83.333336,,,,,,,,,,,,,,,,,,,,,,,,,,,,,,,,,,,,,,,,,,,,,,,
1665608220.102975,1665608220.103598,41.000000,0.000000,4313.077148,4314.358887,4299.487305,4303.846191,4293.333496,4295.256348,4296.025879,4308.846191,4292.179688,4276.538574,4491.025879,4457.948730,4445.384766,4449.358887,0.000000,4.000000,91.000000,,,,0.000000,4.000000,4.000000,4.000000,4.000000,4.000000,2.000000,4.000000,4.000000,4.000000,4.000000,4.000000,4.000000,4.000000,4.000000,83.333336,,,,,,,,,,,,,,,,,,,,,,,,,,,,,,,,,,,,,,,,,,,,,,,
1665608220.110783,1665608220.111507,42.000000,0.000000,4310.512695,4319.102539,4300.384766,4305.128418,4295.000000,4297.051270,4298.461426,4309.615234,4290.769043,4270.128418,4485.384766,4452.436035,4423.589844,4438.461426,0.000000,4.000000,91.000000,,,,0.000000,4.000000,4.000000,4.000000,4.000000,4.000000,2.000000,4.000000,4.000000,4.000000,4.000000,4.000000,4.000000,4.000000,4.000000,83.333336,,,,,,,,,,,,,,,,,,,,,,,,,,,,,,,,,,,,,,,,,,,,,,,
1665608220.118592,1665608220.119315,43.000000,0.000000,4312.563965,4320.384766,4312.179688,4309.102539,4297.436035,4301.538574,4307.307617,4321.025879,4299.230957,4277.307617,4481.025879,4462.179688,4422.436035,4443.846191,0.000000,4.000000,91.000000,,,,0.000000,4.000000,4.000000,4.000000,4.000000,4.000000,2.000000,4.000000,4.000000,4.000000,4.000000,4.000000,4.000000,4.000000,4.000000,83.333336,,,,,,,,,,,,,,,,,,,,,,,,,,,,,,,,,,,,,,,,,,,,,,,
1665608220.126400,1665608220.127224,44.000000,0.000000,4305.384766,4307.820313,4309.230957,4304.102539,4293.461426,4302.563965,4310.128418,4330.256348,4306.666504,4280.897461,4479.358887,4466.794922,4423.205078,4445.641113,0.000000,4.000000,91.000000,,,,0.000000,4.000000,4.000000,4.000000,4.000000,4.000000,2.000000,4.000000,4.000000,4.000000,4.000000,4.000000,4.000000,4.000000,4.000000,83.333336,,,,,,,,,,,,,,,,,,,,,,,,,,,,,,,,,,,,,,,,,,,,,,,
1665608220.134209,1665608220.135032,45.000000,0.000000,4304.871582,4308.974121,4305.384766,4305.128418,4293.333496,4305.769043,4303.974121,4324.358887,4305.512695,4279.615234,4487.051270,4462.179688,4432.692383,4443.077148,0.000000,4.000000,91.000000,,,,0.000000,4.000000,4.000000,4.000000,4.000000,4.000000,2.000000,4.000000,4.000000,4.000000,4.000000,4.000000,4.000000,4.000000,4.000000,83.333336,,,,,,,,,,,,,,,,,,,,,,,,,,,,,,,,,,,,,,,,,,,,,,,
1665608220.142017,1665608220.142940,46.000000,0.000000,4308.205078,4310.641113,4303.589844,4303.846191,4297.051270,4308.846191,4297.307617,4311.025879,4297.436035,4279.871582,4485.000000,4458.589844,4427.051270,4441.666504,0.000000,4.000000,91.000000,,,,0.000000,4.000000,4.000000,4.000000,4.000000,4.000000,2.000000,4.000000,4.000000,4.000000,4.000000,4.000000,4.000000,4.000000,4.000000,83.333336,,,,,,,,,,,,,,,,,,,,,,,,,,,,,,,,,,,,,,,,,,,,,,,
1665608220.149825,1665608220.150849,47.000000,0.000000,4304.487305,4302.948730,4297.692383,4297.563965,4294.743652,4304.743652,4294.615234,4312.820313,4298.974121,4281.794922,4482.563965,4459.102539,4407.820313,4440.512695,0.000000,4.000000,91.000000,,,,0.000000,4.000000,4.000000,4.000000,4.000000,4.000000,2.000000,4.000000,4.000000,4.000000,4.000000,4.000000,4.000000,4.000000,4.000000,83.333336,,,,,,,,,,,,,,,,,,,,,,,,,,,,,,,,,,,,,,,,,,,,,,,
1665608220.157634,1665608220.158657,48.000000,0.000000,4308.846191,4317.179688,4303.077148,4306.794922,4293.333496,4305.000000,4298.205078,4321.282227,4304.743652,4281.153809,4491.025879,4461.282227,4411.538574,4444.102539,0.000000,4.000000,91.000000,,,,0.000000,4.000000,4.000000,4.000000,4.000000,4.000000,2.000000,4.000000,4.000000,4.000000,4.000000,4.000000,4.000000,4.000000,4.000000,83.333336,,,,,,,,,,,,,,,,,,,,,,,,,,,,,,,,,,,,,,,,,,,,,,,
1665608220.165442,1665608220.166466,49.000000,0.000000,4321.538574,4344.102539,4317.820313,4323.717773,4300.384766,4310.512695,4305.384766,4319.871582,4305.769043,4282.563965,4491.794922,4468.461426,4421.666504,4453.077148,0.000000,4.000000,91.000000,,,,0.000000,4.000000,4.000000,4.000000,4.000000,4.000000,2.000000,4.000000,4.000000,4.000000,4.000000,4.000000,4.000000,4.000000,4.000000,83.333336,,,,,,,,,,,,,,,,,,,,,,,,,,,,,,,,,,,,,,,,,,,,,,,
1665608220.173251,1665608220.174174,50.000000,0.000000,4316.282227,4349.487305,4312.563965,4323.461426,4302.179688,4303.077148,4302.179688,4313.717773,4301.282227,4281.666504,4478.974121,4466.282227,4402.563965,4450.897461,0.000000,4.000000,91.000000,,,,0.000000,4.000000,4.000000,4.000000,4.000000,4.000000,2.000000,4.000000,4.000000,4.000000,4.000000,4.000000,4.000000,4.000000,4.000000,83.333336,,,,,,,,,,,,,,,,,,,,,,,,,,,,,,,,,,,,,,,,,,,,,,,
1665608220.181059,1665608220.181983,51.000000,0.000000,4297.820313,4337.820313,4296.666504,4313.205078,4293.589844,4291.538574,4290.384766,4304.871582,4287.179688,4263.846191,4461.666504,4448.974121,4368.077148,4432.948730,0.000000,4.000000,91.000000,,,,0.000000,4.000000,4.000000,4.000000,4.000000,4.000000,2.000000,4.000000,4.000000,4.000000,4.000000,4.000000,4.000000,4.000000,4.000000,83.333336,,,,,,,,,,,,,,,,,,,,,,,,,,,,,,,,,,,,,,,,,,,,,,,
1665608220.188867,1665608220.189691,52.000000,0.000000,4293.077148,4338.846191,4294.230957,4311.025879,4289.615234,4293.461426,4288.461426,4299.230957,4278.846191,4249.487305,4454.743652,4440.256348,4359.487305,4422.051270,0.000000,4.000000,91.000000,,,,0.000000,4.000000,4.000000,4.000000,4.000000,4.000000,2.000000,4.000000,4.000000,4.000000,4.000000,4.000000,4.000000,4.000000,4.000000,83.333336,,,,,,,,,,,,,,,,,,,,,,,,,,,,,,,,,,,,,,,,,,,,,,,
1665608220.196676,1665608220.197599,53.000000,0.000000,4298.077148,4369.358887,4294.358887,4323.333496,4295.256348,4295.641113,4288.461426,4297.179688,4279.102539,4251.282227,4455.256348,4443.333496,4363.589844,4425.128418,0.000000,4.000000,91.000000,1,1,1,0.000000,4.000000,4.000000,4.000000,4.000000,4.000000,2.000000,4.000000,4.000000,4.000000,4.000000,4.000000,4.000000,4.000000,4.000000,83.333336,,,,,,,,,,,,,,,,,,,,,,,,,,,,,,,,,,,,,,,,,,,,,,,
1665608220.204484,1665608220.205408,54.000000,0.000000,4291.025879,4385.897461,4282.820313,4330.256348,4298.077148,4292.307617,4278.717773,4288.589844,4268.333496,4241.666504,4442.307617,4433.589844,4336.794922,4415.641113,0.000000,4.000000,91.000000,,,,0.000000,4.000000,4.000000,4.000000,4.000000,4.000000,2.000000,4.000000,4.000000,4.000000,4.000000,4.000000,4.000000,4.000000,4.000000,83.333336,,,,,,,,,,,,,,,,,,,,,,,,,,,,,,,,,,,,,,,,,,,,,,,
1665608220.212292,1665608220.213316,55.000000,0.000000,4278.333496,4364.230957,4273.717773,4315.641113,4293.717773,4293.846191,4280.384766,4285.000000,4263.205078,4229.615234,4431.666504,4422.692383,4312.563965,4399.358887,0.000000,4.000000,91.000000,,,,0.000000,4.000000,4.000000,4.000000,4.000000,4.000000,2.000000,4.000000,4.000000,4.000000,4.000000,4.000000,4.000000,4.000000,4.000000,83.333336,,,,,,,,,,,,,,,,,,,,,,,,,,,,,,,,,,,,,,,,,,,,,,,
1665608220.220101,1665608220.221125,56.000000,0.000000,4278.333496,4353.717773,4278.461426,4310.256348,4294.102539,4298.333496,4293.974121,4296.666504,4276.794922,4241.410156,4439.615234,4429.230957,4327.692383,4402.692383,0.000000,4.000000,91.000000,,,,0.000000,4.000000,4.000000,4.000000,4.000000,4.000000,2.000000,4.000000,4.000000,4.000000,4.000000,4.000000,4.000000,4.000000,4.000000,83.333336,,,,,,,,,,,,,,,,,,,,,,,,,,,,,,,,,,,,,,,,,,,,,,,
1665608220.227909,1665608220.228933,57.000000,0.000000,4281.025879,4372.692383,4281.538574,4322.820313,4298.205078,4298.461426,4290.897461,4295.256348,4277.692383,4249.358887,4441.538574,4433.974121,4337.820313,4410.897461,0.000000,4.000000,91.000000,,,,0.000000,4.000000,4.000000,4.000000,4.000000,4.000000,2.000000,4.000000,4.000000,4.000000,4.000000,4.000000,4.000000,4.000000,4.000000,83.333336,,,,,,,,,,,,,,,,,,,,,,,,,,,,,,,,,,,,,,,,,,,,,,,
1665608220.235718,1665608220.236642,58.000000,0.000000,4283.333496,4387.563965,4279.615234,4328.974121,4298.077148,4295.769043,4280.769043,4281.025879,4263.461426,4236.922852,4430.769043,4424.871582,4321.922852,4410.256348,0.000000,4.000000,91.000000,,,,0.000000,4.000000,4.000000,4.000000,4.000000,4.000000,2.000000,4.000000,4.000000,4.000000,4.000000,4.000000,4.000000,4.000000,4.000000,83.333336,,,,,,,,,,,,,,,,,,,,,,,,,,,,,,,,,,,,,,,,,,,,,,,
1665608220.243526,1665608220.244450,59.000000,0.000000,4286.922852,4383.205078,4275.256348,4327.820313,4295.000000,4296.282227,4286.153809,4283.589844,4262.179688,4230.769043,4426.025879,4422.051270,4308.589844,4408.717773,0.000000,4.000000,91.000000,,,,0.000000,4.000000,4.000000,4.000000,4.000000,4.000000,2.000000,4.000000,4.000000,4.000000,4.000000,4.000000,4.000000,4.000000,4.000000,83.333336,,,,,,,,,,,,,,,,,,,,,,,,,,,,,,,,,,,,,,,,,,,,,,,
1665608220.251334,1665608220.252159,60.000000,0.000000,4281.282227,4365.128418,4267.051270,4319.871582,4289.358887,4298.717773,4285.769043,4285.769043,4262.563965,4229.743652,4422.436035,4424.487305,4299.487305,4403.974121,0.000000,4.000000,91.000000,,,,0.000000,4.000000,4.000000,4.000000,4.000000,4.000000,2.000000,4.000000,4.000000,4.000000,4.000000,4.000000,4.000000,4.000000,4.000000,83.333336,,,,,,,,,,,,,,,,,,,,,,,,,,,,,,,,,,,,,,,,,,,,,,,
1665608220.259143,1665608220.259967,61.000000,0.000000,4280.256348,4349.487305,4271.538574,4308.846191,4281.922852,4298.589844,4277.692383,4285.384766,4259.743652,4226.410156,4429.487305,4427.820313,4309.871582,4402.820313,0.000000,4.000000,91.000000,,,,0.000000,4.000000,4.000000,4.000000,4.000000,4.000000,2.000000,4.000000,4.000000,4.000000,4.000000,4.000000,4.000000,4.000000,4.000000,83.333336,,,,,,,,,,,,,,,,,,,,,,,,,,,,,,,,,,,,,,,,,,,,,,,
1665608220.266951,1665608220.267676,62.000000,0.000000,4299.743652,4346.410156,4294.358887,4314.615234,4279.743652,4297.436035,4284.871582,4299.743652,4273.717773,4240.897461,4454.358887,4440.384766,4356.794922,4422.307617,0.000000,4.000000,91.000000,,,,0.000000,4.000000,4.000000,4.000000,4.000000,4.000000,2.000000,4.000000,4.000000,4.000000,4.000000,4.000000,4.000000,4.000000,4.000000,83.333336,,,,,,,,,,,,,,,,,,,,,,,,,,,,,,,,,,,,,,,,,,,,,,,
1665608220.274759,1665608220.275584,63.000000,0.000000,4315.000000,4344.743652,4306.410156,4326.794922,4285.256348,4297.436035,4296.538574,4306.922852,4285.256348,4259.743652,4466.666504,4451.666504,4392.820313,4444.871582,0.000000,4.000000,91.000000,,,,0.000000,4.000000,4.000000,4.000000,4.000000,4.000000,2.000000,4.000000,4.000000,4.000000,4.000000,4.000000,4.000000,4.000000,4.000000,83.333336,,,,,,,,,,,,,,,,,,,,,,,,,,,,,,,,,,,,,,,,,,,,,,,
1665608220.282568,1665608220.283392,64.000000,0.000000,4311.153809,4340.000000,4300.769043,4326.666504,4290.512695,4297.563965,4296.282227,4296.794922,4273.589844,4256.922852,4461.153809,4450.128418,4388.974121,4448.846191,2316.000000,4.000000,91.000000,,,,0.000000,4.000000,4.000000,4.000000,4.000000,4.000000,2.000000,4.000000,4.000000,4.000000,4.000000,4.000000,4.000000,4.000000,4.000000,83.333336,,,,,,,,,,,,,,,,,,,,,,,,,,,,,,,,,,,,,,,,,,,,,,,
1665608220.290376,1665608220.291301,65.000000,0.000000,4312.436035,4339.487305,4303.717773,4330.000000,4289.230957,4297.436035,4291.153809,4290.384766,4265.128418,4248.461426,4464.230957,4450.897461,4383.461426,4448.461426,2282.000000,4.000000,91.000000,,,,0.000000,4.000000,4.000000,4.000000,4.000000,4.000000,2.000000,4.000000,4.000000,4.000000,4.000000,4.000000,4.000000,4.000000,4.000000,83.333336,,,,,,,,,,,,,,,,,,,,,,,,,,,,,,,,,,,,,,,,,,,,,,,
1665608220.298185,1665608220.299109,66.000000,0.000000,4312.051270,4329.358887,4306.922852,4323.461426,4284.102539,4297.051270,4285.769043,4294.487305,4273.974121,4250.641113,4461.410156,4451.410156,4383.589844,4442.692383,2272.000000,4.000000,91.000000,,,,0.000000,4.000000,4.000000,4.000000,4.000000,4.000000,2.000000,4.000000,4.000000,4.000000,4.000000,4.000000,4.000000,4.000000,4.000000,83.333336,,,,,,,,,,,,,,,,,,,,,,,,,,,,,,,,,,,,,,,,,,,,,,,
1665608220.305993,1665608220.307018,67.000000,0.000000,4290.641113,4309.487305,4289.487305,4297.307617,4279.358887,4295.128418,4280.384766,4295.897461,4278.717773,4250.512695,4445.000000,4441.538574,4375.641113,4422.948730,2401.000000,4.000000,91.000000,,,,0.000000,4.000000,4.000000,4.000000,4.000000,4.000000,2.000000,4.000000,4.000000,4.000000,4.000000,4.000000,4.000000,4.000000,4.000000,83.333336,,,,,,,,,,,,,,,,,,,,,,,,,,,,,,,,,,,,,,,,,,,,,,,
1665608220.313801,1665608220.314826,68.000000,0.000000,4278.717773,4307.307617,4274.102539,4291.794922,4276.794922,4294.230957,4278.205078,4295.641113,4277.563965,4247.563965,4448.717773,4435.641113,4376.794922,4413.461426,2413.000000,4.000000,91.000000,,,,0.000000,4.000000,4.000000,4.000000,4.000000,4.000000,2.000000,4.000000,4.000000,4.000000,4.000000,4.000000,4.000000,4.000000,4.000000,83.333336,,,,,,,,,,,,,,,,,,,,,,,,,,,,,,,,,,,,,,,,,,,,,,,
1665608220.321610,1665608220.322635,69.000000,0.000000,4286.282227,4313.077148,4278.333496,4302.051270,4276.794922,4295.512695,4277.948730,4293.589844,4275.897461,4248.077148,4455.512695,4437.307617,4373.205078,4414.487305,1604.000000,4.000000,91.000000,,,,0.000000,4.000000,4.000000,4.000000,4.000000,4.000000,2.000000,4.000000,4.000000,4.000000,4.000000,4.000000,4.000000,4.000000,4.000000,83.333336,1.000000,75.000000,4.000000,3.000000,4.000000,4.000000,4.000000,2.000000,4.000000,4.000000,4.000000,4.000000,4.000000,4.000000,4.000000,4.000000,1.000000,0.552232,-0.012329,-1.107375,0.344960,1.000000,0.079121,3.320207,2.379215,14.272295,0.089599,1.000000,0.384394,43.828640,-426.002197,731.751465,1.000000,0.169525,0.190373,0.111711,0.332340,1.000000,0.426533,3.854411,-7.459253,18.708040,1.000000,0.347043,0.347043,0.000000,1.000000
1665608220.329418,1665608220.330443,70.000000,0.000000,4289.230957,4303.717773,4284.358887,4297.179688,4278.717773,4295.256348,4278.333496,4293.974121,4272.948730,4248.461426,4449.102539,4437.307617,4360.256348,4410.897461,2262.000000,4.000000,91.000000,,,,0.000000,4.000000,4.000000,4.000000,4.000000,4.000000,2.000000,4.000000,4.000000,4.000000,4.000000,4.000000,4.000000,4.000000,4.000000,83.333336,,,,,,,,,,,,,,,,,,,,,,,,,,,,,,,,,,,,,,,,,,,,,,,
1665608220.337227,1665608220.338152,71.000000,0.000000,4293.461426,4296.666504,4288.589844,4298.205078,4280.512695,4295.769043,4284.615234,4306.410156,4282.692383,4260.641113,4462.179688,4444.102539,4380.384766,4420.512695,2321.000000,4.000000,91.000000,,,,0.000000,4.000000,4.000000,4.000000,4.000000,4.000000,2.000000,4.000000,4.000000,4.000000,4.000000,4.000000,4.000000,4.000000,4.000000,83.333336,,,,,,,,,,,,,,,,,,,,,,,,,,,,,,,,,,,,,,,,,,,,,,,
1665608220.345035,1665608220.345960,72.000000,0.000000,4303.461426,4299.871582,4295.384766,4310.769043,4279.615234,4296.282227,4292.563965,4317.563965,4300.128418,4279.743652,4482.948730,4456.666504,4409.230957,4436.666504,2396.000000,4.000000,91.000000,,,,0.000000,4.000000,4.000000,4.000000,4.000000,4.000000,2.000000,4.000000,4.000000,4.000000,4.000000,4.000000,4.000000,4.000000,4.000000,83.333336,,,,,,,,,,,,,,,,,,,,,,,,,,,,,,,,,,,,,,,,,,,,,,,
1665608220.352843,1665608220.353669,73.000000,0.000000,4300.384766,4298.974121,4294.871582,4309.487305,4278.717773,4292.307617,4289.487305,4312.307617,4296.666504,4279.230957,4477.436035,4454.871582,4396.282227,4435.000000,2361.000000,4.000000,91.000000,,,,0.000000,4.000000,4.000000,4.000000,4.000000,4.000000,2.000000,4.000000,4.000000,4.000000,4.000000,4.000000,4.000000,4.000000,4.000000,83.333336,,,,,,,,,,,,,,,,,,,,,,,,,,,,,,,,,,,,,,,,,,,,,,,
1665608220.360652,1665608220.361477,74.000000,0.000000,4295.641113,4300.641113,4297.948730,4309.487305,4286.666504,4291.666504,4288.589844,4307.948730,4288.077148,4273.205078,4469.743652,4452.179688,4379.615234,4435.897461,2685.000000,4.000000,91.000000,,,,0.000000,4.000000,4.000000,4.000000,4.000000,4.000000,2.000000,4.000000,4.000000,4.000000,4.000000,4.000000,4.000000,4.000000,4.000000,83.333336,,,,,,,,,,,,,,,,,,,,,,,,,,,,,,,,,,,,,,,,,,,,,,,
1665608220.368460,1665608220.369185,75.000000,0.000000,4301.282227,4303.717773,4307.563965,4316.922852,4294.743652,4297.820313,4303.589844,4318.974121,4301.410156,4280.512695,4475.128418,4459.358887,4382.179688,4441.153809,2725.000000,4.000000,91.000000,,,,0.000000,4.000000,4.000000,4.000000,4.000000,4.000000,2.000000,4.000000,4.000000,4.000000,4.000000,4.000000,4.000000,4.000000,4.000000,83.333336,,,,,,,,,,,,,,,,,,,,,,,,,,,,,,,,,,,,,,,,,,,,,,,
1665608220.376269,1665608220.376994,76.000000,0.000000,4298.077148,4290.769043,4305.512695,4309.358887,4288.205078,4299.615234,4308.717773,4321.282227,4308.589844,4285.256348,4474.615234,4461.153809,4383.205078,4434.102539,2556.000000,4.000000,91.000000,,,,0.000000,4.000000,4.000000,4.000000,4.000000,4.000000,2.000000,4.000000,4.000000,4.000000,4.000000,4.000000,4.000000,4.000000,4.000000,83.333336,,,,,,,,,,,,,,,,,,,,,,,,,,,,,,,,,,,,,,,,,,,,,,,
1665608220.384077,1665608220.384702,77.000000,0.000000,4288.461426,4274.871582,4292.692383,4294.487305,4275.897461,4295.128418,4296.025879,4304.487305,4290.384766,4275.384766,4468.589844,4449.871582,4390.000000,4427.563965,2276.000000,4.000000,91.000000,,,,0.000000,4.000000,4.000000,4.000000,4.000000,4.000000,2.000000,4.000000,4.000000,4.000000,4.000000,4.000000,4.000000,4.000000,4.000000,83.333336,,,,,,,,,,,,,,,,,,,,,,,,,,,,,,,,,,,,,,,,,,,,,,,
1665608220.391885,1665608220.392511,78.000000,0.000000,4282.307617,4262.820313,4281.922852,4283.717773,4272.307617,4293.461426,4289.871582,4296.794922,4277.436035,4268.333496,4463.461426,4438.974121,4395.769043,4420.512695,2685.000000,4.000000,91.000000,,,,0.000000,4.000000,4.000000,4.000000,4.000000,4.000000,2.000000,4.000000,4.000000,4.000000,4.000000,4.000000,4.000000,4.000000,4.000000,83.333336,,,,,,,,,,,,,,,,,,,,,,,,,,,,,,,,,,,,,,,,,,,,,,,
1665608220.399694,1665608220.400219,79.000000,0.000000,4270.512695,4245.000000,4272.436035,4275.641113,4273.846191,4294.871582,4289.230957,4300.256348,4281.538574,4263.974121,4454.102539,4432.436035,4384.487305,4405.000000,2725.000000,4.000000,91.000000,,,,0.000000,4.000000,4.000000,4.000000,4.000000,4.000000,2.000000,4.000000,4.000000,4.000000,4.000000,4.000000,4.000000,4.000000,4.000000,83.333336,,,,,,,,,,,,,,,,,,,,,,,,,,,,,,,,,,,,,,,,,,,,,,,
1665608220.407502,1665608220.408028,80.000000,0.000000,4263.077148,4242.820313,4266.538574,4277.436035,4275.897461,4293.333496,4280.512695,4294.871582,4275.897461,4250.897461,4446.153809,4423.974121,4370.256348,4396.538574,2556.000000,4.000000,91.000000,,,,0.000000,4.000000,4.000000,4.000000,4.000000,4.000000,2.000000,4.000000,4.000000,4.000000,4.000000,4.000000,4.000000,4.000000,4.000000,83.333336,,,,,,,,,,,,,,,,,,,,,,,,,,,,,,,,,,,,,,,,,,,,,,,
1665608220.415310,1665608220.415736,81.000000,0.000000,4268.846191,4253.333496,4270.641113,4280.769043,4280.128418,4292.051270,4277.436035,4291.282227,4268.717773,4248.461426,4448.205078,4420.128418,4360.256348,4395.641113,2276.000000,4.000000,91.000000,,,,0.000000,4.000000,4.000000,4.000000,4.000000,4.000000,2.000000,4.000000,4.000000,4.000000,4.000000,4.000000,4.000000,4.000000,4.000000,83.333336,,,,,,,,,,,,,,,,,,,,,,,,,,,,,,,,,,,,,,,,,,,,,,,
1665608220.423119,1665608220.423545,82.000000,0.000000,4275.128418,4250.512695,4276.794922,4277.820313,4279.230957,4294.743652,4287.948730,4301.794922,4284.487305,4263.589844,4459.487305,4430.128418,4366.922852,4399.102539,2685.000000,4.000000,91.000000,,,,0.000000,4.000000,4.000000,4.000000,4.000000,4.000000,2.000000,4.000000,4.000000,4.000000,4.000000,4.000000,4.000000,4.000000,4.000000,83.333336,,,,,,,,,,,,,,,,,,,,,,,,,,,,,,,,,,,,,,,,,,,,,,,
1665608220.430927,1665608220.431253,83.000000,0.000000,4286.282227,4260.256348,4286.666504,4289.230957,4280.512695,4297.820313,4296.282227,4315.384766,4305.384766,4283.461426,4472.563965,4451.025879,4402.563965,4420.128418,2725.000000,4.000000,91.000000,,,,0.000000,4.000000,4.000000,4.000000,4.000000,4.000000,2.000000,4.000000,4.000000,4.000000,4.000000,4.000000,4.000000,4.000000,4.000000,83.333336,,,,,,,,,,,,,,,,,,,,,,,,,,,,,,,,,,,,,,,,,,,,,,,
1665608220.438736,1665608220.439062,84.000000,0.000000,4298.333496,4283.077148,4298.077148,4305.512695,4290.384766,4297.563965,4300.000000,4325.384766,4313.717773,4294.487305,4478.589844,4465.384766,4411.794922,4435.769043,2556.000000,4.000000,91.000000,,,,0.000000,4.000000,4.000000,4.000000,4.000000,4.000000,2.000000,4.000000,4.000000,4.000000,4.000000,4.000000,4.000000,4.000000,4.000000,83.333336,,,,,,,,,,,,,,,,,,,,,,,,,,,,,,,,,,,,,,,,,,,,,,,
1665608220.446544,1665608220.446770,85.000000,0.000000,4289.487305,4271.666504,4297.563965,4298.846191,4291.922852,4296.922852,4302.307617,4325.128418,4309.358887,4289.871582,4475.000000,4460.256348,4381.153809,4425.256348,2276.000000,4.000000,91.000000,,,,0.000000,4.000000,4.000000,4.000000,4.000000,4.000000,2.000000,4.000000,4.000000,4.000000,4.000000,4.000000,4.000000,4.000000,4.000000,83.333336,,,,,,,,,,,,,,,,,,,,,,,,,,,,,,,,,,,,,,,,,,,,,,,
1665608220.454352,1665608220.454679,86.000000,0.000000,4276.025879,4247.820313,4290.256348,4291.794922,4281.153809,4297.307617,4300.256348,4312.948730,4299.358887,4280.641113,4475.128418,4450.256348,4384.102539,4421.282227,2685.000000,4.000000,91.000000,,,,0.000000,4.000000,4.000000,4.000000,4.000000,4.000000,2.000000,4.000000,4.000000,4.000000,4.000000,4.000000,4.000000,4.000000,4.000000,83.333336,,,,,,,,,,,,,,,,,,,,,,,,,,,,,,,,,,,,,,,,,,,,,,,
1665608220.462161,1665608220.462487,87.000000,0.000000,4283.846191,4252.051270,4288.333496,4298.077148,4280.128418,4297.051270,4298.846191,4310.256348,4297.436035,4281.410156,4481.153809,4453.077148,4408.333496,4429.743652,2725.000000,4.000000,91.000000,,,,0.000000,4.000000,4.000000,4.000000,4.000000,4.000000,2.000000,4.000000,4.000000,4.000000,4.000000,4.000000,4.000000,4.000000,4.000000,83.333336,,,,,,,,,,,,,,,,,,,,,,,,,,,,,,,,,,,,,,,,,,,,,,,
1665608220.469969,1665608220.470396,88.000000,0.000000,4282.307617,4250.512695,4285.384766,4291.153809,4284.743652,4297.436035,4298.333496,4314.102539,4298.974121,4282.820313,4471.282227,4448.333496,4390.897461,4416.922852,2556.000000,4.000000,91.000000,,,,0.000000,4.000000,4.000000,4.000000,4.000000,4.000000,2.000000,4.000000,4.000000,4.000000,4.000000,4.000000,4.000000,4.000000,4.000000,83.333336,,,,,,,,,,,,,,,,,,,,,,,,,,,,,,,,,,,,,,,,,,,,,,,
1665608220.477777,1665608220.478204,89.000000,0.000000,4262.436035,4225.897461,4272.307617,4270.384766,4272.307617,4295.256348,4294.871582,4306.282227,4290.384766,4273.205078,4458.974121,4435.769043,4372.436035,4399.358887,2276.000000,4.000000,91.000000,,,,0.000000,4.000000,4.000000,4.000000,4.000000,4.000000,2.000000,4.000000,4.000000,4.000000,4.000000,4.000000,4.000000,4.000000,4.000000,83.333336,,,,,,,,,,,,,,,,,,,,,,,,,,,,,,,,,,,,,,,,,,,,,,,
1665608220.485586,1665608220.486112,90.000000,0.000000,4261.153809,4214.743652,4266.025879,4263.077148,4264.615234,4290.769043,4293.461426,4306.922852,4291.410156,4277.436035,4472.179688,4440.000000,4394.743652,4407.179688,2685.000000,4.000000,91.000000,,,,0.000000,4.000000,4.000000,4.000000,4.000000,4.000000,2.000000,4.000000,4.000000,4.000000,4.000000,4.000000,4.000000,4.000000,4.000000,83.333336,,,,,,,,,,,,,,,,,,,,,,,,,,,,,,,,,,,,,,,,,,,,,,,
1665608220.493394,1665608220.493921,91.000000,0.000000,4272.436035,4212.692383,4269.102539,4267.692383,4271.282227,4293.717773,4296.794922,4323.717773,4307.820313,4290.000000,4483.461426,4450.897461,4401.153809,4410.256348,2725.000000,4.000000,91.000000,,,,0.000000,4.000000,4.000000,4.000000,4.000000,4.000000,2.000000,4.000000,4.000000,4.000000,4.000000,4.000000,4.000000,4.000000,4.000000,83.333336,,,,,,,,,,,,,,,,,,,,,,,,,,,,,,,,,,,,,,,,,,,,,,,
1665608220.501203,1665608220.501829,92.000000,0.000000,4266.025879,4202.563965,4268.205078,4267.051270,4269.743652,4294.743652,4296.410156,4325.769043,4305.897461,4285.128418,4470.512695,4444.230957,4381.922852,4396.025879,2556.000000,4.000000,91.000000,,,,0.000000,4.000000,4.000000,4.000000,4.000000,4.000000,2.000000,4.000000,4.000000,4.000000,4.000000,4.000000,4.000000,4.000000,4.000000,83.333336,,,,,,,,,,,,,,,,,,,,,,,,,,,,,,,,,,,,,,,,,,,,,,,
1665608220.509011,1665608220.509638,93.000000,0.000000,4250.384766,4189.358887,4261.153809,4254.615234,4264.615234,4285.256348,4290.384766,4313.589844,4293.077148,4275.512695,4459.230957,4433.461426,4377.948730,4392.563965,2276.000000,4.000000,91.000000,,,,0.000000,4.000000,4.000000,4.000000,4.000000,4.000000,2.000000,4.000000,4.000000,4.000000,4.000000,4.000000,4.000000,4.000000,4.000000,83.333336,,,,,,,,,,,,,,,,,,,,,,,,,,,,,,,,,,,,,,,,,,,,,,,
1665608220.516819,1665608220.517546,94.000000,0.000000,4245.384766,4177.948730,4256.794922,4245.384766,4263.974121,4279.230957,4282.820313,4305.897461,4290.128418,4276.410156,4462.051270,4431.025879,4382.820313,4390.512695,2685.000000,4.000000,91.000000,,,,0.000000,4.000000,4.000000,4.000000,4.000000,4.000000,2.000000,4.000000,4.000000,4.000000,4.000000,4.000000,4.000000,4.000000,4.000000,83.333336,,,,,,,,,,,,,,,,,,,,,,,,,,,,,,,,,,,,,,,,,,,,,,,
1665608220.524628,1665608220.525354,95.000000,0.000000,4250.000000,4183.974121,4261.282227,4255.897461,4265.000000,4281.922852,4275.256348,4297.948730,4286.538574,4275.641113,4463.717773,4427.436035,4386.666504,4383.589844,2725.000000,4.000000,91.000000,,,,0.000000,4.000000,4.000000,4.000000,4.000000,4.000000,2.000000,4.000000,4.000000,4.000000,4.000000,4.000000,4.000000,4.000000,4.000000,83.333336,,,,,,,,,,,,,,,,,,,,,,,,,,,,,,,,,,,,,,,,,,,,,,,
1665608220.532436,1665608220.533063,96.000000,0.000000,4250.769043,4199.615234,4263.461426,4265.897461,4267.563965,4282.051270,4272.307617,4287.692383,4276.538574,4263.333496,4457.436035,4422.948730,4379.230957,4384.871582,2556.000000,4.000000,91.000000,,,,0.000000,4.000000,4.000000,4.000000,4.000000,4.000000,2.000000,4.000000,4.000000,4.000000,4.000000,4.000000,4.000000,4.000000,4.000000,83.333336,,,,,,,,,,,,,,,,,,,,,,,,,,,,,,,,,,,,,,,,,,,,,,,
1665608220.540244,1665608220.540871,97.000000,0.000000,4252.051270,4204.487305,4260.512695,4264.487305,4270.769043,4281.282227,4278.077148,4288.846191,4275.641113,4259.358887,4453.846191,4424.358887,4363.077148,4387.692383,2276.000000,4.000000,91.000000,,,,0.000000,4.000000,4.000000,4.000000,4.000000,4.000000,2.000000,4.000000,4.000000,4.000000,4.000000,4.000000,4.000000,4.000000,4.000000,83.333336,,,,,,,,,,,,,,,,,,,,,,,,,,,,,,,,,,,,,,,,,,,,,,,
1665608220.548053,1665608220.548580,98.000000,0.000000,4265.256348,4207.563965,4268.974121,4271.666504,4273.333496,4286.666504,4287.179688,4301.153809,4287.179688,4274.230957,4463.589844,4436.410156,4376.666504,4393.077148,2685.000000,4.000000,91.000000,,,,0.000000,4.000000,4.000000,4.000000,4.000000,4.000000,2.000000,4.000000,4.000000,4.000000,4.000000,4.000000,4.000000,4.000000,4.000000,83.333336,,,,,,,,,,,,,,,,,,,,,,,,,,,,,,,,,,,,,,,,,,,,,,,
1665608220.555861,1665608220.556388,99.000000,0.000000,4281.025879,4217.307617,4287.436035,4283.846191,4278.846191,4293.333496,4295.000000,4313.461426,4300.641113,4290.769043,4482.051270,4452.563965,4410.128418,4410.384766,2725.000000,4.000000,91.000000,,,,0.000000,4.000000,4.000000,4.000000,4.000000,4.000000,2.000000,4.000000,4.000000,4.000000,4.000000,4.000000,4.000000,4.000000,4.000000,83.333336,,,,,,,,,,,,,,,,,,,,,,,,,,,,,,,,,,,,,,,,,,,,,,,
1665608220.563670,1665608220.564097,100.000000,0.000000,4286.410156,4228.717773,4295.384766,4285.769043,4283.589844,4297.179688,4305.769043,4321.922852,4310.000000,4296.666504,4493.461426,4459.743652,4421.538574,4429.743652,2556.000000,4.000000,91.000000,,,,0.000000,4.000000,4.000000,4.000000,4.000000,4.000000,2.000000,4.000000,4.000000,4.000000,4.000000,4.000000,4.000000,4.000000,4.000000,83.333336,,,,,,,,,,,,,,,,,,,,,,,,,,,,,,,,,,,,,,,,,,,,,,,
1665608220.571478,1665608220.571905,101.000000,0.000000,4287.307617,4237.436035,4293.205078,4281.153809,4281.794922,4300.256348,4312.820313,4325.769043,4309.871582,4296.922852,4490.256348,4459.871582,4419.615234,4433.717773,2276.000000,4.000000,91.000000,,,,0.000000,4.000000,4.000000,4.000000,4.000000,4.000000,2.000000,4.000000,4.000000,4.000000,4.000000,4.000000,4.000000,4.000000,4.000000,83.333336,,,,,,,,,,,,,,,,,,,,,,,,,,,,,,,,,,,,,,,,,,,,,,,
1665608220.579286,1665608220.579614,102.000000,0.000000,4285.000000,4233.333496,4290.000000,4276.538574,4278.461426,4293.846191,4303.205078,4325.641113,4304.358887,4295.641113,4479.615234,4454.615234,4414.487305,4421.538574,2685.000000,4.000000,91.000000,,,,0.000000,4.000000,4.000000,4.000000,4.000000,4.000000,2.000000,4.000000,4.000000,4.000000,4.000000,4.000000,4.000000,4.000000,4.000000,83.333336,,,,,,,,,,,,,,,,,,,,,,,,,,,,,,,,,,,,,,,,,,,,,,,
1665608220.587095,1665608220.587422,103.000000,0.000000,4271.282227,4217.307617,4279.615234,4263.461426,4276.153809,4285.128418,4293.077148,4325.512695,4302.563965,4290.128418,4467.692383,4446.794922,4386.922852,4401.410156,2725.000000,4.000000,91.000000,,,,0.000000,4.000000,4.000000,4.000000,4.000000,4.000000,2.000000,4.000000,4.000000,4.000000,4.000000,4.000000,4.000000,4.000000,4.000000,83.333336,,,,,,,,,,,,,,,,,,,,,,,,,,,,,,,,,,,,,,,,,,,,,,,
1665608220.594903,1665608220.595131,104.000000,0.000000,4258.717773,4210.128418,4271.153809,4248.461426,4277.563965,4289.358887,4296.794922,4327.179688,4311.153809,4290.512695,4463.589844,4446.025879,4372.436035,4392.179688,2556.000000,4.000000,91.000000,,,,0.000000,4.000000,4.000000,4.000000,4.000000,4.000000,2.000000,4.000000,4.000000,4.000000,4.000000,4.000000,4.000000,4.000000,4.000000,83.333336,,,,,,,,,,,,,,,,,,,,,,,,,,,,,,,,,,,,,,,,,,,,,,,
1665608220.602712,1665608220.602939,105.000000,0.000000,4267.307617,4215.256348,4277.051270,4252.948730,4280.256348,4297.436035,4296.153809,4323.461426,4315.897461,4295.769043,4473.846191,4444.102539,4397.820313,4402.563965,2276.000000,4.000000,91.000000,,,,0.000000,4.000000,4.000000,4.000000,4.000000,4.000000,2.000000,4.000000,4.000000,4.000000,4.000000,4.000000,4.000000,4.000000,4.000000,83.333336,,,,,,,,,,,,,,,,,,,,,,,,,,,,,,,,,,,,,,,,,,,,,,,
1665608220.610520,1665608220.610648,106.000000,0.000000,4279.102539,4219.487305,4280.128418,4265.384766,4280.769043,4297.051270,4288.077148,4313.461426,4302.820313,4286.538574,4473.333496,4437.179688,4398.974121,4405.897461,2685.000000,4.000000,91.000000,,,,0.000000,4.000000,4.000000,4.000000,4.000000,4.000000,2.000000,4.000000,4.000000,4.000000,4.000000,4.000000,4.000000,4.000000,4.000000,83.333336,,,,,,,,,,,,,,,,,,,,,,,,,,,,,,,,,,,,,,,,,,,,,,,
1665608220.618328,1665608220.618456,107.000000,0.000000,4277.307617,4218.077148,4277.179688,4267.820313,4287.436035,4295.256348,4289.102539,4307.307617,4297.179688,4273.461426,4461.666504,4438.333496,4365.256348,4395.897461,2725.000000,4.000000,91.000000,,,,0.000000,4.000000,4.000000,4.000000,4.000000,4.000000,2.000000,4.000000,4.000000,4.000000,4.000000,4.000000,4.000000,4.000000,4.000000,83.333336,,,,,,,,,,,,,,,,,,,,,,,,,,,,,,,,,,,,,,,,,,,,,,,
1665608220.626137,1665608220.626165,108.000000,0.000000,4278.077148,4216.282227,4287.307617,4269.230957,4294.743652,4295.384766,4294.615234,4310.641113,4308.589844,4285.897461,4471.025879,4450.641113,4370.512695,4402.307617,2556.000000,4.000000,91.000000,,,,0.000000,4.000000,4.000000,4.000000,4.000000,4.000000,2.000000,4.000000,4.000000,4.000000,4.000000,4.000000,4.000000,4.000000,4.000000,83.333336,,,,,,,,,,,,,,,,,,,,,,,,,,,,,,,,,,,,,,,,,,,,,,,
1665608220.633945,1665608220.634073,109.000000,0.000000,4296.153809,4228.077148,4304.487305,4282.307617,4298.846191,4296.666504,4301.794922,4322.307617,4316.922852,4307.179688,4496.153809,4462.820313,4415.256348,4428.846191,2276.000000,4.000000,91.000000,,,,0.000000,4.000000,4.000000,4.000000,4.000000,4.000000,2.000000,4.000000,4.000000,4.000000,4.000000,4.000000,4.000000,4.000000,4.000000,83.333336,,,,,,,,,,,,,,,,,,,,,,,,,,,,,,,,,,,,,,,,,,,,,,,
1665608220.641754,1665608220.641882,110.000000,0.000000,4307.692383,4240.641113,4306.666504,4286.666504,4299.743652,4301.282227,4310.769043,4330.512695,4312.692383,4303.974121,4498.846191,4468.333496,4420.641113,4438.205078,2685.000000,4.000000,91.000000,,,,0.000000,4.000000,4.000000,4.000000,4.000000,4.000000,2.000000,4.000000,4.000000,4.000000,4.000000,4.000000,4.000000,4.000000,4.000000,83.333336,,,,,,,,,,,,,,,,,,,,,,,,,,,,,,,,,,,,,,,,,,,,,,,
1665608220.649562,1665608220.649790,111.000000,0.000000,4294.615234,4228.717773,4294.230957,4270.384766,4290.769043,4301.538574,4307.436035,4323.846191,4307.179688,4292.948730,4483.589844,4460.384766,4389.102539,4421.153809,2725.000000,4.000000,91.000000,,,,0.000000,4.000000,4.000000,4.000000,4.000000,4.000000,2.000000,4.000000,4.000000,4.000000,4.000000,4.000000,4.000000,4.000000,4.000000,83.333336,,,,,,,,,,,,,,,,,,,,,,,,,,,,,,,,,,,,,,,,,,,,,,,
1665608220.657370,1665608220.657599,112.000000,0.000000,4275.641113,4213.333496,4283.589844,4262.820313,4279.358887,4295.000000,4293.461426,4318.333496,4311.922852,4295.256348,4478.461426,4449.102539,4389.102539,4407.307617,2556.000000,4.000000,91.000000,,,,0.000000,4.000000,4.000000,4.000000,4.000000,4.000000,2.000000,4.000000,4.000000,4.000000,4.000000,4.000000,4.000000,4.000000,4.000000,83.333336,,,,,,,,,,,,,,,,,,,,,,,,,,,,,,,,,,,,,,,,,,,,,,,
1665608220.665179,1665608220.665507,113.000000,0.000000,4268.077148,4219.358887,4277.436035,4264.871582,4278.846191,4294.743652,4286.922852,4318.974121,4312.179688,4292.948730,4476.153809,4443.846191,4398.974121,4399.871582,2276.000000,4.000000,91.000000,,,,0.000000,4.000000,4.000000,4.000000,4.000000,4.000000,2.000000,4.000000,4.000000,4.000000,4.000000,4.000000,4.000000,4.000000,4.000000,83.333336,,,,,,,,,,,,,,,,,,,,,,,,,,,,,,,,,,,,,,,,,,,,,,,
1665608220.672987,1665608220.673315,114.000000,0.000000,4260.641113,4217.436035,4265.384766,4255.128418,4284.487305,4299.487305,4283.077148,4307.307617,4301.153809,4281.666504,4465.384766,4432.051270,4382.179688,4385.384766,2685.000000,4.000000,91.000000,,,,0.000000,4.000000,4.000000,4.000000,4.000000,4.000000,2.000000,4.000000,4.000000,4.000000,4.000000,4.000000,4.000000,4.000000,4.000000,83.333336,,,,,,,,,,,,,,,,,,,,,,,,,,,,,,,,,,,,,,,,,,,,,,,
1665608220.680795,1665608220.681224,115.000000,0.000000,4247.051270,4201.538574,4250.512695,4243.846191,4276.922852,4292.948730,4269.615234,4293.333496,4291.153809,4277.563965,4451.794922,4418.461426,4366.538574,4372.051270,2725.000000,4.000000,91.000000,,,,0.000000,4.000000,4.000000,4.000000,4.000000,4.000000,2.000000,4.000000,4.000000,4.000000,4.000000,4.000000,4.000000,4.000000,4.000000,83.333336,,,,,,,,,,,,,,,,,,,,,,,,,,,,,,,,,,,,,,,,,,,,,,,
1665608220.688604,1665608220.689032,116.000000,0.000000,4245.000000,4198.333496,4248.589844,4246.282227,4265.897461,4282.692383,4257.307617,4292.436035,4287.948730,4272.692383,4448.461426,4416.538574,4366.153809,4369.743652,2556.000000,4.000000,91.000000,,,,0.000000,4.000000,4.000000,4.000000,4.000000,4.000000,2.000000,4.000000,4.000000,4.000000,4.000000,4.000000,4.000000,4.000000,4.000000,83.333336,,,,,,,,,,,,,,,,,,,,,,,,,,,,,,,,,,,,,,,,,,,,,,,
1665608220.696412,1665608220.696940,117.000000,0.000000,4255.000000,4202.307617,4260.128418,4247.051270,4267.948730,4283.589844,4259.487305,4291.922852,4282.179688,4264.487305,4452.820313,4420.512695,4369.358887,4374.743652,2276.000000,4.000000,91.000000,,,,0.000000,4.000000,4.000000,4.000000,4.000000,4.000000,2.000000,4.000000,4.000000,4.000000,4.000000,4.000000,4.000000,4.000000,4.000000,83.333336,,,,,,,,,,,,,,,,,,,,,,,,,,,,,,,,,,,,,,,,,,,,,,,
1665608220.704221,1665608220.704749,118.000000,0.000000,4265.769043,4208.077148,4271.922852,4249.871582,4278.461426,4295.769043,4276.153809,4296.922852,4286.666504,4270.769043,4460.897461,4429.871582,4377.307617,4385.897461,2685.000000,4.000000,91.000000,,,,0.000000,4.000000,4.000000,4.000000,4.000000,4.000000,2.000000,4.000000,4.000000,4.000000,4.000000,4.000000,4.000000,4.000000,4.000000,83.333336,,,,,,,,,,,,,,,,,,,,,,,,,,,,,,,,,,,,,,,,,,,,,,,
1665608220.712029,1665608220.712657,119.000000,0.000000,4272.820313,4216.538574,4280.000000,4265.512695,4287.307617,4307.436035,4295.384766,4316.153809,4305.000000,4280.769043,4472.948730,4444.743652,4375.128418,4400.128418,2725.000000,4.000000,91.000000,,,,0.000000,4.000000,4.000000,4.000000,4.000000,4.000000,2.000000,4.000000,4.000000,4.000000,4.000000,4.000000,4.000000,4.000000,4.000000,83.333336,,,,,,,,,,,,,,,,,,,,,,,,,,,,,,,,,,,,,,,,,,,,,,,
1665608220.719837,1665608220.720466,120.000000,0.000000,4271.538574,4216.922852,4285.000000,4265.128418,4289.487305,4305.897461,4301.410156,4323.333496,4308.717773,4280.128418,4472.179688,4449.487305,4360.641113,4399.743652,2556.000000,4.000000,91.000000,,,,0.000000,4.000000,4.000000,4.000000,4.000000,4.000000,2.000000,4.000000,4.000000,4.000000,4.000000,4.000000,4.000000,4.000000,4.000000,83.333336,,,,,,,,,,,,,,,,,,,,,,,,,,,,,,,,,,,,,,,,,,,,,,,
1665608220.727646,1665608220.728174,121.000000,0.000000,4264.743652,4203.461426,4279.615234,4249.743652,4285.897461,4297.820313,4292.948730,4308.846191,4296.025879,4275.769043,4460.000000,4440.512695,4362.820313,4384.615234,2276.000000,4.000000,91.000000,,,,0.000000,4.000000,4.000000,4.000000,4.000000,4.000000,2.000000,4.000000,4.000000,4.000000,4.000000,4.000000,4.000000,4.000000,4.000000,83.333336,,,,,,,,,,,,,,,,,,,,,,,,,,,,,,,,,,,,,,,,,,,,,,,
1665608220.735454,1665608220.735983,122.000000,0.000000,4259.102539,4187.436035,4266.025879,4245.256348,4276.922852,4294.230957,4284.487305,4298.846191,4287.436035,4267.307617,4454.871582,4428.333496,4374.358887,4377.051270,2685.000000,4.000000,91.000000,,,,0.000000,4.000000,4.000000,4.000000,4.000000,4.000000,2.000000,4.000000,4.000000,4.000000,4.000000,4.000000,4.000000,4.000000,4.000000,83.333336,,,,,,,,,,,,,,,,,,,,,,,,,,,,,,,,,,,,,,,,,,,,,,,
1665608220.743262,1665608220.743691,123.000000,0.000000,4260.512695,4188.461426,4262.179688,4248.205078,4277.820313,4297.692383,4287.948730,4304.487305,4294.102539,4267.307617,4465.128418,4430.256348,4377.563965,4387.820313,2725.000000,4.000000,91.000000,,,,0.000000,4.000000,4.000000,4.000000,4.000000,4.000000,2.000000,4.000000,4.000000,4.000000,4.000000,4.000000,4.000000,4.000000,4.000000,83.333336,,,,,,,,,,,,,,,,,,,,,,,,,,,,,,,,,,,,,,,,,,,,,,,
1665608220.751071,1665608220.751500,124.000000,0.000000,4262.692383,4198.461426,4270.641113,4250.641113,4285.641113,4301.153809,4291.410156,4314.743652,4304.615234,4280.128418,4471.153809,4440.000000,4381.025879,4396.153809,2556.000000,4.000000,91.000000,,,,0.000000,4.000000,4.000000,4.000000,4.000000,4.000000,2.000000,4.000000,4.000000,4.000000,4.000000,4.000000,4.000000,4.000000,4.000000,83.333336,,,,,,,,,,,,,,,,,,,,,,,,,,,,,,,,,,,,,,,,,,,,,,,
1665608220.758879,1665608220.759208,125.000000,0.000000,4253.333496,4191.153809,4262.820313,4244.743652,4274.615234,4293.077148,4273.846191,4302.051270,4293.333496,4275.641113,4455.256348,4428.846191,4370.897461,4379.743652,2276.000000,4.000000,91.000000,,,,0.000000,4.000000,4.000000,4.000000,4.000000,4.000000,2.000000,4.000000,4.000000,4.000000,4.000000,4.000000,4.000000,4.000000,4.000000,83.333336,,,,,,,,,,,,,,,,,,,,,,,,,,,,,,,,,,,,,,,,,,,,,,,
1665608220.766688,1665608220.767117,126.000000,0.000000,4240.256348,4179.102539,4243.589844,4232.948730,4258.974121,4283.333496,4254.743652,4278.205078,4274.871582,4257.436035,4437.436035,4407.948730,4347.307617,4357.692383,2685.000000,4.000000,91.000000,,,,0.000000,4.000000,4.000000,4.000000,4.000000,4.000000,2.000000,4.000000,4.000000,4.000000,4.000000,4.000000,4.000000,4.000000,4.000000,83.333336,,,,,,,,,,,,,,,,,,,,,,,,,,,,,,,,,,,,,,,,,,,,,,,
1665608220.774496,1665608220.774925,127.000000,0.000000,4249.358887,4197.820313,4254.230957,4242.436035,4270.512695,4288.846191,4268.333496,4288.974121,4285.897461,4266.794922,4449.871582,4419.487305,4354.487305,4369.102539,91.000000,4.000000,91.000000,,,,0.000000,4.000000,4.000000,4.000000,4.000000,4.000000,2.000000,4.000000,4.000000,4.000000,4.000000,4.000000,4.000000,4.000000,4.000000,83.333336,,,,,,,,,,,,,,,,,,,,,,,,,,,,,,,,,,,,,,,,,,,,,,,
1665608220.782304,1665608220.782833,0.000000,0.000000,4272.179688,4222.051270,4280.256348,4267.179688,4289.358887,4298.974121,4289.102539,4319.871582,4310.256348,4289.743652,4476.025879,4444.615234,4382.692383,4398.077148,2319.000000,4.000000,91.000000,,,,0.000000,4.000000,4.000000,4.000000,4.000000,4.000000,2.000000,4.000000,4.000000,4.000000,4.000000,4.000000,4.000000,4.000000,4.000000,83.333336,,,,,,,,,,,,,,,,,,,,,,,,,,,,,,,,,,,,,,,,,,,,,,,
1665608220.790113,1665608220.790642,1.000000,0.000000,4276.410156,4220.384766,4286.025879,4269.871582,4284.230957,4297.692383,4286.025879,4325.897461,4315.384766,4290.769043,4478.974121,4446.025879,4388.333496,4406.410156,2286.000000,4.000000,91.000000,,,,0.000000,4.000000,4.000000,4.000000,4.000000,4.000000,2.000000,4.000000,4.000000,4.000000,4.000000,4.000000,4.000000,4.000000,4.000000,83.333336,,,,,,,,,,,,,,,,,,,,,,,,,,,,,,,,,,,,,,,,,,,,,,,
1665608220.797921,1665608220.798450,2.000000,0.000000,4267.948730,4213.974121,4280.641113,4258.974121,4277.436035,4291.538574,4280.897461,4317.307617,4312.563965,4287.179688,4475.000000,4438.461426,4386.025879,4401.922852,2281.000000,4.000000,91.000000,,,,0.000000,4.000000,4.000000,4.000000,4.000000,4.000000,2.000000,4.000000,4.000000,4.000000,4.000000,4.000000,4.000000,4.000000,4.000000,83.333336,,,,,,,,,,,,,,,,,,,,,,,,,,,,,,,,,,,,,,,,,,,,,,,
1665608220.805730,1665608220.806159,3.000000,0.000000,4265.769043,4217.179688,4272.948730,4261.794922,4276.410156,4285.000000,4282.948730,4313.717773,4305.641113,4282.051270,4474.102539,4435.256348,4384.615234,4401.410156,2414.000000,4.000000,91.000000,,,,0.000000,4.000000,4.000000,4.000000,4.000000,4.000000,2.000000,4.000000,4.000000,4.000000,4.000000,4.000000,4.000000,4.000000,4.000000,83.333336,,,,,,,,,,,,,,,,,,,,,,,,,,,,,,,,,,,,,,,,,,,,,,,
1665608220.813538,1665608220.813967,4.000000,0.000000,4264.358887,4220.256348,4267.820313,4264.487305,4268.974121,4285.384766,4280.769043,4311.282227,4295.512695,4269.102539,4462.820313,4432.179688,4364.487305,4397.820313,2413.000000,4.000000,91.000000,,,,0.000000,4.000000,4.000000,4.000000,4.000000,4.000000,2.000000,4.000000,4.000000,4.000000,4.000000,4.000000,4.000000,4.000000,4.000000,83.333336,,,,,,,,,,,,,,,,,,,,,,,,,,,,,,,,,,,,,,,,,,,,,,,
1665608220.821346,1665608220.821676,5.000000,0.000000,4264.743652,4216.538574,4274.743652,4263.333496,4269.871582,4295.769043,4283.461426,4313.077148,4301.538574,4269.615234,4459.615234,4436.282227,4354.743652,4395.512695,1606.000000,4.000000,91.000000,,,,0.000000,4.000000,4.000000,4.000000,4.000000,4.000000,2.000000,4.000000,4.000000,4.000000,4.000000,4.000000,4.000000,4.000000,4.000000,83.333336,1.000000,66.666664,4.000000,3.000000,4.000000,4.000000,4.000000,2.000000,4.000000,4.000000,4.000000,4.000000,4.000000,4.000000,3.000000,4.000000,1.000000,0.556430,0.059382,-1.107241,0.344845,1.000000,0.056150,3.047015,2.379215,14.272295,0.089305,1.000000,0.384030,43.446602,-425.946442,731.607849,1.000000,0.170842,0.202578,0.111709,0.332303,1.000000,0.425707,4.014075,-7.458532,18.705605,1.000000,0.344836,0.344836,0.000000,1.000000
1665608220.829155,1665608220.829484,6.000000,0.000000,4267.436035,4217.179688,4277.436035,4263.846191,4274.230957,4300.384766,4290.769043,4315.128418,4304.615234,4276.794922,4470.128418,4440.769043,4377.436035,4401.025879,2259.000000,4.000000,91.000000,,,,0.000000,4.000000,4.000000,4.000000,4.000000,4.000000,2.000000,4.000000,4.000000,4.000000,4.000000,4.000000,4.000000,4.000000,4.000000,83.333336,,,,,,,,,,,,,,,,,,,,,,,,,,,,,,,,,,,,,,,,,,,,,,,
1665608220.836963,1665608220.837193,7.000000,0.000000,4255.641113,4217.179688,4261.410156,4256.025879,4265.512695,4296.538574,4286.153809,4306.282227,4288.974121,4265.769043,4463.205078,4427.307617,4380.512695,4392.307617,2322.000000,4.000000,91.000000,,,,0.000000,4.000000,4.000000,4.000000,4.000000,4.000000,2.000000,4.000000,4.000000,4.000000,4.000000,4.000000,4.000000,4.000000,4.000000,83.333336,,,,,,,,,,,,,,,,,,,,,,,,,,,,,,,,,,,,,,,,,,,,,,,
1665608220.844772,1665608220.845101,8.000000,0.000000,4234.230957,4207.692383,4247.692383,4246.922852,4265.256348,4297.820313,4279.487305,4292.179688,4274.871582,4248.077148,4438.717773,4411.153809,4346.153809,4366.922852,2396.000000,4.000000,91.000000,,,,0.000000,4.000000,4.000000,4.000000,4.000000,4.000000,2.000000,4.000000,4.000000,4.000000,4.000000,4.000000,4.000000,4.000000,4.000000,83.333336,,,,,,,,,,,,,,,,,,,,,,,,,,,,,,,,,,,,,,,,,,,,,,,
1665608220.852580,1665608220.852910,9.000000,0.000000,4228.077148,4198.846191,4245.641113,4247.692383,4276.666504,4299.358887,4280.769043,4283.974121,4272.436035,4245.641113,4428.077148,4409.487305,4320.000000,4351.794922,2366.000000,4.000000,91.000000,,,,0.000000,4.000000,4.000000,4.000000,4.000000,4.000000,2.000000,4.000000,4.000000,4.000000,4.000000,4.000000,4.000000,4.000000,4.000000,83.333336,,,,,,,,,,,,,,,,,,,,,,,,,,,,,,,,,,,,,,,,,,,,,,,
1665608220.860388,1665608220.860818,10.000000,0.000000,4236.282227,4200.128418,4248.846191,4247.820313,4274.230957,4296.666504,4276.794922,4284.487305,4273.077148,4252.307617,4434.358887,4415.384766,4328.461426,4358.717773,2688.000000,4.000000,91.000000,,,,0.000000,4.000000,4.000000,4.000000,4.000000,4.000000,2.000000,4.000000,4.000000,4.000000,4.000000,4.000000,4.000000,4.000000,4.000000,83.333336,,,,,,,,,,,,,,,,,,,,,,,,,,,,,,,,,,,,,,,,,,,,,,,
1665608220.868197,1665608220.868626,11.000000,0.000000,4243.461426,4204.102539,4254.871582,4247.436035,4267.820313,4294.743652,4271.410156,4289.743652,4276.666504,4260.384766,4441.794922,4418.717773,4343.589844,4371.153809,2725.000000,4.000000,91.000000,,,,0.000000,4.000000,4.000000,4.000000,4.000000,4.000000,2.000000,4.000000,4.000000,4.000000,4.000000,4.000000,4.000000,4.000000,4.000000,83.333336,,,,,,,,,,,,,,,,,,,,,,,,,,,,,,,,,,,,,,,,,,,,,,,
1665608220.876005,1665608220.876535,12.000000,0.000000,4253.461426,4213.333496,4262.307617,4258.717773,4274.615234,4293.846191,4275.897461,4302.820313,4289.615234,4271.538574,4455.384766,4428.974121,4350.897461,4379.487305,2560.000000,4.000000,91.000000,,,,0.000000,4.000000,4.000000,4.000000,4.000000,4.000000,2.000000,4.000000,4.000000,4.000000,4.000000,4.000000,4.000000,4.000000,4.000000,83.333336,,,,,,,,,,,,,,,,,,,,,,,,,,,,,,,,,,,,,,,,,,,,,,,
1665608220.883814,1665608220.884343,13.000000,0.000000,4267.563965,4229.230957,4273.333496,4268.974121,4282.436035,4295.128418,4284.358887,4316.666504,4304.615234,4279.743652,4469.230957,4442.051270,4361.794922,4392.820313,2274.000000,4.000000,91.000000,,,,0.000000,4.000000,4.000000,4.000000,4.000000,4.000000,2.000000,4.000000,4.000000,4.000000,4.000000,4.000000,4.000000,4.000000,4.000000,83.333336,,,,,,,,,,,,,,,,,,,,,,,,,,,,,,,,,,,,,,,,,,,,,,,
1665608220.891622,1665608220.892252,14.000000,0.000000,4275.000000,4228.461426,4281.666504,4267.051270,4277.948730,4296.025879,4285.384766,4318.333496,4307.179688,4284.358887,4467.948730,4443.333496,4366.666504,4403.974121,2688.000000,4.000000,91.000000,,,,0.000000,4.000000,4.000000,4.000000,4.000000,4.000000,2.000000,4.000000,4.000000,4.000000,4.000000,4.000000,4.000000,4.000000,4.000000,83.333336,,,,,,,,,,,,,,,,,,,,,,,,,,,,,,,,,,,,,,,,,,,,,,,
1665608220.899430,1665608220.900160,15.000000,0.000000,4274.358887,4216.794922,4280.512695,4267.692383,4268.205078,4294.615234,4282.948730,4311.282227,4298.333496,4281.538574,4461.410156,4440.512695,4360.256348,4402.179688,2725.000000,4.000000,91.000000,,,,0.000000,4.000000,4.000000,4.000000,4.000000,4.000000,2.000000,4.000000,4.000000,4.000000,4.000000,4.000000,4.000000,4.000000,4.000000,83.333336,,,,,,,,,,,,,,,,,,,,,,,,,,,,,,,,,,,,,,,,,,,,,,,
1665608220.907239,1665608220.907968,16.000000,0.000000,4272.051270,4219.230957,4278.589844,4273.077148,4268.589844,4292.948730,4285.897461,4310.641113,4294.743652,4272.692383,4460.000000,4443.974121,4352.307617,4401.025879,0.000000,4.000000,91.000000,,,,0.000000,4.000000,4.000000,4.000000,4.000000,4.000000,2.000000,4.000000,4.000000,4.000000,4.000000,4.000000,4.000000,4.000000,4.000000,83.333336,,,,,,,,,,,,,,,,,,,,,,,,,,,,,,,,,,,,,,,,,,,,,,,
1665608220.915047,1665608220.915777,17.000000,0.000000,4274.230957,4231.153809,4283.846191,4273.717773,4279.102539,4299.871582,4294.358887,4315.256348,4298.846191,4270.000000,4462.948730,4448.846191,4358.461426,4408.974121,0.000000,4.000000,91.000000,,,,0.000000,4.000000,4.000000,4.000000,4.000000,4.000000,2.000000,4.000000,4.000000,4.000000,4.000000,4.000000,4.000000,4.000000,4.000000,83.333336,,,,,,,,,,,,,,,,,,,,,,,,,,,,,,,,,,,,,,,,,,,,,,,
1665608220.922855,1665608220.923485,18.000000,0.000000,4273.461426,4232.563965,4286.153809,4270.000000,4283.205078,4308.974121,4299.615234,4315.000000,4297.563965,4271.666504,4464.102539,4447.948730,4366.666504,4408.077148,0.000000,4.000000,91.000000,,,,0.000000,4.000000,4.000000,4.000000,4.000000,4.000000,2.000000,4.000000,4.000000,4.000000,4.000000,4.000000,4.000000,4.000000,4.000000,83.333336,,,,,,,,,,,,,,,,,,,,,,,,,,,,,,,,,,,,,,,,,,,,,,,
1665608220.930664,1665608220.931294,19.000000,0.000000,4258.717773,4214.487305,4272.692383,4260.769043,4271.794922,4304.487305,4291.153809,4307.307617,4287.307617,4258.717773,4448.205078,4436.153809,4342.436035,4386.794922,0.000000,4.000000,91.000000,,,,0.000000,4.000000,4.000000,4.000000,4.000000,4.000000,2.000000,4.000000,4.000000,4.000000,4.000000,4.000000,4.000000,4.000000,4.000000,83.333336,,,,,,,,,,,,,,,,,,,,,,,,,,,,,,,,,,,,,,,,,,,,,,,
1665608220.938472,1665608220.939002,20.000000,0.000000,4240.769043,4199.743652,4255.128418,4247.948730,4267.820313,4296.410156,4280.128418,4295.128418,4273.974121,4238.589844,4425.769043,4419.230957,4312.179688,4368.461426,0.000000,4.000000,91.000000,,,,0.000000,4.000000,4.000000,4.000000,4.000000,4.000000,2.000000,4.000000,4.000000,4.000000,4.000000,4.000000,4.000000,4.000000,4.000000,83.333336,,,,,,,,,,,,,,,,,,,,,,,,,,,,,,,,,,,,,,,,,,,,,,,
1665608220.946280,1665608220.946811,21.000000,0.000000,4241.410156,4209.358887,4254.743652,4247.563965,4272.820313,4296.410156,4279.358887,4290.641113,4274.102539,4243.974121,4433.846191,4415.384766,4330.641113,4372.436035,0.000000,4.000000,91.000000,,,,0.000000,4.000000,4.000000,4.000000,4.000000,4.000000,2.000000,4.000000,4.000000,4.000000,4.000000,4.000000,4.000000,4.000000,4.000000,83.333336,,,,,,,,,,,,,,,,,,,,,,,,,,,,,,,,,,,,,,,,,,,,,,,
1665608220.954089,1665608220.954519,22.000000,0.000000,4251.794922,4230.512695,4262.820313,4259.615234,4271.282227,4296.666504,4280.897461,4294.615234,4285.000000,4261.794922,4449.230957,4421.282227,4357.692383,4381.025879,0.000000,4.000000,91.000000,,,,0.000000,4.000000,4.000000,4.000000,4.000000,4.000000,2.000000,4.000000,4.000000,4.000000,4.000000,4.000000,4.000000,4.000000,4.000000,83.333336,,,,,,,,,,,,,,,,,,,,,,,,,,,,,,,,,,,,,,,,,,,,,,,
1665608220.961897,1665608220.962328,23.000000,0.000000,4252.307617,4235.769043,4262.051270,4264.102539,4272.692383,4296.025879,4283.589844,4304.230957,4291.794922,4268.333496,4443.589844,4426.153809,4340.641113,4382.307617,0.000000,4.000000,91.000000,,,,0.000000,4.000000,4.000000,4.000000,4.000000,4.000000,2.000000,4.000000,4.000000,4.000000,4.000000,4.000000,4.000000,4.000000,4.000000,83.333336,,,,,,,,,,,,,,,,,,,,,,,,,,,,,,,,,,,,,,,,,,,,,,,
1665608220.969706,1665608220.970036,24.000000,0.000000,4250.000000,4230.384766,4265.256348,4263.846191,4276.794922,4296.666504,4286.538574,4313.077148,4299.615234,4275.128418,4448.461426,4433.589844,4337.563965,4387.179688,0.000000,4.000000,91.000000,,,,0.000000,4.000000,4.000000,4.000000,4.000000,4.000000,2.000000,4.000000,4.000000,4.000000,4.000000,4.000000,4.000000,4.000000,4.000000,83.333336,,,,,,,,,,,,,,,,,,,,,,,,,,,,,,,,,,,,,,,,,,,,,,,
1665608220.977514,1665608220.977845,25.000000,0.000000,4259.743652,4236.794922,4277.051270,4275.256348,4275.897461,4296.025879,4284.487305,4312.948730,4309.102539,4283.974121,4466.794922,4440.256348,4369.871582,4399.102539,0.000000,4.000000,91.000000,,,,0.000000,4.000000,4.000000,4.000000,4.000000,4.000000,2.000000,4.000000,4.000000,4.000000,4.000000,4.000000,4.000000,4.000000,4.000000,83.333336,,,,,,,,,,,,,,,,,,,,,,,,,,,,,,,,,,,,,,,,,,,,,,,
1665608220.985322,1665608220.985553,26.000000,0.000000,4266.410156,4244.230957,4277.563965,4283.077148,4273.846191,4295.384766,4280.128418,4309.102539,4305.641113,4285.128418,4467.051270,4438.333496,4375.512695,4402.563965,0.000000,4.000000,91.000000,,,,0.000000,4.000000,4.000000,4.000000,4.000000,4.000000,2.000000,4.000000,4.000000,4.000000,4.000000,4.000000,4.000000,4.000000,4.000000,83.333336,,,,,,,,,,,,,,,,,,,,,,,,,,,,,,,,,,,,,,,,,,,,,,,
1665608220.993131,1665608220.993362,27.000000,0.000000,4256.538574,4237.563965,4269.102539,4272.692383,4270.897461,4296.538574,4286.282227,4310.512695,4296.794922,4278.205078,4458.077148,4436.794922,4357.179688,4397.692383,0.000000,4.000000,91.000000,,,,0.000000,4.000000,4.000000,4.000000,4.000000,4.000000,2.000000,4.000000,4.000000,4.000000,4.000000,4.000000,4.000000,4.000000,4.000000,83.333336,,,,,,,,,,,,,,,,,,,,,,,,,,,,,,,,,,,,,,,,,,,,,,,
1665608221.000939,1665608221.001070,28.000000,0.000000,4251.153809,4229.230957,4264.102539,4261.794922,4267.179688,4295.641113,4293.205078,4312.948730,4295.897461,4269.743652,4459.102539,4437.820313,4349.871582,4395.897461,0.000000,4.000000,91.000000,,,,0.000000,4.000000,4.000000,4.000000,4.000000,4.000000,2.000000,4.000000,4.000000,4.000000,4.000000,4.000000,4.000000,4.000000,4.000000,83.333336,,,,,,,,,,,,,,,,,,,,,,,,,,,,,,,,,,,,,,,,,,,,,,,
1665608221.008747,1665608221.008879,29.000000,0.000000,4257.563965,4230.641113,4264.230957,4263.974121,4270.128418,4296.153809,4289.487305,4307.179688,4294.102539,4263.205078,4459.615234,4435.384766,4348.205078,4395.512695,0.000000,4.000000,91.000000,,,,0.000000,4.000000,4.000000,4.000000,4.000000,4.000000,2.000000,4.000000,4.000000,4.000000,4.000000,4.000000,4.000000,4.000000,4.000000,83.333336,,,,,,,,,,,,,,,,,,,,,,,,,,,,,,,,,,,,,,,,,,,,,,,
1665608221.016556,1665608221.016587,30.000000,0.000000,4265.384766,4234.487305,4270.000000,4271.794922,4275.000000,4297.820313,4290.897461,4309.230957,4293.589844,4265.512695,4456.794922,4435.256348,4354.358887,4397.179688,0.000000,4.000000,91.000000,,,,0.000000,4.000000,4.000000,4.000000,4.000000,4.000000,2.000000,4.000000,4.000000,4.000000,4.000000,4.000000,4.000000,4.000000,4.000000,83.333336,,,,,,,,,,,,,,,,,,,,,,,,,,,,,,,,,,,,,,,,,,,,,,,
1665608221.024364,1665608221.024496,31.000000,0.000000,4265.512695,4234.487305,4274.487305,4273.589844,4272.307617,4297.307617,4295.897461,4320.512695,4304.102539,4274.358887,4463.205078,4440.769043,4367.307617,4400.512695,0.000000,4.000000,91.000000,,,,0.000000,4.000000,4.000000,4.000000,4.000000,4.000000,2.000000,4.000000,4.000000,4.000000,4.000000,4.000000,4.000000,4.000000,4.000000,83.333336,,,,,,,,,,,,,,,,,,,,,,,,,,,,,,,,,,,,,,,,,,,,,,,
1665608221.032173,1665608221.032304,32.000000,0.000000,4253.461426,4233.461426,4266.410156,4265.256348,4269.487305,4297.051270,4288.717773,4316.666504,4303.077148,4270.128418,4462.179688,4439.102539,4360.512695,4395.897461,0.000000,4.000000,91.000000,,,,0.000000,4.000000,4.000000,4.000000,4.000000,4.000000,2.000000,4.000000,4.000000,4.000000,4.000000,4.000000,4.000000,4.000000,4.000000,83.333336,,,,,,,,,,,,,,,,,,,,,,,,,,,,,,,,,,,,,,,,,,,,,,,
1665608221.039981,1665608221.040212,33.000000,0.000000,4245.512695,4229.743652,4257.820313,4260.000000,4266.538574,4297.692383,4282.307617,4306.666504,4290.128418,4261.794922,4445.128418,4432.948730,4342.179688,4387.436035,0.000000,4.000000,91.000000,,,,0.000000,4.000000,4.000000,4.000000,4.000000,4.000000,2.000000,4.000000,4.000000,4.000000,4.000000,4.000000,4.000000,4.000000,4.000000,83.333336,,,,,,,,,,,,,,,,,,,,,,,,,,,,,,,,,,,,,,,,,,,,,,,
1665608221.047789,1665608221.048021,34.000000,0.000000,4258.077148,4229.102539,4269.487305,4273.717773,4263.461426,4297.307617,4287.563965,4311.794922,4296.538574,4271.794922,4445.641113,4436.666504,4346.666504,4394.230957,0.000000,4.000000,91.000000,,,,0.000000,4.000000,4.000000,4.000000,4.000000,4.000000,2.000000,4.000000,4.000000,4.000000,4.000000,4.000000,4.000000,4.000000,4.000000,83.333336,,,,,,,,,,,,,,,,,,,,,,,,,,,,,,,,,,,,,,,,,,,,,,,
1665608221.055598,1665608221.055929,35.000000,0.000000,4271.282227,4234.487305,4280.256348,4280.384766,4266.025879,4295.128418,4288.717773,4317.948730,4307.179688,4286.410156,4464.871582,4442.692383,4358.846191,4402.948730,0.000000,4.000000,91.000000,,,,0.000000,4.000000,4.000000,4.000000,4.000000,4.000000,2.000000,4.000000,4.000000,4.000000,4.000000,4.000000,4.000000,4.000000,4.000000,83.333336,,,,,,,,,,,,,,,,,,,,,,,,,,,,,,,,,,,,,,,,,,,,,,,
1665608221.063406,1665608221.063738,36.000000,0.000000,4262.563965,4234.487305,4271.025879,4266.025879,4266.538574,4294.358887,4282.051270,4309.358887,4298.974121,4277.692383,4464.230957,4439.102539,4353.205078,4392.436035,0.000000,4.000000,91.000000,,,,0.000000,4.000000,4.000000,4.000000,4.000000,4.000000,2.000000,4.000000,4.000000,4.000000,4.000000,4.000000,4.000000,4.000000,4.000000,83.333336,,,,,,,,,,,,,,,,,,,,,,,,,,,,,,,,,,,,,,,,,,,,,,,
1665608221.071215,1665608221.071646,37.000000,0.000000,4256.282227,4229.871582,4267.307617,4265.384766,4264.487305,4296.153809,4281.410156,4303.461426,4289.358887,4266.922852,4453.333496,4434.487305,4345.512695,4389.102539,0.000000,4.000000,91.000000,,,,0.000000,4.000000,4.000000,4.000000,4.000000,4.000000,2.000000,4.000000,4.000000,4.000000,4.000000,4.000000,4.000000,4.000000,4.000000,83.333336,,,,,,,,,,,,,,,,,,,,,,,,,,,,,,,,,,,,,,,,,,,,,,,
1665608221.079023,1665608221.079454,38.000000,0.000000,4264.487305,4230.512695,4277.307617,4281.153809,4269.358887,4297.820313,4282.436035,4305.641113,4292.948730,4273.589844,4458.589844,4438.205078,4348.846191,4403.077148,0.000000,4.000000,91.000000,,,,0.000000,4.000000,4.000000,4.000000,4.000000,4.000000,2.000000,4.000000,4.000000,4.000000,4.000000,4.000000,4.000000,4.000000,4.000000,83.333336,,,,,,,,,,,,,,,,,,,,,,,,,,,,,,,,,,,,,,,,,,,,,,,
1665608221.086831,1665608221.087363,39.000000,0.000000,4264.743652,4237.692383,4277.307617,4281.794922,4273.589844,4297.692383,4280.384766,4304.487305,4297.179688,4277.563965,4464.102539,4440.256348,4352.692383,4405.000000,0.000000,4.000000,91.000000,,,,0.000000,4.000000,4.000000,4.000000,4.000000,4.000000,2.000000,4.000000,4.000000,4.000000,4.000000,4.000000,4.000000,4.000000,4.000000,83.333336,,,,,,,,,,,,,,,,,,,,,,,,,,,,,,,,,,,,,,,,,,,,,,,
1665608221.094640,1665608221.095171,40.000000,0.000000,4253.717773,4235.256348,4261.282227,4268.589844,4267.692383,4296.538574,4277.820313,4297.563965,4290.128418,4266.410156,4454.743652,4431.153809,4345.128418,4393.077148,0.000000,4.000000,91.000000,,,,0.000000,4.000000,4.000000,4.000000,4.000000,4.000000,2.000000,4.000000,4.000000,4.000000,4.000000,4.000000,4.000000,4.000000,4.000000,83.333336,,,,,,,,,,,,,,,,,,,,,,,,,,,,,,,,,,,,,,,,,,,,,,,
1665608221.102448,1665608221.102880,41.000000,0.000000,4240.256348,4218.846191,4246.153809,4258.717773,4260.128418,4296.153809,4272.051270,4286.794922,4275.384766,4247.820313,4437.948730,4411.282227,4328.333496,4379.230957,0.000000,4.000000,91.000000,,,,0.000000,4.000000,4.000000,4.000000,4.000000,4.000000,2.000000,4.000000,4.000000,4.000000,4.000000,4.000000,4.000000,4.000000,4.000000,83.333336,,,,,,,,,,,,,,,,,,,,,,,,,,,,,,,,,,,,,,,,,,,,,,,
1665608221.110257,1665608221.110688,42.000000,0.000000,4240.641113,4216.153809,4246.282227,4259.358887,4261.922852,4296.153809,4275.000000,4288.589844,4275.641113,4246.922852,4436.025879,4406.666504,4324.615234,4372.948730,0.000000,4.000000,91.000000,,,,0.000000,4.000000,4.000000,4.000000,4.000000,4.000000,2.000000,4.000000,4.000000,4.000000,4.000000,4.000000,4.000000,4.000000,4.000000,83.333336,,,,,,,,,,,,,,,,,,,,,,,,,,,,,,,,,,,,,,,,,,,,,,,
1665608221.118065,1665608221.118397,43.000000,0.000000,4255.256348,4232.692383,4261.794922,4270.384766,4265.897461,4297.820313,4287.563965,4308.589844,4296.794922,4267.179688,4455.512695,4426.538574,4341.922852,4384.615234,0.000000,4.000000,91.000000,,,,0.000000,4.000000,4.000000,4.000000,4.000000,4.000000,2.000000,4.000000,4.000000,4.000000,4.000000,4.000000,4.000000,4.000000,4.000000,83.333336,,,,,,,,,,,,,,,,,,,,,,,,,,,,,,,,,,,,,,,,,,,,,,,
1665608221.125873,1665608221.126205,44.000000,0.000000,4257.307617,4237.179688,4266.538574,4270.641113,4263.717773,4298.589844,4288.846191,4318.717773,4303.974121,4275.000000,4460.769043,4435.769043,4349.743652,4392.692383,0.000000,4.000000,91.000000,,,,0.000000,4.000000,4.000000,4.000000,4.000000,4.000000,2.000000,4.000000,4.000000,4.000000,4.000000,4.000000,4.000000,4.000000,4.000000,83.333336,,,,,,,,,,,,,,,,,,,,,,,,,,,,,,,,,,,,,,,,,,,,,,,
1665608221.133682,1665608221.133914,45.000000,0.000000,4247.179688,4229.871582,4255.256348,4260.256348,4261.666504,4292.820313,4278.717773,4303.589844,4289.230957,4264.871582,4447.307617,4422.436035,4344.743652,4382.820313,0.000000,4.000000,91.000000,,,,0.000000,4.000000,4.000000,4.000000,4.000000,4.000000,2.000000,4.000000,4.000000,4.000000,4.000000,4.000000,4.000000,4.000000,4.000000,83.333336,,,,,,,,,,,,,,,,,,,,,,,,,,,,,,,,,,,,,,,,,,,,,,,
1665608221.141490,1665608221.141722,46.000000,0.000000,4246.153809,4231.153809,4256.410156,4260.769043,4261.794922,4288.077148,4275.897461,4291.025879,4278.846191,4261.410156,4443.205078,4419.230957,4341.666504,4378.077148,0.000000,4.000000,91.000000,,,,0.000000,4.000000,4.000000,4.000000,4.000000,4.000000,2.000000,4.000000,4.000000,4.000000,4.000000,4.000000,4.000000,4.000000,4.000000,83.333336,,,,,,,,,,,,,,,,,,,,,,,,,,,,,,,,,,,,,,,,,,,,,,,
1665608221.149298,1665608221.149431,47.000000,0.000000,4252.179688,4233.589844,4265.000000,4268.333496,4264.487305,4293.205078,4284.358887,4300.128418,4281.025879,4262.051270,4444.230957,4431.538574,4332.563965,4382.436035,0.000000,4.000000,91.000000,,,,0.000000,4.000000,4.000000,4.000000,4.000000,4.000000,2.000000,4.000000,4.000000,4.000000,4.000000,4.000000,4.000000,4.000000,4.000000,83.333336,,,,,,,,,,,,,,,,,,,,,,,,,,,,,,,,,,,,,,,,,,,,,,,
1665608221.157107,1665608221.157239,48.000000,0.000000,4257.307617,4234.230957,4266.794922,4273.846191,4268.461426,4297.692383,4291.410156,4310.000000,4288.589844,4258.077148,4446.922852,4436.410156,4336.794922,4388.717773,0.000000,4.000000,91.000000,,,,0.000000,4.000000,4.000000,4.000000,4.000000,4.000000,2.000000,4.000000,4.000000,4.000000,4.000000,4.000000,4.000000,4.000000,4.000000,83.333336,,,,,,,,,,,,,,,,,,,,,,,,,,,,,,,,,,,,,,,,,,,,,,,
1665608221.164915,1665608221.164948,49.000000,0.000000,4268.333496,4244.230957,4277.563965,4281.153809,4273.077148,4294.230957,4292.179688,4311.025879,4295.897461,4265.384766,4460.512695,4441.025879,4368.461426,4406.025879,0.000000,4.000000,91.000000,,,,0.000000,4.000000,4.000000,4.000000,4.000000,4.000000,2.000000,4.000000,4.000000,4.000000,4.000000,4.000000,4.000000,4.000000,4.000000,83.333336,,,,,,,,,,,,,,,,,,,,,,,,,,,,,,,,,,,,,,,,,,,,,,,
1665608221.172724,1665608221.172756,50.000000,0.000000,4276.025879,4246.153809,4288.846191,4284.230957,4276.922852,4293.461426,4297.051270,4311.538574,4299.102539,4272.820313,4470.897461,4449.358887,4385.897461,4419.102539,0.000000,4.000000,91.000000,,,,0.000000,4.000000,4.000000,4.000000,4.000000,4.000000,2.000000,4.000000,4.000000,4.000000,4.000000,4.000000,4.000000,4.000000,4.000000,83.333336,,,,,,,,,,,,,,,,,,,,,,,,,,,,,,,,,,,,,,,,,,,,,,,
1665608221.180532,1665608221.180465,51.000000,0.000000,4264.487305,4221.282227,4279.230957,4270.256348,4272.307617,4293.205078,4296.666504,4312.179688,4296.153809,4266.153809,4460.769043,4444.102539,4365.641113,4404.615234,0.000000,4.000000,91.000000,,,,0.000000,4.000000,4.000000,4.000000,4.000000,4.000000,2.000000,4.000000,4.000000,4.000000,4.000000,4.000000,4.000000,4.000000,4.000000,83.333336,,,,,,,,,,,,,,,,,,,,,,,,,,,,,,,,,,,,,,,,,,,,,,,
1665608221.188340,1665608221.188273,52.000000,0.000000,4249.358887,4200.384766,4263.205078,4253.717773,4263.205078,4290.000000,4287.179688,4311.794922,4293.077148,4259.871582,4447.820313,4432.948730,4350.769043,4386.282227,0.000000,4.000000,91.000000,,,,0.000000,4.000000,4.000000,4.000000,4.000000,4.000000,2.000000,4.000000,4.000000,4.000000,4.000000,4.000000,4.000000,4.000000,4.000000,83.333336,,,,,,,,,,,,,,,,,,,,,,,,,,,,,,,,,,,,,,,,,,,,,,,
1665608221.196149,1665608221.195982,53.000000,0.000000,4245.128418,4199.102539,4255.641113,4249.230957,4263.717773,4292.563965,4286.153809,4310.769043,4291.025879,4263.333496,4447.436035,4433.461426,4352.436035,4383.333496,0.000000,4.000000,91.000000,,,,0.000000,4.000000,4.000000,4.000000,4.000000,4.000000,2.000000,4.000000,4.000000,4.000000,4.000000,4.000000,4.000000,4.000000,4.000000,83.333336,,,,,,,,,,,,,,,,,,,,,,,,,,,,,,,,,,,,,,,,,,,,,,,
1665608221.203957,1665608221.203890,54.000000,0.000000,4242.692383,4191.794922,4249.102539,4249.871582,4263.333496,4296.153809,4290.000000,4306.538574,4288.205078,4263.333496,4446.410156,4429.487305,4343.205078,4379.230957,0.000000,4.000000,91.000000,,,,0.000000,4.000000,4.000000,4.000000,4.000000,4.000000,2.000000,4.000000,4.000000,4.000000,4.000000,4.000000,4.000000,4.000000,4.000000,83.333336,,,,,,,,,,,,,,,,,,,,,,,,,,,,,,,,,,,,,,,,,,,,,,,
1665608221.211765,1665608221.211699,55.000000,0.000000,4234.743652,4179.102539,4244.743652,4246.666504,4253.333496,4294.487305,4282.051270,4303.717773,4287.948730,4260.128418,4439.102539,4419.102539,4338.846191,4370.000000,0.000000,4.000000,91.000000,,,,0.000000,4.000000,4.000000,4.000000,4.000000,4.000000,2.000000,4.000000,4.000000,4.000000,4.000000,4.000000,4.000000,4.000000,4.000000,83.333336,,,,,,,,,,,,,,,,,,,,,,,,,,,,,,,,,,,,,,,,,,,,,,,
1665608221.219574,1665608221.219607,56.000000,0.000000,4230.000000,4179.615234,4245.128418,4244.487305,4252.436035,4292.307617,4277.692383,4307.307617,4291.794922,4265.384766,4440.769043,4420.641113,4352.563965,4367.948730,0.000000,4.000000,91.000000,,,,0.000000,4.000000,4.000000,4.000000,4.000000,4.000000,2.000000,4.000000,4.000000,4.000000,4.000000,4.000000,4.000000,4.000000,4.000000,83.333336,,,,,,,,,,,,,,,,,,,,,,,,,,,,,,,,,,,,,,,,,,,,,,,
1665608221.227382,1665608221.227415,57.000000,0.000000,4234.743652,4187.307617,4247.307617,4247.051270,4262.692383,4296.153809,4287.179688,4315.769043,4297.948730,4274.358887,4452.563965,4432.179688,4358.717773,4370.128418,0.000000,4.000000,91.000000,,,,0.000000,4.000000,4.000000,4.000000,4.000000,4.000000,2.000000,4.000000,4.000000,4.000000,4.000000,4.000000,4.000000,4.000000,4.000000,83.333336,,,,,,,,,,,,,,,,,,,,,,,,,,,,,,,,,,,,,,,,,,,,,,,
1665608221.235191,1665608221.235324,58.000000,0.000000,4241.538574,4191.538574,4254.743652,4254.358887,4265.384766,4297.563965,4290.897461,4318.717773,4298.717773,4273.205078,4456.538574,4437.179688,4348.077148,4374.871582,0.000000,4.000000,91.000000,,,,0.000000,4.000000,4.000000,4.000000,4.000000,4.000000,2.000000,4.000000,4.000000,4.000000,4.000000,4.000000,4.000000,4.000000,4.000000,83.333336,,,,,,,,,,,,,,,,,,,,,,,,,,,,,,,,,,,,,,,,,,,,,,,
1665608221.242999,1665608221.243132,59.000000,0.000000,4248.846191,4200.769043,4265.256348,4262.948730,4262.820313,4288.333496,4287.948730,4312.307617,4294.615234,4266.666504,4453.846191,4435.641113,4352.820313,4387.563965,0.000000,4.000000,91.000000,,,,0.000000,4.000000,4.000000,4.000000,4.000000,4.000000,2.000000,4.000000,4.000000,4.000000,4.000000,4.000000,4.000000,4.000000,4.000000,83.333336,,,,,,,,,,,,,,,,,,,,,,,,,,,,,,,,,,,,,,,,,,,,,,,
1665608221.250807,1665608221.251041,60.000000,0.000000,4256.794922,4212.307617,4270.384766,4263.846191,4262.820313,4281.282227,4290.897461,4308.205078,4291.282227,4266.410156,4456.282227,4437.436035,4370.384766,4396.282227,0.000000,4.000000,91.000000,,,,0.000000,4.000000,4.000000,4.000000,4.000000,4.000000,2.000000,4.000000,4.000000,4.000000,4.000000,4.000000,4.000000,4.000000,4.000000,83.333336,,,,,,,,,,,,,,,,,,,,,,,,,,,,,,,,,,,,,,,,,,,,,,,
1665608221.258616,1665608221.258849,61.000000,0.000000,4263.846191,4218.461426,4276.410156,4268.205078,4265.256348,4287.692383,4296.538574,4314.743652,4296.282227,4273.077148,4469.743652,4446.666504,4374.871582,4404.487305,0.000000,4.000000,91.000000,,,,0.000000,4.000000,4.000000,4.000000,4.000000,4.000000,2.000000,4.000000,4.000000,4.000000,4.000000,4.000000,4.000000,4.000000,4.000000,83.333336,,,,,,,,,,,,,,,,,,,,,,,,,,,,,,,,,,,,,,,,,,,,,,,
1665608221.266424,1665608221.266757,62.000000,0.000000,4266.922852,4221.538574,4281.666504,4277.051270,4266.538574,4296.025879,4299.871582,4320.000000,4302.692383,4277.948730,4475.384766,4450.000000,4374.230957,4412.820313,0.000000,4.000000,91.000000,,,,0.000000,4.000000,4.000000,4.000000,4.000000,4.000000,2.000000,4.000000,4.000000,4.000000,4.000000,4.000000,4.000000,4.000000,4.000000,83.333336,,,,,,,,,,,,,,,,,,,,,,,,,,,,,,,,,,,,,,,,,,,,,,,
1665608221.274233,1665608221.274566,63.000000,0.000000,4257.563965,4218.077148,4274.615234,4270.641113,4266.153809,4294.487305,4298.077148,4315.000000,4297.948730,4273.717773,4453.461426,4440.512695,4363.077148,4400.256348,0.000000,4.000000,91.000000,,,,0.000000,4.000000,4.000000,4.000000,4.000000,4.000000,2.000000,4.000000,4.000000,4.000000,4.000000,4.000000,4.000000,4.000000,4.000000,83.333336,,,,,,,,,,,,,,,,,,,,,,,,,,,,,,,,,,,,,,,,,,,,,,,
1665608221.282041,1665608221.282474,64.000000,0.000000,4247.948730,4212.563965,4263.077148,4259.743652,4265.384766,4288.717773,4292.307617,4309.615234,4291.282227,4269.871582,4438.846191,4432.948730,4351.153809,4384.102539,2314.000000,4.000000,91.000000,,,,0.000000,4.000000,4.000000,4.000000,4.000000,4.000000,2.000000,4.000000,4.000000,4.000000,4.000000,4.000000,4.000000,4.000000,4.000000,83.333336,,,,,,,,,,,,,,,,,,,,,,,,,,,,,,,,,,,,,,,,,,,,,,,
1665608221.289849,1665608221.290283,65.000000,0.000000,4249.871582,4216.282227,4264.487305,4261.922852,4267.820313,4290.641113,4291.282227,4311.538574,4295.384766,4278.589844,4461.794922,4437.563965,4368.974121,4391.794922,2276.000000,4.000000,91.000000,,,,0.000000,4.000000,4.000000,4.000000,4.000000,4.000000,2.000000,4.000000,4.000000,4.000000,4.000000,4.000000,4.000000,4.000000,4.000000,83.333336,,,,,,,,,,,,,,,,,,,,,,,,,,,,,,,,,,,,,,,,,,,,,,,
1665608221.297658,1665608221.297991,66.000000,0.000000,4254.487305,4219.358887,4268.974121,4266.538574,4267.436035,4293.461426,4293.974121,4312.563965,4300.769043,4288.717773,4479.230957,4442.820313,4393.077148,4403.589844,2272.000000,4.000000,91.000000,,,,0.000000,4.000000,4.000000,4.000000,4.000000,4.000000,2.000000,4.000000,4.000000,4.000000,4.000000,4.000000,4.000000,4.000000,4.000000,83.333336,,,,,,,,,,,,,,,,,,,,,,,,,,,,,,,,,,,,,,,,,,,,,,,
1665608221.305466,1665608221.305800,67.000000,0.000000,4247.436035,4207.179688,4259.102539,4261.666504,4263.974121,4287.563965,4287.179688,4308.717773,4297.692383,4284.743652,4464.487305,4434.743652,4382.051270,4393.974121,2398.000000,4.000000,91.000000,,,,0.000000,4.000000,4.000000,4.000000,4.000000,4.000000,2.000000,4.000000,4.000000,4.000000,4.000000,4.000000,4.000000,4.000000,4.000000,83.333336,,,,,,,,,,,,,,,,,,,,,,,,,,,,,,,,,,,,,,,,,,,,,,,
1665608221.313275,1665608221.313508,68.000000,0.000000,4238.461426,4196.410156,4246.025879,4255.256348,4260.897461,4278.589844,4279.743652,4307.436035,4294.358887,4273.846191,4456.025879,4423.077148,4364.358887,4382.051270,2413.000000,4.000000,91.000000,,,,0.000000,4.000000,4.000000,4.000000,4.000000,4.000000,2.000000,4.000000,4.000000,4.000000,4.000000,4.000000,4.000000,4.000000,4.000000,83.333336,,,,,,,,,,,,,,,,,,,,,,,,,,,,,,,,,,,,,,,,,,,,,,,
1665608221.321083,1665608221.321317,69.000000,0.000000,4237.820313,4199.615234,4245.256348,4249.743652,4255.128418,4276.410156,4277.820313,4302.436035,4290.256348,4266.538574,4455.897461,4419.230957,4364.230957,4380.769043,1606.000000,4.000000,91.000000,,,,0.000000,4.000000,4.000000,4.000000,4.000000,4.000000,2.000000,4.000000,4.000000,4.000000,4.000000,4.000000,4.000000,4.000000,4.000000,83.333336,1.000000,75.000000,4.000000,4.000000,4.000000,4.000000,4.000000,2.000000,4.000000,4.000000,4.000000,4.000000,4.000000,4.000000,3.000000,4.000000,1.000000,0.560201,-0.412186,-1.107105,0.344731,1.000000,0.041623,2.874237,2.379215,14.272295,0.088762,1.000000,0.385018,44.388893,-425.890076,731.464417,1.000000,0.179137,0.188703,0.111709,0.332265,1.000000,0.428579,4.259508,-7.457751,18.703159,1.000000,0.339891,0.339891,0.000000,1.000000
1665608221.328891,1665608221.329025,70.000000,0.000000,4236.922852,4198.077148,4247.563965,4247.307617,4248.846191,4278.461426,4271.666504,4289.102539,4279.230957,4261.025879,4449.102539,4415.897461,4357.436035,4377.948730,2262.000000,4.000000,91.000000,,,,0.000000,4.000000,4.000000,4.000000,4.000000,4.000000,2.000000,4.000000,4.000000,4.000000,4.000000,4.000000,4.000000,4.000000,4.000000,83.333336,,,,,,,,,,,,,,,,,,,,,,,,,,,,,,,,,,,,,,,,,,,,,,,
1665608221.336700,1665608221.336933,71.000000,0.000000,4238.589844,4195.256348,4247.051270,4253.846191,4248.974121,4277.051270,4267.948730,4288.333496,4272.948730,4257.563965,4447.948730,4413.461426,4347.820313,4378.333496,2314.000000,4.000000,91.000000,,,,0.000000,4.000000,4.000000,4.000000,4.000000,4.000000,2.000000,4.000000,4.000000,4.000000,4.000000,4.000000,4.000000,4.000000,4.000000,83.333336,,,,,,,,,,,,,,,,,,,,,,,,,,,,,,,,,,,,,,,,,,,,,,,
1665608221.344508,1665608221.344742,72.000000,0.000000,4247.436035,4206.666504,4252.051270,4261.666504,4258.974121,4276.025879,4277.436035,4300.769043,4282.436035,4259.102539,4455.769043,4427.307617,4355.769043,4389.102539,2389.000000,4.000000,91.000000,,,,0.000000,4.000000,4.000000,4.000000,4.000000,4.000000,2.000000,4.000000,4.000000,4.000000,4.000000,4.000000,4.000000,4.000000,4.000000,83.333336,,,,,,,,,,,,,,,,,,,,,,,,,,,,,,,,,,,,,,,,,,,,,,,
1665608221.352317,1665608221.352550,73.000000,0.000000,4254.102539,4218.589844,4266.666504,4266.794922,4271.794922,4286.153809,4293.974121,4315.000000,4298.461426,4271.794922,4464.743652,4446.922852,4369.615234,4400.000000,2361.000000,4.000000,91.000000,,,,0.000000,4.000000,4.000000,4.000000,4.000000,4.000000,2.000000,4.000000,4.000000,4.000000,4.000000,4.000000,4.000000,4.000000,4.000000,83.333336,,,,,,,,,,,,,,,,,,,,,,,,,,,,,,,,,,,,,,,,,,,,,,,
1665608221.360125,1665608221.360259,74.000000,0.000000,4252.563965,4214.102539,4271.922852,4262.820313,4271.794922,4292.436035,4301.666504,4323.333496,4298.461426,4280.128418,4464.871582,4446.538574,4371.282227,4399.743652,2665.000000,4.000000,91.000000,,,,0.000000,4.000000,4.000000,4.000000,4.000000,4.000000,2.000000,4.000000,4.000000,4.000000,4.000000,4.000000,4.000000,4.000000,4.000000,83.333336,,,,,,,,,,,,,,,,,,,,,,,,,,,,,,,,,,,,,,,,,,,,,,,
1665608221.367933,1665608221.368167,75.000000,0.000000,4255.897461,4209.615234,4264.102539,4258.974121,4262.948730,4285.256348,4298.461426,4322.307617,4295.384766,4279.230957,4464.871582,4441.025879,4373.846191,4403.461426,2718.000000,4.000000,91.000000,,,,0.000000,4.000000,4.000000,4.000000,4.000000,4.000000,2.000000,4.000000,4.000000,4.000000,4.000000,4.000000,4.000000,4.000000,4.000000,83.333336,,,,,,,,,,,,,,,,,,,,,,,,,,,,,,,,,,,,,,,,,,,,,,,
1665608221.375742,1665608221.375976,76.000000,0.000000,4268.205078,4215.897461,4267.307617,4261.282227,4262.051270,4285.897461,4297.051270,4322.820313,4307.563965,4283.077148,4473.333496,4447.436035,4382.692383,4415.897461,2546.000000,4.000000,91.000000,,,,0.000000,4.000000,4.000000,4.000000,4.000000,4.000000,2.000000,4.000000,4.000000,4.000000,4.000000,4.000000,4.000000,4.000000,4.000000,83.333336,,,,,,,,,,,,,,,,,,,,,,,,,,,,,,,,,,,,,,,,,,,,,,,
1665608221.383550,1665608221.383784,77.000000,0.000000,4263.846191,4212.563965,4275.384766,4257.307617,4263.974121,4296.153809,4300.000000,4323.077148,4307.563965,4285.128418,4471.025879,4449.743652,4378.717773,4414.487305,2261.000000,4.000000,91.000000,,,,0.000000,4.000000,4.000000,4.000000,4.000000,4.000000,2.000000,4.000000,4.000000,4.000000,4.000000,4.000000,4.000000,4.000000,4.000000,83.333336,,,,,,,,,,,,,,,,,,,,,,,,,,,,,,,,,,,,,,,,,,,,,,,
1665608221.391358,1665608221.391493,78.000000,0.000000,4253.077148,4204.230957,4271.282227,4247.948730,4263.717773,4297.179688,4302.179688,4318.461426,4296.794922,4280.897461,4461.538574,4445.384766,4366.666504,4399.358887,2665.000000,4.000000,91.000000,,,,0.000000,4.000000,4.000000,4.000000,4.000000,4.000000,2.000000,4.000000,4.000000,4.000000,4.000000,4.000000,4.000000,4.000000,4.000000,83.333336,,,,,,,,,,,,,,,,,,,,,,,,,,,,,,,,,,,,,,,,,,,,,,,
1665608221.399167,1665608221.399401,79.000000,0.000000,4257.307617,4206.666504,4267.692383,4247.179688,4271.410156,4294.871582,4302.563965,4321.538574,4304.102539,4280.256348,4466.282227,4441.922852,4365.128418,4393.717773,2718.000000,4.000000,91.000000,,,,0.000000,4.000000,4.000000,4.000000,4.000000,4.000000,2.000000,4.000000,4.000000,4.000000,4.000000,4.000000,4.000000,4.000000,4.000000,83.333336,,,,,,,,,,,,,,,,,,,,,,,,,,,,,,,,,,,,,,,,,,,,,,,
1665608221.406975,1665608221.407209,80.000000,0.000000,4261.025879,4205.256348,4269.743652,4253.589844,4277.436035,4296.666504,4302.948730,4325.256348,4309.743652,4281.666504,4466.666504,4436.410156,4366.538574,4397.948730,2546.000000,4.000000,91.000000,,,,0.000000,4.000000,4.000000,4.000000,4.000000,4.000000,2.000000,4.000000,4.000000,4.000000,4.000000,4.000000,4.000000,4.000000,4.000000,83.333336,,,,,,,,,,,,,,,,,,,,,,,,,,,,,,,,,,,,,,,,,,,,,,,
1665608221.414783,1665608221.415118,81.000000,0.000000,4250.384766,4202.179688,4263.461426,4248.205078,4268.589844,4295.128418,4296.666504,4313.333496,4294.871582,4277.820313,4452.436035,4428.077148,4357.436035,4392.948730,2261.000000,4.000000,91.000000,,,,0.000000,4.000000,4.000000,4.000000,4.000000,4.000000,2.000000,4.000000,4.000000,4.000000,4.000000,4.000000,4.000000,4.000000,4.000000,83.333336,,,,,,,,,,,,,,,,,,,,,,,,,,,,,,,,,,,,,,,,,,,,,,,
1665608221.422592,1665608221.422926,82.000000,0.000000,4245.897461,4211.794922,4257.692383,4242.436035,4262.436035,4289.743652,4293.717773,4308.846191,4290.641113,4274.358887,4455.000000,4424.743652,4349.230957,4383.717773,2665.000000,4.000000,91.000000,,,,0.000000,4.000000,4.000000,4.000000,4.000000,4.000000,2.000000,4.000000,4.000000,4.000000,4.000000,4.000000,4.000000,4.000000,4.000000,83.333336,,,,,,,,,,,,,,,,,,,,,,,,,,,,,,,,,,,,,,,,,,,,,,,
1665608221.430400,1665608221.430835,83.000000,0.000000,4253.717773,4218.333496,4262.820313,4251.538574,4267.948730,4282.692383,4293.077148,4312.692383,4294.615234,4268.077148,4460.769043,4426.282227,4347.948730,4385.384766,2718.000000,4.000000,91.000000,,,,0.000000,4.000000,4.000000,4.000000,4.000000,4.000000,2.000000,4.000000,4.000000,4.000000,4.000000,4.000000,4.000000,4.000000,4.000000,83.333336,,,,,,,,,,,,,,,,,,,,,,,,,,,,,,,,,,,,,,,,,,,,,,,
1665608221.438209,1665608221.438643,84.000000,0.000000,4258.333496,4220.128418,4265.000000,4263.077148,4273.205078,4278.717773,4283.077148,4300.256348,4282.948730,4261.153809,4448.717773,4426.410156,4350.000000,4389.358887,2546.000000,4.000000,91.000000,,,,0.000000,4.000000,4.000000,4.000000,4.000000,4.000000,2.000000,4.000000,4.000000,4.000000,4.000000,4.000000,4.000000,4.000000,4.000000,83.333336,,,,,,,,,,,,,,,,,,,,,,,,,,,,,,,,,,,,,,,,,,,,,,,
1665608221.446017,1665608221.446551,85.000000,0.000000,4257.692383,4230.128418,4262.820313,4266.282227,4275.128418,4285.000000,4278.205078,4296.794922,4278.205078,4262.563965,4450.897461,4426.282227,4350.769043,4388.461426,2261.000000,4.000000,91.000000,,,,0.000000,4.000000,4.000000,4.000000,4.000000,4.000000,2.000000,4.000000,4.000000,4.000000,4.000000,4.000000,4.000000,4.000000,4.000000,83.333336,,,,,,,,,,,,,,,,,,,,,,,,,,,,,,,,,,,,,,,,,,,,,,,
1665608221.453825,1665608221.454460,86.000000,0.000000,4256.666504,4232.307617,4259.487305,4261.538574,4273.717773,4291.025879,4281.538574,4305.512695,4288.461426,4262.051270,4458.077148,4427.436035,4347.179688,4385.256348,2665.000000,4.000000,91.000000,,,,0.000000,4.000000,4.000000,4.000000,4.000000,4.000000,2.000000,4.000000,4.000000,4.000000,4.000000,4.000000,4.000000,4.000000,4.000000,83.333336,,,,,,,,,,,,,,,,,,,,,,,,,,,,,,,,,,,,,,,,,,,,,,,
1665608221.461634,1665608221.462268,87.000000,0.000000,4260.769043,4227.436035,4262.692383,4260.128418,4275.384766,4292.820313,4281.666504,4305.256348,4294.871582,4268.461426,4457.948730,4437.948730,4354.102539,4390.128418,2718.000000,4.000000,91.000000,,,,0.000000,4.000000,4.000000,4.000000,4.000000,4.000000,2.000000,4.000000,4.000000,4.000000,4.000000,4.000000,4.000000,4.000000,4.000000,83.333336,,,,,,,,,,,,,,,,,,,,,,,,,,,,,,,,,,,,,,,,,,,,,,,
1665608221.469442,1665608221.470077,88.000000,0.000000,4270.897461,4232.436035,4273.717773,4264.615234,4278.333496,4294.358887,4278.589844,4306.666504,4296.282227,4280.512695,4469.102539,4454.871582,4369.487305,4403.461426,2546.000000,4.000000,91.000000,,,,0.000000,4.000000,4.000000,4.000000,4.000000,4.000000,2.000000,4.000000,4.000000,4.000000,4.000000,4.000000,4.000000,4.000000,4.000000,83.333336,,,,,,,,,,,,,,,,,,,,,,,,,,,,,,,,,,,,,,,,,,,,,,,
1665608221.477250,1665608221.477985,89.000000,0.000000,4267.820313,4233.077148,4275.384766,4264.358887,4270.897461,4293.589844,4279.871582,4309.615234,4294.102539,4274.102539,4471.153809,4461.282227,4366.666504,4402.692383,2261.000000,4.000000,91.000000,,,,0.000000,4.000000,4.000000,4.000000,4.000000,4.000000,2.000000,4.000000,4.000000,4.000000,4.000000,4.000000,4.000000,4.000000,4.000000,83.333336,,,,,,,,,,,,,,,,,,,,,,,,,,,,,,,,,,,,,,,,,,,,,,,
1665608221.485059,1665608221.485793,90.000000,0.000000,4261.538574,4227.820313,4270.769043,4259.871582,4264.871582,4292.820313,4283.846191,4305.897461,4292.051270,4264.102539,4456.538574,4461.410156,4356.666504,4392.692383,2665.000000,4.000000,91.000000,,,,0.000000,4.000000,4.000000,4.000000,4.000000,4.000000,2.000000,4.000000,4.000000,4.000000,4.000000,4.000000,4.000000,4.000000,4.000000,83.333336,,,,,,,,,,,,,,,,,,,,,,,,,,,,,,,,,,,,,,,,,,,,,,,
1665608221.492867,1665608221.493502,91.000000,0.000000,4270.128418,4238.333496,4279.102539,4266.410156,4274.230957,4294.615234,4292.307617,4311.410156,4300.000000,4276.410156,4467.307617,4479.871582,4371.410156,4407.307617,2718.000000,4.000000,91.000000,,,,0.000000,4.000000,4.000000,4.000000,4.000000,4.000000,2.000000,4.000000,4.000000,4.000000,4.000000,4.000000,4.000000,4.000000,4.000000,83.333336,,,,,,,,,,,,,,,,,,,,,,,,,,,,,,,,,,,,,,,,,,,,,,,
1665608221.500676,1665608221.501310,92.000000,0.000000,4281.153809,4251.794922,4293.205078,4277.692383,4283.333496,4297.820313,4309.230957,4328.846191,4312.563965,4294.743652,4491.282227,4506.666504,4390.128418,4429.871582,2546.000000,4.000000,91.000000,,,,0.000000,4.000000,4.000000,4.000000,4.000000,4.000000,2.000000,4.000000,4.000000,4.000000,4.000000,4.000000,4.000000,4.000000,4.000000,83.333336,,,,,,,,,,,,,,,,,,,,,,,,,,,,,,,,,,,,,,,,,,,,,,,
1665608221.508484,1665608221.509019,93.000000,0.000000,4282.820313,4251.410156,4295.641113,4279.871582,4282.563965,4299.102539,4312.948730,4331.922852,4315.897461,4296.538574,4485.897461,4510.897461,4386.153809,4427.307617,2261.000000,4.000000,91.000000,,,,0.000000,4.000000,4.000000,4.000000,4.000000,4.000000,2.000000,4.000000,4.000000,4.000000,4.000000,4.000000,4.000000,4.000000,4.000000,83.333336,,,,,,,,,,,,,,,,,,,,,,,,,,,,,,,,,,,,,,,,,,,,,,,
1665608221.516292,1665608221.516827,94.000000,0.000000,4281.794922,4252.820313,4290.641113,4278.974121,4282.436035,4297.820313,4301.282227,4320.384766,4309.615234,4287.948730,4473.205078,4504.230957,4381.410156,4417.436035,2665.000000,4.000000,91.000000,,,,0.000000,4.000000,4.000000,4.000000,4.000000,4.000000,2.000000,4.000000,4.000000,4.000000,4.000000,4.000000,4.000000,4.000000,4.000000,83.333336,,,,,,,,,,,,,,,,,,,,,,,,,,,,,,,,,,,,,,,,,,,,,,,
1665608221.524101,1665608221.524536,95.000000,0.000000,4277.692383,4255.769043,4285.641113,4273.717773,4282.179688,4298.846191,4294.871582,4313.846191,4304.615234,4282.179688,4476.025879,4506.794922,4385.641113,4416.538574,2718.000000,4.000000,91.000000,,,,0.000000,4.000000,4.000000,4.000000,4.000000,4.000000,2.000000,4.000000,4.000000,4.000000,4.000000,4.000000,4.000000,4.000000,4.000000,83.333336,,,,,,,,,,,,,,,,,,,,,,,,,,,,,,,,,,,,,,,,,,,,,,,
1665608221.531909,1665608221.532344,96.000000,0.000000,4272.563965,4252.051270,4280.641113,4266.153809,4278.717773,4295.000000,4288.461426,4307.563965,4296.025879,4278.333496,4470.769043,4503.333496,4381.794922,4410.897461,2546.000000,4.000000,91.000000,,,,0.000000,4.000000,4.000000,4.000000,4.000000,4.000000,2.000000,4.000000,4.000000,4.000000,4.000000,4.000000,4.000000,4.000000,4.000000,83.333336,,,,,,,,,,,,,,,,,,,,,,,,,,,,,,,,,,,,,,,,,,,,,,,
