title:Psychopy_cris_classical_eo_h_2022-10-12T140512.168159, start timestamp:1665608712.087110, stop timestamp:1665608773.109560, headset type:EPOCX, headset serial:E2020A42, headset firmware:720, channels:86, sampling rate:eeg_128;pm_2, samples:7816      , version:2.1, 
Timestamp,OriginalTimestamp,EEG.Counter,EEG.Interpolated,EEG.AF3,EEG.F7,EEG.F3,EEG.FC5,EEG.T7,EEG.P7,EEG.O1,EEG.O2,EEG.P8,EEG.T8,EEG.FC6,EEG.F4,EEG.F8,EEG.AF4,EEG.RawCq,EEG.Battery,EEG.BatteryPercent,MarkerIndex,MarkerType,MarkerValueInt,EEG.MarkerHardware,CQ.AF3,CQ.F7,CQ.F3,CQ.FC5,CQ.T7,CQ.P7,CQ.O1,CQ.O2,CQ.P8,CQ.T8,CQ.FC6,CQ.F4,CQ.F8,CQ.AF4,CQ.Overall,EQ.SampleRateQuality,EQ.OVERALL,EQ.AF3,EQ.F7,EQ.F3,EQ.FC5,EQ.T7,EQ.P7,EQ.O1,EQ.O2,EQ.P8,EQ.T8,EQ.FC6,EQ.F4,EQ.F8,EQ.AF4,PM.Engagement.IsActive,PM.Engagement.Scaled,PM.Engagement.Raw,PM.Engagement.Min,PM.Engagement.Max,PM.Excitement.IsActive,PM.Excitement.Scaled,PM.Excitement.Raw,PM.Excitement.Min,PM.Excitement.Max,PM.LongTermExcitement,PM.Stress.IsActive,PM.Stress.Scaled,PM.Stress.Raw,PM.Stress.Min,PM.Stress.Max,PM.Relaxation.IsActive,PM.Relaxation.Scaled,PM.Relaxation.Raw,PM.Relaxation.Min,PM.Relaxation.Max,PM.Interest.IsActive,PM.Interest.Scaled,PM.Interest.Raw,PM.Interest.Min,PM.Interest.Max,PM.Focus.IsActive,PM.Focus.Scaled,PM.Focus.Raw,PM.Focus.Min,PM.Focus.Max
1665608712.087110,1665608712.087541,72.000000,0.000000,4270.897461,4263.333496,4270.384766,4285.641113,4267.692383,4277.179688,4277.179688,4300.512695,4281.025879,4260.128418,4458.205078,4423.461426,4343.589844,4402.820313,2413.000000,4.000000,90.000000,,,,0.000000,4.000000,4.000000,4.000000,4.000000,4.000000,4.000000,4.000000,4.000000,4.000000,4.000000,4.000000,4.000000,4.000000,4.000000,100.000000,,,,,,,,,,,,,,,,,,,,,,,,,,,,,,,,,,,,,,,,,,,,,,,
1665608712.094918,1665608712.095449,73.000000,0.000000,4277.948730,4269.358887,4271.025879,4291.153809,4265.512695,4272.436035,4258.589844,4286.538574,4281.794922,4257.948730,4455.641113,4417.051270,4343.974121,4406.922852,2378.000000,4.000000,90.000000,,,,0.000000,4.000000,4.000000,4.000000,4.000000,4.000000,4.000000,4.000000,4.000000,4.000000,4.000000,4.000000,4.000000,4.000000,4.000000,100.000000,,,,,,,,,,,,,,,,,,,,,,,,,,,,,,,,,,,,,,,,,,,,,,,
1665608712.102727,1665608712.103257,74.000000,0.000000,4257.307617,4254.487305,4252.692383,4264.358887,4251.153809,4256.922852,4249.615234,4262.436035,4253.846191,4233.717773,4429.871582,4400.769043,4326.153809,4380.128418,2708.000000,4.000000,90.000000,,,,0.000000,4.000000,4.000000,4.000000,4.000000,4.000000,4.000000,4.000000,4.000000,4.000000,4.000000,4.000000,4.000000,4.000000,4.000000,100.000000,,,,,,,,,,,,,,,,,,,,,,,,,,,,,,,,,,,,,,,,,,,,,,,
1665608712.110535,1665608712.111166,75.000000,0.000000,4242.948730,4243.589844,4239.358887,4245.128418,4238.589844,4261.666504,4261.025879,4259.230957,4237.179688,4225.000000,4421.025879,4394.743652,4321.025879,4367.563965,2740.000000,4.000000,90.000000,,,,0.000000,4.000000,4.000000,4.000000,4.000000,4.000000,4.000000,4.000000,4.000000,4.000000,4.000000,4.000000,4.000000,4.000000,4.000000,100.000000,,,,,,,,,,,,,,,,,,,,,,,,,,,,,,,,,,,,,,,,,,,,,,,
1665608712.118343,1665608712.118974,76.000000,0.000000,4249.102539,4244.358887,4243.461426,4250.897461,4234.743652,4273.846191,4265.256348,4271.282227,4248.205078,4241.282227,4430.769043,4397.692383,4329.871582,4375.128418,2545.000000,4.000000,90.000000,,,,0.000000,4.000000,4.000000,4.000000,4.000000,4.000000,4.000000,4.000000,4.000000,4.000000,4.000000,4.000000,4.000000,4.000000,4.000000,100.000000,,,,,,,,,,,,,,,,,,,,,,,,,,,,,,,,,,,,,,,,,,,,,,,
1665608712.126152,1665608712.126883,77.000000,0.000000,4262.051270,4248.589844,4253.589844,4261.666504,4242.179688,4273.717773,4261.922852,4282.692383,4271.922852,4253.077148,4441.538574,4405.000000,4334.871582,4383.461426,2115.000000,4.000000,90.000000,,,,0.000000,4.000000,4.000000,4.000000,4.000000,4.000000,4.000000,4.000000,4.000000,4.000000,4.000000,4.000000,4.000000,4.000000,4.000000,100.000000,,,,,,,,,,,,,,,,,,,,,,,,,,,,,,,,,,,,,,,,,,,,,,,
1665608712.133960,1665608712.134691,78.000000,0.000000,4263.846191,4249.358887,4252.563965,4263.077148,4251.410156,4268.974121,4263.205078,4285.256348,4273.077148,4248.974121,4437.436035,4406.922852,4328.077148,4383.589844,2708.000000,4.000000,90.000000,,,,0.000000,4.000000,4.000000,4.000000,4.000000,4.000000,4.000000,4.000000,4.000000,4.000000,4.000000,4.000000,4.000000,4.000000,4.000000,100.000000,,,,,,,,,,,,,,,,,,,,,,,,,,,,,,,,,,,,,,,,,,,,,,,
1665608712.141769,1665608712.142599,79.000000,0.000000,4260.384766,4250.384766,4248.717773,4264.230957,4258.717773,4268.846191,4264.615234,4283.333496,4259.358887,4248.333496,4428.461426,4408.461426,4326.153809,4381.666504,2740.000000,4.000000,90.000000,,,,0.000000,4.000000,4.000000,4.000000,4.000000,4.000000,4.000000,4.000000,4.000000,4.000000,4.000000,4.000000,4.000000,4.000000,4.000000,100.000000,,,,,,,,,,,,,,,,,,,,,,,,,,,,,,,,,,,,,,,,,,,,,,,
1665608712.149577,1665608712.150408,80.000000,0.000000,4264.743652,4251.153809,4252.563965,4269.230957,4261.666504,4271.794922,4261.538574,4281.282227,4260.384766,4246.922852,4428.589844,4406.410156,4329.615234,4379.230957,2545.000000,4.000000,90.000000,,,,0.000000,4.000000,4.000000,4.000000,4.000000,4.000000,4.000000,4.000000,4.000000,4.000000,4.000000,4.000000,4.000000,4.000000,4.000000,100.000000,,,,,,,,,,,,,,,,,,,,,,,,,,,,,,,,,,,,,,,,,,,,,,,
1665608712.157385,1665608712.158116,81.000000,0.000000,4261.922852,4248.589844,4249.230957,4262.436035,4254.487305,4274.871582,4258.846191,4280.256348,4266.410156,4238.333496,4430.512695,4400.256348,4323.333496,4374.230957,2115.000000,4.000000,90.000000,,,,0.000000,4.000000,4.000000,4.000000,4.000000,4.000000,4.000000,4.000000,4.000000,4.000000,4.000000,4.000000,4.000000,4.000000,4.000000,100.000000,,,,,,,,,,,,,,,,,,,,,,,,,,,,,,,,,,,,,,,,,,,,,,,
1665608712.165194,1665608712.165925,82.000000,0.000000,4253.589844,4248.205078,4239.358887,4250.897461,4252.179688,4270.384766,4260.256348,4280.000000,4260.256348,4239.487305,4428.974121,4398.077148,4317.948730,4368.717773,2708.000000,4.000000,90.000000,,,,0.000000,4.000000,4.000000,4.000000,4.000000,4.000000,4.000000,4.000000,4.000000,4.000000,4.000000,4.000000,4.000000,4.000000,4.000000,100.000000,,,,,,,,,,,,,,,,,,,,,,,,,,,,,,,,,,,,,,,,,,,,,,,
1665608712.173002,1665608712.173633,83.000000,0.000000,4255.641113,4251.922852,4240.769043,4255.897461,4265.769043,4265.384766,4262.820313,4277.948730,4260.128418,4243.333496,4430.384766,4401.410156,4327.307617,4368.205078,2740.000000,4.000000,90.000000,,,,0.000000,4.000000,4.000000,4.000000,4.000000,4.000000,4.000000,4.000000,4.000000,4.000000,4.000000,4.000000,4.000000,4.000000,4.000000,100.000000,,,,,,,,,,,,,,,,,,,,,,,,,,,,,,,,,,,,,,,,,,,,,,,
1665608712.180811,1665608712.181542,84.000000,0.000000,4257.692383,4252.179688,4242.307617,4258.077148,4265.769043,4271.025879,4257.563965,4268.717773,4261.153809,4235.641113,4427.179688,4395.769043,4327.692383,4366.153809,2545.000000,4.000000,90.000000,,,,0.000000,4.000000,4.000000,4.000000,4.000000,4.000000,4.000000,4.000000,4.000000,4.000000,4.000000,4.000000,4.000000,4.000000,4.000000,100.000000,,,,,,,,,,,,,,,,,,,,,,,,,,,,,,,,,,,,,,,,,,,,,,,
1665608712.188619,1665608712.189350,85.000000,0.000000,4258.333496,4248.205078,4241.794922,4248.461426,4247.563965,4275.641113,4248.461426,4259.743652,4249.871582,4234.358887,4420.256348,4387.563965,4315.897461,4361.410156,2115.000000,4.000000,90.000000,,,,0.000000,4.000000,4.000000,4.000000,4.000000,4.000000,4.000000,4.000000,4.000000,4.000000,4.000000,4.000000,4.000000,4.000000,4.000000,100.000000,,,,,,,,,,,,,,,,,,,,,,,,,,,,,,,,,,,,,,,,,,,,,,,
1665608712.196427,1665608712.197159,86.000000,0.000000,4259.871582,4246.282227,4244.871582,4243.846191,4246.666504,4267.179688,4242.820313,4260.384766,4244.743652,4235.641113,4416.025879,4388.333496,4312.179688,4362.179688,2708.000000,4.000000,90.000000,,,,0.000000,4.000000,4.000000,4.000000,4.000000,4.000000,4.000000,4.000000,4.000000,4.000000,4.000000,4.000000,4.000000,4.000000,4.000000,100.000000,,,,,,,,,,,,,,,,,,,,,,,,,,,,,,,,,,,,,,,,,,,,,,,
1665608712.204236,1665608712.204867,87.000000,0.000000,4258.461426,4244.615234,4246.666504,4250.256348,4260.384766,4265.769043,4250.641113,4270.769043,4251.282227,4231.025879,4417.179688,4392.820313,4317.820313,4367.820313,2740.000000,4.000000,90.000000,,,,0.000000,4.000000,4.000000,4.000000,4.000000,4.000000,4.000000,4.000000,4.000000,4.000000,4.000000,4.000000,4.000000,4.000000,4.000000,100.000000,,,,,,,,,,,,,,,,,,,,,,,,,,,,,,,,,,,,,,,,,,,,,,,
1665608712.212044,1665608712.212676,88.000000,0.000000,4264.102539,4248.974121,4252.820313,4258.077148,4265.384766,4274.871582,4269.615234,4287.179688,4270.512695,4251.025879,4434.743652,4404.102539,4335.000000,4380.512695,2545.000000,4.000000,90.000000,,,,0.000000,4.000000,4.000000,4.000000,4.000000,4.000000,4.000000,4.000000,4.000000,4.000000,4.000000,4.000000,4.000000,4.000000,4.000000,100.000000,,,,,,,,,,,,,,,,,,,,,,,,,,,,,,,,,,,,,,,,,,,,,,,
1665608712.219852,1665608712.220384,89.000000,0.000000,4274.358887,4252.179688,4258.461426,4258.974121,4264.743652,4275.512695,4277.820313,4294.358887,4284.230957,4275.256348,4446.025879,4411.410156,4346.153809,4389.230957,2115.000000,4.000000,90.000000,,,,0.000000,4.000000,4.000000,4.000000,4.000000,4.000000,4.000000,4.000000,4.000000,4.000000,4.000000,4.000000,4.000000,4.000000,4.000000,100.000000,,,,,,,,,,,,,,,,,,,,,,,,,,,,,,,,,,,,,,,,,,,,,,,
1665608712.227661,1665608712.228193,90.000000,0.000000,4260.512695,4237.563965,4243.717773,4246.410156,4263.077148,4271.794922,4265.641113,4279.487305,4268.333496,4253.077148,4425.000000,4396.153809,4323.205078,4372.820313,2708.000000,4.000000,90.000000,,,,0.000000,4.000000,4.000000,4.000000,4.000000,4.000000,4.000000,4.000000,4.000000,4.000000,4.000000,4.000000,4.000000,4.000000,4.000000,100.000000,,,,,,,,,,,,,,,,,,,,,,,,,,,,,,,,,,,,,,,,,,,,,,,
1665608712.235469,1665608712.235901,91.000000,0.000000,4244.102539,4231.794922,4230.384766,4240.641113,4258.846191,4268.974121,4252.436035,4264.487305,4251.153809,4229.230957,4412.820313,4382.692383,4303.333496,4357.051270,2740.000000,4.000000,90.000000,,,,0.000000,4.000000,4.000000,4.000000,4.000000,4.000000,4.000000,4.000000,4.000000,4.000000,4.000000,4.000000,4.000000,4.000000,4.000000,100.000000,,,,,,,,,,,,,,,,,,,,,,,,,,,,,,,,,,,,,,,,,,,,,,,
1665608712.243277,1665608712.243710,92.000000,0.000000,4259.230957,4254.615234,4244.487305,4258.717773,4263.717773,4268.846191,4259.871582,4276.025879,4258.846191,4241.410156,4434.358887,4395.256348,4322.563965,4372.948730,2545.000000,4.000000,90.000000,,,,0.000000,4.000000,4.000000,4.000000,4.000000,4.000000,4.000000,4.000000,4.000000,4.000000,4.000000,4.000000,4.000000,4.000000,4.000000,100.000000,,,,,,,,,,,,,,,,,,,,,,,,,,,,,,,,,,,,,,,,,,,,,,,
1665608712.251086,1665608712.251418,93.000000,0.000000,4270.128418,4267.436035,4254.487305,4267.563965,4273.717773,4276.282227,4276.922852,4298.589844,4271.282227,4250.512695,4443.846191,4407.563965,4336.282227,4386.538574,2115.000000,4.000000,90.000000,,,,0.000000,4.000000,4.000000,4.000000,4.000000,4.000000,4.000000,4.000000,4.000000,4.000000,4.000000,4.000000,4.000000,4.000000,4.000000,100.000000,,,,,,,,,,,,,,,,,,,,,,,,,,,,,,,,,,,,,,,,,,,,,,,
1665608712.258894,1665608712.259227,94.000000,0.000000,4261.282227,4261.538574,4250.512695,4264.358887,4276.922852,4284.743652,4282.436035,4301.153809,4276.025879,4246.538574,4438.846191,4406.538574,4328.717773,4381.025879,2708.000000,4.000000,90.000000,,,,0.000000,4.000000,4.000000,4.000000,4.000000,4.000000,4.000000,4.000000,4.000000,4.000000,4.000000,4.000000,4.000000,4.000000,4.000000,100.000000,,,,,,,,,,,,,,,,,,,,,,,,,,,,,,,,,,,,,,,,,,,,,,,
1665608712.266703,1665608712.266935,95.000000,0.000000,4263.077148,4264.102539,4254.871582,4274.102539,4280.641113,4274.487305,4268.333496,4281.538574,4267.436035,4246.666504,4443.846191,4405.128418,4335.641113,4382.563965,2740.000000,4.000000,90.000000,,,,0.000000,4.000000,4.000000,4.000000,4.000000,4.000000,4.000000,4.000000,4.000000,4.000000,4.000000,4.000000,4.000000,4.000000,4.000000,100.000000,,,,,,,,,,,,,,,,,,,,,,,,,,,,,,,,,,,,,,,,,,,,,,,
1665608712.274511,1665608712.274844,96.000000,0.000000,4273.333496,4266.153809,4259.358887,4278.717773,4274.487305,4259.487305,4250.384766,4269.487305,4256.153809,4249.487305,4445.897461,4404.871582,4345.512695,4388.333496,2545.000000,4.000000,90.000000,,,,0.000000,4.000000,4.000000,4.000000,4.000000,4.000000,4.000000,4.000000,4.000000,4.000000,4.000000,4.000000,4.000000,4.000000,4.000000,100.000000,,,,,,,,,,,,,,,,,,,,,,,,,,,,,,,,,,,,,,,,,,,,,,,
1665608712.282319,1665608712.282652,97.000000,0.000000,4271.025879,4258.589844,4255.128418,4267.436035,4260.769043,4262.307617,4255.000000,4285.256348,4277.692383,4257.948730,4448.077148,4407.179688,4344.102539,4391.410156,2115.000000,4.000000,90.000000,,,,0.000000,4.000000,4.000000,4.000000,4.000000,4.000000,4.000000,4.000000,4.000000,4.000000,4.000000,4.000000,4.000000,4.000000,4.000000,100.000000,,,,,,,,,,,,,,,,,,,,,,,,,,,,,,,,,,,,,,,,,,,,,,,
1665608712.290128,1665608712.290560,98.000000,0.000000,4269.743652,4260.384766,4262.051270,4267.692383,4270.641113,4271.153809,4273.589844,4304.743652,4301.794922,4267.051270,4456.666504,4417.436035,4347.563965,4401.153809,2708.000000,4.000000,90.000000,,,,0.000000,4.000000,4.000000,4.000000,4.000000,4.000000,4.000000,4.000000,4.000000,4.000000,4.000000,4.000000,4.000000,4.000000,4.000000,100.000000,,,,,,,,,,,,,,,,,,,,,,,,,,,,,,,,,,,,,,,,,,,,,,,
1665608712.297936,1665608712.298369,99.000000,0.000000,4279.230957,4269.487305,4273.589844,4277.307617,4287.820313,4278.974121,4280.897461,4302.307617,4288.077148,4264.615234,4458.974121,4422.051270,4353.717773,4407.436035,2740.000000,4.000000,90.000000,,,,0.000000,4.000000,4.000000,4.000000,4.000000,4.000000,4.000000,4.000000,4.000000,4.000000,4.000000,4.000000,4.000000,4.000000,4.000000,100.000000,,,,,,,,,,,,,,,,,,,,,,,,,,,,,,,,,,,,,,,,,,,,,,,
1665608712.305745,1665608712.306277,100.000000,0.000000,4281.153809,4269.230957,4269.615234,4267.948730,4282.051270,4288.205078,4277.948730,4294.615234,4274.871582,4261.794922,4455.641113,4417.307617,4353.333496,4402.051270,2545.000000,4.000000,90.000000,,,,0.000000,4.000000,4.000000,4.000000,4.000000,4.000000,4.000000,4.000000,4.000000,4.000000,4.000000,4.000000,4.000000,4.000000,4.000000,100.000000,,,,,,,,,,,,,,,,,,,,,,,,,,,,,,,,,,,,,,,,,,,,,,,
1665608712.313553,1665608712.314086,101.000000,0.000000,4269.615234,4260.384766,4258.461426,4256.666504,4271.538574,4287.436035,4277.948730,4297.436035,4282.820313,4263.461426,4450.512695,4412.820313,4345.384766,4394.615234,2115.000000,4.000000,90.000000,,,,0.000000,4.000000,4.000000,4.000000,4.000000,4.000000,4.000000,4.000000,4.000000,4.000000,4.000000,4.000000,4.000000,4.000000,4.000000,100.000000,,,,,,,,,,,,,,,,,,,,,,,,,,,,,,,,,,,,,,,,,,,,,,,
1665608712.321361,1665608712.321994,102.000000,0.000000,4271.153809,4263.205078,4264.102539,4268.077148,4275.897461,4280.256348,4282.307617,4298.846191,4284.615234,4266.538574,4451.666504,4417.051270,4342.820313,4400.769043,2708.000000,4.000000,90.000000,,,,0.000000,4.000000,4.000000,4.000000,4.000000,4.000000,4.000000,4.000000,4.000000,4.000000,4.000000,4.000000,4.000000,4.000000,4.000000,100.000000,,,,,,,,,,,,,,,,,,,,,,,,,,,,,,,,,,,,,,,,,,,,,,,
1665608712.329170,1665608712.329802,103.000000,0.000000,4288.846191,4278.461426,4283.077148,4282.051270,4284.615234,4283.333496,4288.461426,4304.487305,4291.410156,4276.794922,4463.589844,4426.922852,4358.974121,4420.128418,2740.000000,4.000000,90.000000,,,,0.000000,4.000000,4.000000,4.000000,4.000000,4.000000,4.000000,4.000000,4.000000,4.000000,4.000000,4.000000,4.000000,4.000000,4.000000,100.000000,,,,,,,,,,,,,,,,,,,,,,,,,,,,,,,,,,,,,,,,,,,,,,,
1665608712.336978,1665608712.337611,104.000000,0.000000,4297.051270,4282.436035,4286.153809,4284.102539,4288.589844,4289.487305,4291.282227,4313.974121,4306.666504,4283.461426,4469.358887,4429.487305,4371.922852,4427.692383,2545.000000,4.000000,90.000000,,,,0.000000,4.000000,4.000000,4.000000,4.000000,4.000000,4.000000,4.000000,4.000000,4.000000,4.000000,4.000000,4.000000,4.000000,4.000000,100.000000,,,,,,,,,,,,,,,,,,,,,,,,,,,,,,,,,,,,,,,,,,,,,,,
1665608712.344787,1665608712.345419,105.000000,0.000000,4295.000000,4279.230957,4281.794922,4288.077148,4291.666504,4295.641113,4293.205078,4315.256348,4298.461426,4279.743652,4469.358887,4428.333496,4368.717773,4420.000000,2115.000000,4.000000,90.000000,,,,0.000000,4.000000,4.000000,4.000000,4.000000,4.000000,4.000000,4.000000,4.000000,4.000000,4.000000,4.000000,4.000000,4.000000,4.000000,100.000000,,,,,,,,,,,,,,,,,,,,,,,,,,,,,,,,,,,,,,,,,,,,,,,
1665608712.352595,1665608712.353128,106.000000,0.000000,4289.615234,4283.205078,4283.205078,4288.717773,4295.512695,4297.563965,4288.333496,4303.974121,4280.769043,4268.461426,4468.333496,4425.897461,4362.563965,4415.641113,2708.000000,4.000000,90.000000,,,,0.000000,4.000000,4.000000,4.000000,4.000000,4.000000,4.000000,4.000000,4.000000,4.000000,4.000000,4.000000,4.000000,4.000000,4.000000,100.000000,,,,,,,,,,,,,,,,,,,,,,,,,,,,,,,,,,,,,,,,,,,,,,,
1665608712.360403,1665608712.360936,107.000000,0.000000,4281.922852,4284.358887,4277.436035,4284.358887,4295.384766,4282.820313,4266.794922,4282.179688,4279.358887,4252.179688,4451.153809,4414.615234,4355.000000,4408.974121,2740.000000,4.000000,90.000000,,,,0.000000,4.000000,4.000000,4.000000,4.000000,4.000000,4.000000,4.000000,4.000000,4.000000,4.000000,4.000000,4.000000,4.000000,4.000000,100.000000,,,,,,,,,,,,,,,,,,,,,,,,,,,,,,,,,,,,,,,,,,,,,,,
1665608712.368212,1665608712.368645,108.000000,0.000000,4277.563965,4279.871582,4268.461426,4290.128418,4290.128418,4276.666504,4258.205078,4271.922852,4277.179688,4246.410156,4439.487305,4406.538574,4349.487305,4397.820313,2545.000000,4.000000,90.000000,,,,0.000000,4.000000,4.000000,4.000000,4.000000,4.000000,4.000000,4.000000,4.000000,4.000000,4.000000,4.000000,4.000000,4.000000,4.000000,100.000000,,,,,,,,,,,,,,,,,,,,,,,,,,,,,,,,,,,,,,,,,,,,,,,
1665608712.376020,1665608712.376453,109.000000,0.000000,4278.974121,4279.743652,4271.025879,4295.000000,4293.589844,4291.922852,4273.846191,4284.102539,4268.077148,4259.487305,4454.230957,4412.948730,4357.051270,4400.384766,2115.000000,4.000000,90.000000,,,,0.000000,4.000000,4.000000,4.000000,4.000000,4.000000,4.000000,4.000000,4.000000,4.000000,4.000000,4.000000,4.000000,4.000000,4.000000,100.000000,,,,,,,,,,,,,,,,,,,,,,,,,,,,,,,,,,,,,,,,,,,,,,,
1665608712.383828,1665608712.384162,110.000000,0.000000,4279.743652,4282.948730,4273.974121,4283.589844,4294.358887,4294.871582,4282.051270,4295.128418,4280.256348,4269.358887,4465.769043,4418.589844,4366.538574,4412.307617,2708.000000,4.000000,90.000000,,,,0.000000,4.000000,4.000000,4.000000,4.000000,4.000000,4.000000,4.000000,4.000000,4.000000,4.000000,4.000000,4.000000,4.000000,4.000000,100.000000,,,,,,,,,,,,,,,,,,,,,,,,,,,,,,,,,,,,,,,,,,,,,,,
1665608712.391637,1665608712.391970,111.000000,0.000000,4279.487305,4284.487305,4272.820313,4279.871582,4285.769043,4291.666504,4282.820313,4298.846191,4302.948730,4269.487305,4466.153809,4422.563965,4370.256348,4418.333496,2740.000000,4.000000,90.000000,,,,0.000000,4.000000,4.000000,4.000000,4.000000,4.000000,4.000000,4.000000,4.000000,4.000000,4.000000,4.000000,4.000000,4.000000,4.000000,100.000000,,,,,,,,,,,,,,,,,,,,,,,,,,,,,,,,,,,,,,,,,,,,,,,
1665608712.399445,1665608712.399679,112.000000,0.000000,4271.922852,4275.512695,4268.974121,4282.563965,4278.589844,4291.538574,4278.974121,4296.025879,4291.538574,4265.256348,4458.717773,4417.820313,4364.743652,4408.461426,2545.000000,4.000000,90.000000,,,,0.000000,4.000000,4.000000,4.000000,4.000000,4.000000,4.000000,4.000000,4.000000,4.000000,4.000000,4.000000,4.000000,4.000000,4.000000,100.000000,,,,,,,,,,,,,,,,,,,,,,,,,,,,,,,,,,,,,,,,,,,,,,,
1665608712.407253,1665608712.407487,113.000000,0.000000,4262.051270,4265.897461,4260.384766,4273.846191,4274.615234,4279.358887,4260.897461,4284.615234,4266.153809,4258.589844,4446.666504,4407.051270,4355.128418,4393.974121,2115.000000,4.000000,90.000000,,,,0.000000,4.000000,4.000000,4.000000,4.000000,4.000000,4.000000,4.000000,4.000000,4.000000,4.000000,4.000000,4.000000,4.000000,4.000000,100.000000,,,,,,,,,,,,,,,,,,,,,,,,,,,,,,,,,,,,,,,,,,,,,,,
1665608712.415062,1665608712.415196,114.000000,0.000000,4279.358887,4285.128418,4274.743652,4285.769043,4286.666504,4279.102539,4274.487305,4300.512695,4283.461426,4270.256348,4466.794922,4423.333496,4373.077148,4414.615234,2708.000000,4.000000,90.000000,,,,0.000000,4.000000,4.000000,4.000000,4.000000,4.000000,4.000000,4.000000,4.000000,4.000000,4.000000,4.000000,4.000000,4.000000,4.000000,100.000000,,,,,,,,,,,,,,,,,,,,,,,,,,,,,,,,,,,,,,,,,,,,,,,
1665608712.422870,1665608712.423004,115.000000,0.000000,4301.538574,4302.179688,4297.307617,4305.641113,4299.743652,4296.922852,4313.846191,4331.410156,4316.922852,4288.974121,4493.461426,4449.358887,4393.077148,4442.948730,2740.000000,4.000000,90.000000,,,,0.000000,4.000000,4.000000,4.000000,4.000000,4.000000,4.000000,4.000000,4.000000,4.000000,4.000000,4.000000,4.000000,4.000000,4.000000,100.000000,,,,,,,,,,,,,,,,,,,,,,,,,,,,,,,,,,,,,,,,,,,,,,,
1665608712.430678,1665608712.430713,116.000000,0.000000,4292.692383,4286.025879,4285.641113,4293.333496,4288.461426,4295.897461,4305.000000,4319.743652,4302.179688,4279.358887,4475.000000,4435.384766,4373.974121,4425.897461,2545.000000,4.000000,90.000000,,,,0.000000,4.000000,4.000000,4.000000,4.000000,4.000000,4.000000,4.000000,4.000000,4.000000,4.000000,4.000000,4.000000,4.000000,4.000000,100.000000,,,,,,,,,,,,,,,,,,,,,,,,,,,,,,,,,,,,,,,,,,,,,,,
1665608712.438487,1665608712.438521,117.000000,0.000000,4277.307617,4274.230957,4268.333496,4282.307617,4278.205078,4288.974121,4271.410156,4289.358887,4272.051270,4258.974121,4452.563965,4412.436035,4355.769043,4402.820313,2115.000000,4.000000,90.000000,,,,0.000000,4.000000,4.000000,4.000000,4.000000,4.000000,4.000000,4.000000,4.000000,4.000000,4.000000,4.000000,4.000000,4.000000,4.000000,100.000000,,,,,,,,,,,,,,,,,,,,,,,,,,,,,,,,,,,,,,,,,,,,,,,
1665608712.446295,1665608712.446230,118.000000,0.000000,4280.384766,4281.025879,4275.641113,4293.461426,4282.948730,4289.358887,4272.051270,4289.743652,4283.974121,4262.051270,4462.051270,4416.410156,4365.512695,4410.641113,2708.000000,4.000000,90.000000,,,,0.000000,4.000000,4.000000,4.000000,4.000000,4.000000,4.000000,4.000000,4.000000,4.000000,4.000000,4.000000,4.000000,4.000000,4.000000,100.000000,,,,,,,,,,,,,,,,,,,,,,,,,,,,,,,,,,,,,,,,,,,,,,,
1665608712.454104,1665608712.454138,119.000000,0.000000,4284.230957,4281.153809,4280.384766,4290.384766,4281.794922,4283.846191,4281.153809,4295.256348,4297.307617,4271.538574,4465.384766,4422.436035,4368.205078,4414.102539,2740.000000,4.000000,90.000000,,,,0.000000,4.000000,4.000000,4.000000,4.000000,4.000000,4.000000,4.000000,4.000000,4.000000,4.000000,4.000000,4.000000,4.000000,4.000000,100.000000,,,,,,,,,,,,,,,,,,,,,,,,,,,,,,,,,,,,,,,,,,,,,,,
1665608712.461912,1665608712.461947,120.000000,0.000000,4280.256348,4280.384766,4272.307617,4277.436035,4280.769043,4281.025879,4278.717773,4288.077148,4282.051270,4268.717773,4456.282227,4417.436035,4358.205078,4408.077148,2545.000000,4.000000,90.000000,,,,0.000000,4.000000,4.000000,4.000000,4.000000,4.000000,4.000000,4.000000,4.000000,4.000000,4.000000,4.000000,4.000000,4.000000,4.000000,100.000000,,,,,,,,,,,,,,,,,,,,,,,,,,,,,,,,,,,,,,,,,,,,,,,
1665608712.469720,1665608712.469855,121.000000,0.000000,4278.717773,4280.512695,4271.666504,4280.641113,4286.922852,4283.333496,4273.077148,4289.871582,4277.692383,4261.666504,4455.512695,4416.025879,4355.512695,4409.487305,2115.000000,4.000000,90.000000,,,,0.000000,4.000000,4.000000,4.000000,4.000000,4.000000,4.000000,4.000000,4.000000,4.000000,4.000000,4.000000,4.000000,4.000000,4.000000,100.000000,,,,,,,,,,,,,,,,,,,,,,,,,,,,,,,,,,,,,,,,,,,,,,,
1665608712.477529,1665608712.477663,122.000000,0.000000,4273.589844,4271.025879,4272.563965,4282.051270,4284.102539,4279.487305,4267.179688,4297.692383,4285.128418,4254.487305,4457.307617,4416.282227,4354.871582,4407.051270,2708.000000,4.000000,90.000000,,,,0.000000,4.000000,4.000000,4.000000,4.000000,4.000000,4.000000,4.000000,4.000000,4.000000,4.000000,4.000000,4.000000,4.000000,4.000000,100.000000,,,,,,,,,,,,,,,,,,,,,,,,,,,,,,,,,,,,,,,,,,,,,,,
1665608712.485337,1665608712.485572,123.000000,0.000000,4266.666504,4267.563965,4267.436035,4276.922852,4273.333496,4274.743652,4268.589844,4293.717773,4277.179688,4254.743652,4455.897461,4414.487305,4354.358887,4399.487305,2740.000000,4.000000,90.000000,,,,0.000000,4.000000,4.000000,4.000000,4.000000,4.000000,4.000000,4.000000,4.000000,4.000000,4.000000,4.000000,4.000000,4.000000,4.000000,100.000000,,,,,,,,,,,,,,,,,,,,,,,,,,,,,,,,,,,,,,,,,,,,,,,
1665608712.493146,1665608712.493380,124.000000,0.000000,4269.230957,4274.743652,4265.384766,4277.563965,4268.205078,4275.897461,4279.743652,4291.025879,4270.128418,4261.538574,4456.410156,4416.538574,4355.769043,4400.384766,2545.000000,4.000000,90.000000,,,,0.000000,4.000000,4.000000,4.000000,4.000000,4.000000,4.000000,4.000000,4.000000,4.000000,4.000000,4.000000,4.000000,4.000000,4.000000,100.000000,,,,,,,,,,,,,,,,,,,,,,,,,,,,,,,,,,,,,,,,,,,,,,,
1665608712.500954,1665608712.501288,125.000000,0.000000,4275.769043,4275.897461,4269.358887,4280.897461,4270.769043,4286.794922,4290.897461,4303.077148,4278.589844,4260.897461,4457.179688,4418.077148,4358.974121,4409.743652,2115.000000,4.000000,90.000000,,,,0.000000,4.000000,4.000000,4.000000,4.000000,4.000000,4.000000,4.000000,4.000000,4.000000,4.000000,4.000000,4.000000,4.000000,4.000000,100.000000,,,,,,,,,,,,,,,,,,,,,,,,,,,,,,,,,,,,,,,,,,,,,,,
1665608712.508762,1665608712.509097,126.000000,0.000000,4279.871582,4276.410156,4274.743652,4288.717773,4280.512695,4302.820313,4294.487305,4306.666504,4290.641113,4261.538574,4458.846191,4420.000000,4369.230957,4416.538574,2708.000000,4.000000,90.000000,,,,0.000000,4.000000,4.000000,4.000000,4.000000,4.000000,4.000000,4.000000,4.000000,4.000000,4.000000,4.000000,4.000000,4.000000,4.000000,100.000000,,,,,,,,,,,,,,,,,,,,,,,,,,,,,,,,,,,,,,,,,,,,,,,
1665608712.516571,1665608712.517005,127.000000,0.000000,4282.179688,4283.974121,4274.871582,4293.846191,4284.871582,4300.897461,4287.563965,4297.692383,4295.641113,4269.487305,4465.512695,4423.717773,4374.871582,4416.666504,90.000000,4.000000,90.000000,,,,0.000000,4.000000,4.000000,4.000000,4.000000,4.000000,4.000000,4.000000,4.000000,4.000000,4.000000,4.000000,4.000000,4.000000,4.000000,100.000000,,,,,,,,,,,,,,,,,,,,,,,,,,,,,,,,,,,,,,,,,,,,,,,
1665608712.524379,1665608712.524814,0.000000,0.000000,4287.563965,4294.871582,4276.666504,4292.692383,4281.538574,4281.025879,4278.077148,4301.153809,4299.230957,4275.000000,4476.666504,4426.538574,4375.897461,4420.769043,2363.000000,4.000000,90.000000,,,,0.000000,4.000000,4.000000,4.000000,4.000000,4.000000,4.000000,4.000000,4.000000,4.000000,4.000000,4.000000,4.000000,4.000000,4.000000,100.000000,,,,,,,,,,,,,,,,,,,,,,,,,,,,,,,,,,,,,,,,,,,,,,,
1665608712.532187,1665608712.532622,1.000000,0.000000,4287.820313,4292.179688,4272.563965,4287.948730,4277.563965,4270.641113,4278.077148,4304.615234,4295.256348,4268.461426,4474.743652,4421.922852,4374.102539,4422.948730,2304.000000,4.000000,90.000000,,,,0.000000,4.000000,4.000000,4.000000,4.000000,4.000000,4.000000,4.000000,4.000000,4.000000,4.000000,4.000000,4.000000,4.000000,4.000000,100.000000,,,,,,,,,,,,,,,,,,,,,,,,,,,,,,,,,,,,,,,,,,,,,,,
1665608712.539996,1665608712.540431,2.000000,0.000000,4278.974121,4279.743652,4264.102539,4283.333496,4277.307617,4279.871582,4279.487305,4294.102539,4284.615234,4255.384766,4457.948730,4415.641113,4362.820313,4412.563965,2282.000000,4.000000,90.000000,,,,0.000000,4.000000,4.000000,4.000000,4.000000,4.000000,4.000000,4.000000,4.000000,4.000000,4.000000,4.000000,4.000000,4.000000,4.000000,100.000000,,,,,,,,,,,,,,,,,,,,,,,,,,,,,,,,,,,,,,,,,,,,,,,
1665608712.547804,1665608712.548139,3.000000,0.000000,4275.897461,4280.641113,4267.820313,4289.230957,4285.641113,4288.974121,4276.794922,4292.179688,4289.358887,4258.717773,4454.615234,4415.128418,4359.358887,4409.102539,2418.000000,4.000000,90.000000,,,,0.000000,4.000000,4.000000,4.000000,4.000000,4.000000,4.000000,4.000000,4.000000,4.000000,4.000000,4.000000,4.000000,4.000000,4.000000,100.000000,,,,,,,,,,,,,,,,,,,,,,,,,,,,,,,,,,,,,,,,,,,,,,,
1665608712.555612,1665608712.555948,4.000000,0.000000,4281.794922,4287.307617,4275.897461,4297.307617,4286.538574,4283.333496,4278.333496,4295.384766,4289.871582,4270.512695,4464.743652,4415.384766,4368.077148,4417.051270,2424.000000,4.000000,90.000000,,,,0.000000,4.000000,4.000000,4.000000,4.000000,4.000000,4.000000,4.000000,4.000000,4.000000,4.000000,4.000000,4.000000,4.000000,4.000000,100.000000,,,,,,,,,,,,,,,,,,,,,,,,,,,,,,,,,,,,,,,,,,,,,,,
1665608712.563421,1665608712.563656,5.000000,0.000000,4278.333496,4277.948730,4265.641113,4288.077148,4278.717773,4274.743652,4277.307617,4284.743652,4263.846191,4256.282227,4456.410156,4410.000000,4359.743652,4407.820313,1636.000000,4.000000,90.000000,,,,0.000000,4.000000,4.000000,4.000000,4.000000,4.000000,4.000000,4.000000,4.000000,4.000000,4.000000,4.000000,4.000000,4.000000,4.000000,100.000000,1.000000,91.666664,4.000000,4.000000,4.000000,4.000000,4.000000,4.000000,4.000000,4.000000,4.000000,4.000000,4.000000,4.000000,3.000000,4.000000,1.000000,0.583281,-0.200661,-1.054119,0.347690,1.000000,0.370509,6.750177,2.735559,13.570966,0.547352,1.000000,0.463072,111.215492,-377.123260,661.002869,1.000000,0.414937,0.307312,0.116454,0.320521,1.000000,0.573667,7.234316,-6.161259,17.272190,1.000000,0.522771,0.522771,0.000000,1.000000
1665608712.571229,1665608712.571465,6.000000,0.000000,4274.230957,4277.436035,4262.307617,4283.077148,4281.153809,4279.743652,4276.410156,4282.692383,4255.384766,4247.179688,4447.948730,4413.205078,4350.769043,4400.641113,2284.000000,4.000000,90.000000,,,,0.000000,4.000000,4.000000,4.000000,4.000000,4.000000,4.000000,4.000000,4.000000,4.000000,4.000000,4.000000,4.000000,4.000000,4.000000,100.000000,,,,,,,,,,,,,,,,,,,,,,,,,,,,,,,,,,,,,,,,,,,,,,,
1665608712.579038,1665608712.579173,7.000000,0.000000,4285.897461,4295.641113,4281.282227,4300.000000,4289.871582,4286.153809,4279.871582,4295.769043,4283.717773,4265.897461,4460.384766,4423.846191,4367.179688,4418.077148,2339.000000,4.000000,90.000000,,,,0.000000,4.000000,4.000000,4.000000,4.000000,4.000000,4.000000,4.000000,4.000000,4.000000,4.000000,4.000000,4.000000,4.000000,4.000000,100.000000,,,,,,,,,,,,,,,,,,,,,,,,,,,,,,,,,,,,,,,,,,,,,,,
1665608712.586846,1665608712.586982,8.000000,0.000000,4286.153809,4289.743652,4276.794922,4299.871582,4282.563965,4284.358887,4279.743652,4296.153809,4289.615234,4262.307617,4458.333496,4421.666504,4367.179688,4421.538574,2423.000000,4.000000,90.000000,,,,0.000000,4.000000,4.000000,4.000000,4.000000,4.000000,4.000000,4.000000,4.000000,4.000000,4.000000,4.000000,4.000000,4.000000,4.000000,100.000000,,,,,,,,,,,,,,,,,,,,,,,,,,,,,,,,,,,,,,,,,,,,,,,
1665608712.594654,1665608712.594690,9.000000,0.000000,4268.589844,4267.051270,4254.487305,4277.563965,4266.025879,4281.922852,4271.282227,4278.974121,4264.615234,4238.589844,4438.846191,4407.948730,4345.256348,4401.410156,2403.000000,4.000000,90.000000,,,,0.000000,4.000000,4.000000,4.000000,4.000000,4.000000,4.000000,4.000000,4.000000,4.000000,4.000000,4.000000,4.000000,4.000000,4.000000,100.000000,,,,,,,,,,,,,,,,,,,,,,,,,,,,,,,,,,,,,,,,,,,,,,,
1665608712.602463,1665608712.602598,10.000000,0.000000,4272.436035,4271.153809,4263.461426,4277.051270,4268.333496,4281.410156,4272.051270,4280.512695,4266.410156,4249.358887,4447.436035,4412.436035,4352.948730,4402.820313,2700.000000,4.000000,90.000000,,,,0.000000,4.000000,4.000000,4.000000,4.000000,4.000000,4.000000,4.000000,4.000000,4.000000,4.000000,4.000000,4.000000,4.000000,4.000000,100.000000,,,,,,,,,,,,,,,,,,,,,,,,,,,,,,,,,,,,,,,,,,,,,,,
1665608712.610271,1665608712.610407,11.000000,0.000000,4287.563965,4284.230957,4283.846191,4288.333496,4279.230957,4285.897461,4287.948730,4307.948730,4291.410156,4273.974121,4470.128418,4430.000000,4373.589844,4422.051270,2733.000000,4.000000,90.000000,,,,0.000000,4.000000,4.000000,4.000000,4.000000,4.000000,4.000000,4.000000,4.000000,4.000000,4.000000,4.000000,4.000000,4.000000,4.000000,100.000000,,,,,,,,,,,,,,,,,,,,,,,,,,,,,,,,,,,,,,,,,,,,,,,
1665608712.618080,1665608712.618315,12.000000,0.000000,4277.820313,4278.333496,4274.102539,4283.461426,4283.717773,4294.230957,4294.102539,4316.282227,4291.794922,4264.743652,4460.384766,4426.538574,4363.717773,4419.358887,2541.000000,4.000000,90.000000,,,,0.000000,4.000000,4.000000,4.000000,4.000000,4.000000,4.000000,4.000000,4.000000,4.000000,4.000000,4.000000,4.000000,4.000000,4.000000,100.000000,,,,,,,,,,,,,,,,,,,,,,,,,,,,,,,,,,,,,,,,,,,,,,,
1665608712.625888,1665608712.626124,13.000000,0.000000,4260.769043,4272.563965,4257.051270,4279.743652,4277.051270,4296.794922,4277.436035,4289.487305,4267.563965,4245.897461,4437.820313,4408.077148,4345.512695,4403.717773,2114.000000,4.000000,90.000000,,,,0.000000,4.000000,4.000000,4.000000,4.000000,4.000000,4.000000,4.000000,4.000000,4.000000,4.000000,4.000000,4.000000,4.000000,4.000000,100.000000,,,,,,,,,,,,,,,,,,,,,,,,,,,,,,,,,,,,,,,,,,,,,,,
1665608712.633696,1665608712.634032,14.000000,0.000000,4267.692383,4276.922852,4263.205078,4285.641113,4267.051270,4289.871582,4265.256348,4275.256348,4265.897461,4252.948730,4442.948730,4405.384766,4354.615234,4405.128418,2700.000000,4.000000,90.000000,,,,0.000000,4.000000,4.000000,4.000000,4.000000,4.000000,4.000000,4.000000,4.000000,4.000000,4.000000,4.000000,4.000000,4.000000,4.000000,100.000000,,,,,,,,,,,,,,,,,,,,,,,,,,,,,,,,,,,,,,,,,,,,,,,
1665608712.641505,1665608712.641841,15.000000,0.000000,4277.563965,4273.589844,4270.512695,4282.051270,4269.871582,4279.230957,4269.743652,4286.922852,4281.410156,4262.563965,4457.692383,4417.307617,4367.820313,4410.897461,2733.000000,4.000000,90.000000,,,,0.000000,4.000000,4.000000,4.000000,4.000000,4.000000,4.000000,4.000000,4.000000,4.000000,4.000000,4.000000,4.000000,4.000000,4.000000,100.000000,,,,,,,,,,,,,,,,,,,,,,,,,,,,,,,,,,,,,,,,,,,,,,,
1665608712.649313,1665608712.649649,16.000000,0.000000,4278.974121,4271.794922,4269.102539,4281.025879,4278.077148,4279.487305,4277.563965,4296.794922,4290.512695,4268.205078,4461.025879,4423.846191,4367.948730,4413.333496,0.000000,4.000000,90.000000,,,,0.000000,4.000000,4.000000,4.000000,4.000000,4.000000,4.000000,4.000000,4.000000,4.000000,4.000000,4.000000,4.000000,4.000000,4.000000,100.000000,,,,,,,,,,,,,,,,,,,,,,,,,,,,,,,,,,,,,,,,,,,,,,,
1665608712.657121,1665608712.657358,17.000000,0.000000,4284.230957,4280.384766,4273.717773,4293.333496,4280.641113,4297.179688,4289.230957,4305.384766,4301.538574,4279.102539,4463.717773,4426.538574,4370.128418,4422.692383,0.000000,4.000000,90.000000,,,,0.000000,4.000000,4.000000,4.000000,4.000000,4.000000,4.000000,4.000000,4.000000,4.000000,4.000000,4.000000,4.000000,4.000000,4.000000,100.000000,,,,,,,,,,,,,,,,,,,,,,,,,,,,,,,,,,,,,,,,,,,,,,,
1665608712.664930,1665608712.665266,18.000000,0.000000,4285.000000,4278.974121,4276.025879,4292.307617,4278.205078,4302.436035,4293.974121,4306.538574,4294.871582,4277.051270,4465.512695,4425.256348,4369.615234,4424.102539,0.000000,4.000000,90.000000,,,,0.000000,4.000000,4.000000,4.000000,4.000000,4.000000,4.000000,4.000000,4.000000,4.000000,4.000000,4.000000,4.000000,4.000000,4.000000,100.000000,,,,,,,,,,,,,,,,,,,,,,,,,,,,,,,,,,,,,,,,,,,,,,,
1665608712.672738,1665608712.673074,19.000000,0.000000,4278.589844,4267.179688,4266.282227,4279.743652,4271.538574,4280.384766,4273.461426,4288.333496,4266.922852,4256.538574,4458.461426,4417.692383,4360.512695,4411.666504,0.000000,4.000000,90.000000,,,,0.000000,4.000000,4.000000,4.000000,4.000000,4.000000,4.000000,4.000000,4.000000,4.000000,4.000000,4.000000,4.000000,4.000000,4.000000,100.000000,,,,,,,,,,,,,,,,,,,,,,,,,,,,,,,,,,,,,,,,,,,,,,,
1665608712.680547,1665608712.680983,20.000000,0.000000,4273.333496,4261.794922,4260.512695,4274.487305,4260.384766,4271.153809,4255.512695,4275.000000,4260.769043,4246.410156,4453.589844,4411.282227,4354.358887,4405.512695,0.000000,4.000000,90.000000,,,,0.000000,4.000000,4.000000,4.000000,4.000000,4.000000,4.000000,4.000000,4.000000,4.000000,4.000000,4.000000,4.000000,4.000000,4.000000,100.000000,,,,,,,,,,,,,,,,,,,,,,,,,,,,,,,,,,,,,,,,,,,,,,,
1665608712.688355,1665608712.688791,21.000000,0.000000,4274.871582,4267.307617,4271.025879,4282.051270,4262.563965,4287.948730,4273.717773,4293.589844,4278.205078,4257.692383,4459.871582,4419.230957,4358.333496,4416.794922,0.000000,4.000000,90.000000,,,,0.000000,4.000000,4.000000,4.000000,4.000000,4.000000,4.000000,4.000000,4.000000,4.000000,4.000000,4.000000,4.000000,4.000000,4.000000,100.000000,,,,,,,,,,,,,,,,,,,,,,,,,,,,,,,,,,,,,,,,,,,,,,,
1665608712.696163,1665608712.696699,22.000000,0.000000,4278.717773,4274.102539,4276.666504,4290.897461,4272.307617,4296.666504,4293.205078,4313.461426,4281.922852,4263.717773,4463.205078,4429.102539,4361.282227,4422.436035,0.000000,4.000000,90.000000,,,,0.000000,4.000000,4.000000,4.000000,4.000000,4.000000,4.000000,4.000000,4.000000,4.000000,4.000000,4.000000,4.000000,4.000000,4.000000,100.000000,,,,,,,,,,,,,,,,,,,,,,,,,,,,,,,,,,,,,,,,,,,,,,,
1665608712.703972,1665608712.704508,23.000000,0.000000,4278.974121,4279.230957,4272.307617,4289.871582,4273.974121,4291.666504,4283.461426,4305.384766,4283.846191,4262.436035,4460.512695,4427.179688,4359.230957,4415.256348,0.000000,4.000000,90.000000,,,,0.000000,4.000000,4.000000,4.000000,4.000000,4.000000,4.000000,4.000000,4.000000,4.000000,4.000000,4.000000,4.000000,4.000000,4.000000,100.000000,,,,,,,,,,,,,,,,,,,,,,,,,,,,,,,,,,,,,,,,,,,,,,,
1665608712.711780,1665608712.712416,24.000000,0.000000,4275.256348,4276.794922,4270.897461,4286.153809,4277.436035,4288.846191,4277.948730,4299.743652,4297.436035,4268.333496,4460.000000,4423.205078,4358.846191,4412.051270,0.000000,4.000000,90.000000,,,,0.000000,4.000000,4.000000,4.000000,4.000000,4.000000,4.000000,4.000000,4.000000,4.000000,4.000000,4.000000,4.000000,4.000000,4.000000,100.000000,,,,,,,,,,,,,,,,,,,,,,,,,,,,,,,,,,,,,,,,,,,,,,,
1665608712.719588,1665608712.720225,25.000000,0.000000,4273.717773,4270.641113,4267.436035,4284.487305,4273.589844,4282.948730,4280.256348,4306.538574,4300.256348,4271.922852,4461.538574,4422.692383,4359.230957,4411.153809,0.000000,4.000000,90.000000,,,,0.000000,4.000000,4.000000,4.000000,4.000000,4.000000,4.000000,4.000000,4.000000,4.000000,4.000000,4.000000,4.000000,4.000000,4.000000,100.000000,,,,,,,,,,,,,,,,,,,,,,,,,,,,,,,,,,,,,,,,,,,,,,,
1665608712.727397,1665608712.727933,26.000000,0.000000,4275.512695,4270.897461,4262.563965,4281.922852,4263.589844,4277.179688,4271.410156,4297.948730,4285.256348,4257.179688,4460.769043,4418.333496,4354.871582,4406.410156,0.000000,4.000000,90.000000,,,,0.000000,4.000000,4.000000,4.000000,4.000000,4.000000,4.000000,4.000000,4.000000,4.000000,4.000000,4.000000,4.000000,4.000000,4.000000,100.000000,,,,,,,,,,,,,,,,,,,,,,,,,,,,,,,,,,,,,,,,,,,,,,,
1665608712.735205,1665608712.735742,27.000000,0.000000,4275.897461,4274.871582,4262.692383,4278.717773,4266.410156,4280.512695,4263.205078,4278.717773,4266.282227,4242.948730,4451.666504,4411.410156,4348.589844,4402.692383,0.000000,4.000000,90.000000,,,,0.000000,4.000000,4.000000,4.000000,4.000000,4.000000,4.000000,4.000000,4.000000,4.000000,4.000000,4.000000,4.000000,4.000000,4.000000,100.000000,,,,,,,,,,,,,,,,,,,,,,,,,,,,,,,,,,,,,,,,,,,,,,,
1665608712.743014,1665608712.743450,28.000000,0.000000,4278.205078,4273.205078,4267.820313,4282.051270,4269.743652,4285.128418,4265.769043,4276.282227,4258.589844,4252.051270,4443.717773,4412.948730,4348.974121,4405.769043,0.000000,4.000000,90.000000,,,,0.000000,4.000000,4.000000,4.000000,4.000000,4.000000,4.000000,4.000000,4.000000,4.000000,4.000000,4.000000,4.000000,4.000000,4.000000,100.000000,,,,,,,,,,,,,,,,,,,,,,,,,,,,,,,,,,,,,,,,,,,,,,,
1665608712.750822,1665608712.751359,29.000000,0.000000,4274.102539,4268.589844,4268.333496,4284.743652,4264.487305,4282.436035,4265.512695,4282.179688,4263.589844,4252.820313,4446.282227,4414.615234,4347.179688,4405.512695,0.000000,4.000000,90.000000,,,,0.000000,4.000000,4.000000,4.000000,4.000000,4.000000,4.000000,4.000000,4.000000,4.000000,4.000000,4.000000,4.000000,4.000000,4.000000,100.000000,,,,,,,,,,,,,,,,,,,,,,,,,,,,,,,,,,,,,,,,,,,,,,,
1665608712.758630,1665608712.759167,30.000000,0.000000,4260.641113,4261.922852,4258.461426,4277.948730,4263.461426,4278.974121,4264.102539,4279.102539,4262.692383,4234.871582,4442.820313,4407.179688,4335.897461,4393.974121,0.000000,4.000000,90.000000,,,,0.000000,4.000000,4.000000,4.000000,4.000000,4.000000,4.000000,4.000000,4.000000,4.000000,4.000000,4.000000,4.000000,4.000000,4.000000,100.000000,,,,,,,,,,,,,,,,,,,,,,,,,,,,,,,,,,,,,,,,,,,,,,,
1665608712.766439,1665608712.766975,31.000000,0.000000,4258.333496,4261.153809,4251.282227,4276.410156,4266.538574,4281.153809,4266.666504,4278.589844,4258.333496,4233.077148,4437.179688,4402.179688,4335.128418,4390.256348,0.000000,4.000000,90.000000,,,,0.000000,4.000000,4.000000,4.000000,4.000000,4.000000,4.000000,4.000000,4.000000,4.000000,4.000000,4.000000,4.000000,4.000000,4.000000,100.000000,,,,,,,,,,,,,,,,,,,,,,,,,,,,,,,,,,,,,,,,,,,,,,,
1665608712.774247,1665608712.774684,32.000000,0.000000,4268.974121,4267.179688,4255.384766,4282.307617,4262.692383,4281.538574,4266.666504,4283.333496,4267.307617,4248.589844,4447.820313,4407.948730,4346.538574,4399.743652,0.000000,4.000000,90.000000,,,,0.000000,4.000000,4.000000,4.000000,4.000000,4.000000,4.000000,4.000000,4.000000,4.000000,4.000000,4.000000,4.000000,4.000000,4.000000,100.000000,,,,,,,,,,,,,,,,,,,,,,,,,,,,,,,,,,,,,,,,,,,,,,,
1665608712.782056,1665608712.782492,33.000000,0.000000,4272.436035,4269.615234,4264.487305,4287.563965,4260.769043,4281.410156,4273.589844,4290.000000,4280.769043,4258.333496,4459.102539,4415.897461,4354.487305,4405.128418,0.000000,4.000000,90.000000,,,,0.000000,4.000000,4.000000,4.000000,4.000000,4.000000,4.000000,4.000000,4.000000,4.000000,4.000000,4.000000,4.000000,4.000000,4.000000,100.000000,,,,,,,,,,,,,,,,,,,,,,,,,,,,,,,,,,,,,,,,,,,,,,,
1665608712.789864,1665608712.790201,34.000000,0.000000,4273.077148,4272.051270,4270.769043,4291.153809,4271.410156,4288.461426,4278.974121,4299.358887,4287.820313,4263.717773,4461.666504,4422.820313,4361.410156,4406.282227,0.000000,4.000000,90.000000,,,,0.000000,4.000000,4.000000,4.000000,4.000000,4.000000,4.000000,4.000000,4.000000,4.000000,4.000000,4.000000,4.000000,4.000000,4.000000,100.000000,,,,,,,,,,,,,,,,,,,,,,,,,,,,,,,,,,,,,,,,,,,,,,,
1665608712.797672,1665608712.798109,35.000000,0.000000,4277.948730,4281.410156,4268.205078,4294.358887,4282.563965,4289.230957,4267.820313,4294.615234,4287.563965,4270.512695,4462.948730,4422.563965,4366.666504,4409.102539,0.000000,4.000000,90.000000,,,,0.000000,4.000000,4.000000,4.000000,4.000000,4.000000,4.000000,4.000000,4.000000,4.000000,4.000000,4.000000,4.000000,4.000000,4.000000,100.000000,,,,,,,,,,,,,,,,,,,,,,,,,,,,,,,,,,,,,,,,,,,,,,,
1665608712.805481,1665608712.805918,36.000000,0.000000,4275.897461,4281.794922,4260.512695,4292.436035,4277.820313,4281.538574,4262.948730,4281.794922,4280.769043,4263.589844,4457.307617,4416.922852,4360.256348,4407.948730,0.000000,4.000000,90.000000,1,1,1,0.000000,4.000000,4.000000,4.000000,4.000000,4.000000,4.000000,4.000000,4.000000,4.000000,4.000000,4.000000,4.000000,4.000000,4.000000,100.000000,,,,,,,,,,,,,,,,,,,,,,,,,,,,,,,,,,,,,,,,,,,,,,,
1665608712.813289,1665608712.813726,37.000000,0.000000,4276.538574,4276.922852,4261.282227,4289.871582,4274.102539,4283.717773,4279.102539,4290.128418,4278.974121,4257.436035,4453.846191,4419.615234,4354.871582,4408.974121,0.000000,4.000000,90.000000,,,,0.000000,4.000000,4.000000,4.000000,4.000000,4.000000,4.000000,4.000000,4.000000,4.000000,4.000000,4.000000,4.000000,4.000000,4.000000,100.000000,,,,,,,,,,,,,,,,,,,,,,,,,,,,,,,,,,,,,,,,,,,,,,,
1665608712.821097,1665608712.821435,38.000000,0.000000,4281.538574,4280.384766,4267.948730,4291.922852,4280.641113,4291.153809,4283.205078,4299.615234,4279.358887,4261.666504,4459.871582,4424.487305,4359.871582,4414.487305,0.000000,4.000000,90.000000,,,,0.000000,4.000000,4.000000,4.000000,4.000000,4.000000,4.000000,4.000000,4.000000,4.000000,4.000000,4.000000,4.000000,4.000000,4.000000,100.000000,,,,,,,,,,,,,,,,,,,,,,,,,,,,,,,,,,,,,,,,,,,,,,,
1665608712.828906,1665608712.829343,39.000000,0.000000,4277.692383,4283.589844,4265.384766,4291.153809,4279.743652,4293.846191,4267.436035,4284.487305,4269.487305,4257.692383,4457.436035,4417.820313,4360.512695,4410.897461,0.000000,4.000000,90.000000,,,,0.000000,4.000000,4.000000,4.000000,4.000000,4.000000,4.000000,4.000000,4.000000,4.000000,4.000000,4.000000,4.000000,4.000000,4.000000,100.000000,,,,,,,,,,,,,,,,,,,,,,,,,,,,,,,,,,,,,,,,,,,,,,,
1665608712.836714,1665608712.837152,40.000000,0.000000,4275.128418,4279.871582,4263.461426,4291.794922,4277.563965,4295.512695,4266.282227,4273.846191,4261.153809,4251.538574,4449.871582,4413.846191,4355.512695,4408.077148,0.000000,4.000000,90.000000,,,,0.000000,4.000000,4.000000,4.000000,4.000000,4.000000,4.000000,4.000000,4.000000,4.000000,4.000000,4.000000,4.000000,4.000000,4.000000,100.000000,,,,,,,,,,,,,,,,,,,,,,,,,,,,,,,,,,,,,,,,,,,,,,,
1665608712.844522,1665608712.845060,41.000000,0.000000,4277.436035,4282.051270,4265.256348,4292.692383,4281.025879,4290.000000,4272.563965,4281.666504,4269.615234,4253.205078,4451.282227,4416.410156,4358.077148,4412.179688,0.000000,4.000000,90.000000,,,,0.000000,4.000000,4.000000,4.000000,4.000000,4.000000,4.000000,4.000000,4.000000,4.000000,4.000000,4.000000,4.000000,4.000000,4.000000,100.000000,,,,,,,,,,,,,,,,,,,,,,,,,,,,,,,,,,,,,,,,,,,,,,,
1665608712.852331,1665608712.852868,42.000000,0.000000,4267.820313,4280.000000,4253.333496,4282.179688,4272.436035,4278.077148,4267.436035,4280.769043,4275.128418,4252.563965,4446.794922,4413.333496,4358.077148,4403.205078,0.000000,4.000000,90.000000,,,,0.000000,4.000000,4.000000,4.000000,4.000000,4.000000,4.000000,4.000000,4.000000,4.000000,4.000000,4.000000,4.000000,4.000000,4.000000,100.000000,,,,,,,,,,,,,,,,,,,,,,,,,,,,,,,,,,,,,,,,,,,,,,,
1665608712.860139,1665608712.860777,43.000000,0.000000,4254.358887,4265.128418,4240.512695,4270.641113,4257.692383,4275.000000,4267.820313,4278.333496,4266.410156,4242.051270,4438.077148,4409.743652,4346.282227,4388.846191,0.000000,4.000000,90.000000,,,,0.000000,4.000000,4.000000,4.000000,4.000000,4.000000,4.000000,4.000000,4.000000,4.000000,4.000000,4.000000,4.000000,4.000000,4.000000,100.000000,,,,,,,,,,,,,,,,,,,,,,,,,,,,,,,,,,,,,,,,,,,,,,,
1665608712.867947,1665608712.868585,44.000000,0.000000,4259.743652,4260.897461,4251.922852,4274.871582,4264.615234,4284.358887,4283.077148,4292.563965,4266.666504,4245.897461,4447.692383,4415.769043,4347.948730,4397.692383,0.000000,4.000000,90.000000,,,,0.000000,4.000000,4.000000,4.000000,4.000000,4.000000,4.000000,4.000000,4.000000,4.000000,4.000000,4.000000,4.000000,4.000000,4.000000,100.000000,,,,,,,,,,,,,,,,,,,,,,,,,,,,,,,,,,,,,,,,,,,,,,,
1665608712.875756,1665608712.876494,45.000000,0.000000,4269.615234,4273.589844,4265.256348,4280.769043,4268.717773,4285.256348,4284.615234,4301.922852,4280.641113,4263.077148,4461.410156,4423.974121,4368.589844,4408.974121,0.000000,4.000000,90.000000,,,,0.000000,4.000000,4.000000,4.000000,4.000000,4.000000,4.000000,4.000000,4.000000,4.000000,4.000000,4.000000,4.000000,4.000000,4.000000,100.000000,,,,,,,,,,,,,,,,,,,,,,,,,,,,,,,,,,,,,,,,,,,,,,,
1665608712.883564,1665608712.884302,46.000000,0.000000,4264.487305,4276.666504,4257.051270,4271.538574,4250.512695,4271.282227,4266.025879,4293.589844,4284.743652,4261.794922,4457.563965,4419.102539,4377.179688,4395.641113,0.000000,4.000000,90.000000,,,,0.000000,4.000000,4.000000,4.000000,4.000000,4.000000,4.000000,4.000000,4.000000,4.000000,4.000000,4.000000,4.000000,4.000000,4.000000,100.000000,,,,,,,,,,,,,,,,,,,,,,,,,,,,,,,,,,,,,,,,,,,,,,,
1665608712.891373,1665608712.892210,47.000000,0.000000,4275.128418,4286.538574,4266.666504,4279.230957,4257.179688,4272.436035,4265.897461,4293.077148,4278.846191,4264.358887,4464.102539,4420.641113,4389.743652,4405.256348,0.000000,4.000000,90.000000,,,,0.000000,4.000000,4.000000,4.000000,4.000000,4.000000,4.000000,4.000000,4.000000,4.000000,4.000000,4.000000,4.000000,4.000000,4.000000,100.000000,,,,,,,,,,,,,,,,,,,,,,,,,,,,,,,,,,,,,,,,,,,,,,,
1665608712.899181,1665608712.900019,48.000000,0.000000,4307.820313,4323.589844,4298.589844,4310.128418,4288.846191,4288.077148,4285.641113,4302.436035,4281.794922,4279.871582,4491.282227,4438.461426,4431.410156,4452.179688,0.000000,4.000000,90.000000,,,,0.000000,4.000000,4.000000,4.000000,4.000000,4.000000,4.000000,4.000000,4.000000,4.000000,4.000000,4.000000,4.000000,4.000000,4.000000,100.000000,,,,,,,,,,,,,,,,,,,,,,,,,,,,,,,,,,,,,,,,,,,,,,,
1665608712.906989,1665608712.907827,49.000000,0.000000,4319.871582,4344.615234,4301.153809,4318.205078,4287.820313,4284.487305,4282.692383,4293.205078,4283.077148,4274.358887,4497.948730,4442.179688,4460.512695,4468.077148,0.000000,4.000000,90.000000,,,,0.000000,4.000000,4.000000,4.000000,4.000000,4.000000,4.000000,4.000000,4.000000,4.000000,4.000000,4.000000,4.000000,4.000000,4.000000,100.000000,,,,,,,,,,,,,,,,,,,,,,,,,,,,,,,,,,,,,,,,,,,,,,,
1665608712.914798,1665608712.915636,50.000000,0.000000,4316.922852,4340.512695,4291.282227,4308.205078,4265.128418,4271.666504,4266.410156,4283.717773,4278.077148,4263.205078,4491.410156,4432.820313,4470.897461,4455.256348,0.000000,4.000000,90.000000,,,,0.000000,4.000000,4.000000,4.000000,4.000000,4.000000,4.000000,4.000000,4.000000,4.000000,4.000000,4.000000,4.000000,4.000000,4.000000,100.000000,,,,,,,,,,,,,,,,,,,,,,,,,,,,,,,,,,,,,,,,,,,,,,,
1665608712.922606,1665608712.923344,51.000000,0.000000,4332.948730,4358.077148,4307.436035,4318.461426,4263.974121,4277.820313,4267.820313,4294.487305,4281.666504,4270.897461,4503.974121,4440.641113,4502.307617,4473.205078,0.000000,4.000000,90.000000,,,,0.000000,4.000000,4.000000,4.000000,4.000000,4.000000,4.000000,4.000000,4.000000,4.000000,4.000000,4.000000,4.000000,4.000000,4.000000,100.000000,,,,,,,,,,,,,,,,,,,,,,,,,,,,,,,,,,,,,,,,,,,,,,,
1665608712.930415,1665608712.931153,52.000000,0.000000,4345.000000,4383.461426,4318.205078,4328.846191,4268.077148,4279.230957,4267.307617,4293.846191,4278.589844,4265.384766,4512.563965,4446.666504,4531.410156,4495.000000,0.000000,4.000000,90.000000,,,,0.000000,4.000000,4.000000,4.000000,4.000000,4.000000,4.000000,4.000000,4.000000,4.000000,4.000000,4.000000,4.000000,4.000000,4.000000,100.000000,,,,,,,,,,,,,,,,,,,,,,,,,,,,,,,,,,,,,,,,,,,,,,,
1665608712.938223,1665608712.938861,53.000000,0.000000,4346.922852,4386.538574,4318.846191,4327.051270,4270.256348,4272.948730,4265.641113,4288.333496,4274.358887,4261.282227,4516.794922,4445.128418,4542.051270,4497.436035,0.000000,4.000000,90.000000,,,,0.000000,4.000000,4.000000,4.000000,4.000000,4.000000,4.000000,4.000000,4.000000,4.000000,4.000000,4.000000,4.000000,4.000000,4.000000,100.000000,,,,,,,,,,,,,,,,,,,,,,,,,,,,,,,,,,,,,,,,,,,,,,,
1665608712.946031,1665608712.946670,54.000000,0.000000,4352.563965,4373.717773,4325.384766,4330.256348,4278.974121,4280.512695,4280.384766,4299.358887,4287.948730,4279.743652,4526.666504,4450.897461,4544.743652,4502.563965,0.000000,4.000000,90.000000,,,,0.000000,4.000000,4.000000,4.000000,4.000000,4.000000,4.000000,4.000000,4.000000,4.000000,4.000000,4.000000,4.000000,4.000000,4.000000,100.000000,,,,,,,,,,,,,,,,,,,,,,,,,,,,,,,,,,,,,,,,,,,,,,,
1665608712.953840,1665608712.954378,55.000000,0.000000,4341.410156,4353.974121,4317.948730,4328.974121,4280.384766,4286.025879,4284.358887,4301.538574,4293.077148,4280.897461,4515.769043,4449.487305,4520.641113,4497.307617,0.000000,4.000000,90.000000,,,,0.000000,4.000000,4.000000,4.000000,4.000000,4.000000,4.000000,4.000000,4.000000,4.000000,4.000000,4.000000,4.000000,4.000000,4.000000,100.000000,,,,,,,,,,,,,,,,,,,,,,,,,,,,,,,,,,,,,,,,,,,,,,,
1665608712.961648,1665608712.962287,56.000000,0.000000,4333.974121,4353.589844,4315.000000,4326.025879,4285.769043,4286.538574,4287.820313,4312.051270,4300.000000,4284.102539,4506.282227,4450.897461,4495.128418,4490.384766,0.000000,4.000000,90.000000,,,,0.000000,4.000000,4.000000,4.000000,4.000000,4.000000,4.000000,4.000000,4.000000,4.000000,4.000000,4.000000,4.000000,4.000000,4.000000,100.000000,,,,,,,,,,,,,,,,,,,,,,,,,,,,,,,,,,,,,,,,,,,,,,,
1665608712.969456,1665608712.970095,57.000000,0.000000,4338.589844,4355.512695,4322.563965,4324.615234,4291.538574,4299.743652,4314.743652,4337.563965,4317.563965,4300.384766,4515.641113,4461.025879,4483.205078,4487.051270,0.000000,4.000000,90.000000,,,,0.000000,4.000000,4.000000,4.000000,4.000000,4.000000,4.000000,4.000000,4.000000,4.000000,4.000000,4.000000,4.000000,4.000000,4.000000,100.000000,,,,,,,,,,,,,,,,,,,,,,,,,,,,,,,,,,,,,,,,,,,,,,,
1665608712.977265,1665608712.977903,58.000000,0.000000,4318.205078,4325.384766,4305.000000,4307.948730,4279.871582,4302.307617,4313.717773,4326.922852,4309.871582,4286.282227,4504.102539,4451.794922,4451.922852,4461.666504,0.000000,4.000000,90.000000,,,,0.000000,4.000000,4.000000,4.000000,4.000000,4.000000,4.000000,4.000000,4.000000,4.000000,4.000000,4.000000,4.000000,4.000000,4.000000,100.000000,,,,,,,,,,,,,,,,,,,,,,,,,,,,,,,,,,,,,,,,,,,,,,,
1665608712.985073,1665608712.985612,59.000000,0.000000,4295.897461,4302.563965,4287.436035,4297.307617,4274.358887,4283.846191,4280.512695,4303.077148,4297.820313,4273.077148,4487.820313,4435.769043,4420.512695,4440.641113,0.000000,4.000000,90.000000,,,,0.000000,4.000000,4.000000,4.000000,4.000000,4.000000,4.000000,4.000000,4.000000,4.000000,4.000000,4.000000,4.000000,4.000000,4.000000,100.000000,,,,,,,,,,,,,,,,,,,,,,,,,,,,,,,,,,,,,,,,,,,,,,,
1665608712.992881,1665608712.993520,60.000000,0.000000,4295.641113,4301.282227,4290.897461,4298.333496,4280.769043,4279.487305,4272.692383,4302.436035,4298.589844,4278.846191,4488.846191,4433.077148,4411.794922,4440.512695,0.000000,4.000000,90.000000,,,,0.000000,4.000000,4.000000,4.000000,4.000000,4.000000,4.000000,4.000000,4.000000,4.000000,4.000000,4.000000,4.000000,4.000000,4.000000,100.000000,,,,,,,,,,,,,,,,,,,,,,,,,,,,,,,,,,,,,,,,,,,,,,,
1665608713.000690,1665608713.001329,61.000000,0.000000,4282.179688,4278.846191,4277.820313,4278.974121,4268.717773,4284.743652,4277.307617,4289.615234,4276.282227,4260.384766,4472.307617,4421.538574,4388.333496,4421.410156,0.000000,4.000000,90.000000,,,,0.000000,4.000000,4.000000,4.000000,4.000000,4.000000,4.000000,4.000000,4.000000,4.000000,4.000000,4.000000,4.000000,4.000000,4.000000,100.000000,,,,,,,,,,,,,,,,,,,,,,,,,,,,,,,,,,,,,,,,,,,,,,,
1665608713.008498,1665608713.009137,62.000000,0.000000,4261.410156,4252.692383,4254.615234,4261.282227,4255.641113,4277.051270,4270.769043,4273.974121,4260.000000,4241.794922,4451.282227,4409.358887,4361.666504,4393.589844,0.000000,4.000000,90.000000,,,,0.000000,4.000000,4.000000,4.000000,4.000000,4.000000,4.000000,4.000000,4.000000,4.000000,4.000000,4.000000,4.000000,4.000000,4.000000,100.000000,,,,,,,,,,,,,,,,,,,,,,,,,,,,,,,,,,,,,,,,,,,,,,,
1665608713.016307,1665608713.016946,63.000000,0.000000,4265.128418,4259.871582,4254.230957,4274.871582,4269.871582,4275.769043,4271.025879,4286.025879,4279.358887,4254.743652,4456.922852,4414.102539,4360.000000,4396.794922,0.000000,4.000000,90.000000,,,,0.000000,4.000000,4.000000,4.000000,4.000000,4.000000,4.000000,4.000000,4.000000,4.000000,4.000000,4.000000,4.000000,4.000000,4.000000,100.000000,,,,,,,,,,,,,,,,,,,,,,,,,,,,,,,,,,,,,,,,,,,,,,,
1665608713.024115,1665608713.024754,64.000000,0.000000,4273.589844,4275.769043,4262.820313,4286.025879,4285.769043,4286.410156,4281.025879,4295.256348,4286.025879,4267.179688,4462.820313,4418.846191,4360.256348,4409.230957,2354.000000,4.000000,90.000000,,,,0.000000,4.000000,4.000000,4.000000,4.000000,4.000000,4.000000,4.000000,4.000000,4.000000,4.000000,4.000000,4.000000,4.000000,4.000000,100.000000,,,,,,,,,,,,,,,,,,,,,,,,,,,,,,,,,,,,,,,,,,,,,,,
1665608713.031923,1665608713.032463,65.000000,0.000000,4268.717773,4277.948730,4265.384766,4281.025879,4283.077148,4286.410156,4278.461426,4292.948730,4274.487305,4263.333496,4452.820313,4415.256348,4353.589844,4405.769043,2294.000000,4.000000,90.000000,,,,0.000000,4.000000,4.000000,4.000000,4.000000,4.000000,4.000000,4.000000,4.000000,4.000000,4.000000,4.000000,4.000000,4.000000,4.000000,100.000000,,,,,,,,,,,,,,,,,,,,,,,,,,,,,,,,,,,,,,,,,,,,,,,
1665608713.039732,1665608713.040371,66.000000,0.000000,4265.897461,4272.179688,4264.358887,4281.794922,4278.717773,4276.538574,4268.846191,4293.461426,4273.717773,4255.512695,4445.897461,4414.615234,4348.974121,4400.000000,2277.000000,4.000000,90.000000,,,,0.000000,4.000000,4.000000,4.000000,4.000000,4.000000,4.000000,4.000000,4.000000,4.000000,4.000000,4.000000,4.000000,4.000000,4.000000,100.000000,,,,,,,,,,,,,,,,,,,,,,,,,,,,,,,,,,,,,,,,,,,,,,,
1665608713.047540,1665608713.048179,67.000000,0.000000,4265.384766,4263.846191,4256.025879,4276.153809,4276.538574,4268.333496,4261.666504,4279.358887,4266.666504,4245.256348,4442.307617,4409.871582,4340.128418,4393.717773,2403.000000,4.000000,90.000000,,,,0.000000,4.000000,4.000000,4.000000,4.000000,4.000000,4.000000,4.000000,4.000000,4.000000,4.000000,4.000000,4.000000,4.000000,4.000000,100.000000,,,,,,,,,,,,,,,,,,,,,,,,,,,,,,,,,,,,,,,,,,,,,,,
1665608713.055349,1665608713.056088,68.000000,0.000000,4261.025879,4259.615234,4254.615234,4260.256348,4269.743652,4272.563965,4265.384766,4275.512695,4262.436035,4243.461426,4443.205078,4406.025879,4335.512695,4389.487305,2408.000000,4.000000,90.000000,,,,0.000000,4.000000,4.000000,4.000000,4.000000,4.000000,4.000000,4.000000,4.000000,4.000000,4.000000,4.000000,4.000000,4.000000,4.000000,100.000000,,,,,,,,,,,,,,,,,,,,,,,,,,,,,,,,,,,,,,,,,,,,,,,
1665608713.063157,1665608713.063896,69.000000,0.000000,4267.307617,4265.641113,4270.128418,4268.205078,4276.922852,4286.410156,4289.487305,4312.179688,4283.333496,4258.077148,4456.025879,4421.410156,4351.282227,4405.256348,1636.000000,4.000000,90.000000,,,,0.000000,4.000000,4.000000,4.000000,4.000000,4.000000,4.000000,4.000000,4.000000,4.000000,4.000000,4.000000,4.000000,4.000000,4.000000,100.000000,1.000000,75.000000,4.000000,4.000000,4.000000,4.000000,4.000000,4.000000,4.000000,4.000000,4.000000,4.000000,4.000000,4.000000,1.000000,4.000000,1.000000,0.584331,-0.168838,-1.054014,0.347615,1.000000,0.347646,6.502442,2.735559,13.570966,0.546582,1.000000,0.459891,108.552269,-377.058289,660.918396,1.000000,0.448068,0.161901,0.116472,0.320510,1.000000,0.571719,6.822405,-6.159467,17.270840,1.000000,0.503604,0.503604,0.000000,1.000000
1665608713.070965,1665608713.071805,70.000000,0.000000,4284.230957,4279.230957,4284.871582,4288.461426,4290.897461,4287.307617,4303.333496,4329.743652,4298.717773,4270.641113,4467.563965,4438.205078,4369.102539,4426.410156,2289.000000,4.000000,90.000000,,,,0.000000,4.000000,4.000000,4.000000,4.000000,4.000000,4.000000,4.000000,4.000000,4.000000,4.000000,4.000000,4.000000,4.000000,4.000000,100.000000,,,,,,,,,,,,,,,,,,,,,,,,,,,,,,,,,,,,,,,,,,,,,,,
1665608713.078774,1665608713.079613,71.000000,0.000000,4289.230957,4282.692383,4285.897461,4287.179688,4285.256348,4275.769043,4283.846191,4299.487305,4287.692383,4269.871582,4465.384766,4430.384766,4365.384766,4420.769043,2346.000000,4.000000,90.000000,,,,0.000000,4.000000,4.000000,4.000000,4.000000,4.000000,4.000000,4.000000,4.000000,4.000000,4.000000,4.000000,4.000000,4.000000,4.000000,100.000000,,,,,,,,,,,,,,,,,,,,,,,,,,,,,,,,,,,,,,,,,,,,,,,
1665608713.086582,1665608713.087521,72.000000,0.000000,4282.436035,4274.743652,4279.615234,4276.922852,4280.128418,4275.641113,4267.436035,4279.230957,4277.948730,4265.256348,4456.922852,4420.512695,4356.025879,4406.025879,2426.000000,4.000000,90.000000,,,,0.000000,4.000000,4.000000,4.000000,4.000000,4.000000,4.000000,4.000000,4.000000,4.000000,4.000000,4.000000,4.000000,4.000000,4.000000,100.000000,,,,,,,,,,,,,,,,,,,,,,,,,,,,,,,,,,,,,,,,,,,,,,,
1665608713.094391,1665608713.095330,73.000000,0.000000,4283.717773,4272.948730,4278.717773,4278.461426,4291.538574,4284.102539,4281.922852,4295.384766,4288.077148,4262.948730,4461.922852,4428.205078,4360.769043,4413.589844,2403.000000,4.000000,90.000000,,,,0.000000,4.000000,4.000000,4.000000,4.000000,4.000000,4.000000,4.000000,4.000000,4.000000,4.000000,4.000000,4.000000,4.000000,4.000000,100.000000,,,,,,,,,,,,,,,,,,,,,,,,,,,,,,,,,,,,,,,,,,,,,,,
1665608713.102199,1665608713.103038,74.000000,0.000000,4282.051270,4274.487305,4280.512695,4278.333496,4290.769043,4282.563965,4287.436035,4308.589844,4290.897461,4264.743652,4471.666504,4431.153809,4365.256348,4418.333496,2687.000000,4.000000,90.000000,,,,0.000000,4.000000,4.000000,4.000000,4.000000,4.000000,4.000000,4.000000,4.000000,4.000000,4.000000,4.000000,4.000000,4.000000,4.000000,100.000000,,,,,,,,,,,,,,,,,,,,,,,,,,,,,,,,,,,,,,,,,,,,,,,
1665608713.110007,1665608713.110847,75.000000,0.000000,4282.179688,4280.000000,4286.922852,4279.358887,4282.307617,4280.256348,4276.666504,4303.077148,4289.487305,4276.282227,4477.307617,4428.205078,4368.974121,4416.410156,2735.000000,4.000000,90.000000,,,,0.000000,4.000000,4.000000,4.000000,4.000000,4.000000,4.000000,4.000000,4.000000,4.000000,4.000000,4.000000,4.000000,4.000000,4.000000,100.000000,,,,,,,,,,,,,,,,,,,,,,,,,,,,,,,,,,,,,,,,,,,,,,,
1665608713.117816,1665608713.118555,76.000000,0.000000,4285.384766,4279.743652,4286.410156,4280.769043,4280.000000,4277.820313,4275.384766,4295.897461,4294.743652,4277.820313,4472.692383,4428.205078,4366.025879,4416.666504,2545.000000,4.000000,90.000000,,,,0.000000,4.000000,4.000000,4.000000,4.000000,4.000000,4.000000,4.000000,4.000000,4.000000,4.000000,4.000000,4.000000,4.000000,4.000000,100.000000,,,,,,,,,,,,,,,,,,,,,,,,,,,,,,,,,,,,,,,,,,,,,,,
1665608713.125624,1665608713.126364,77.000000,0.000000,4273.333496,4265.512695,4272.436035,4273.717773,4276.794922,4274.615234,4278.846191,4294.102539,4289.487305,4260.128418,4457.948730,4418.077148,4345.128418,4404.743652,2114.000000,4.000000,90.000000,,,,0.000000,4.000000,4.000000,4.000000,4.000000,4.000000,4.000000,4.000000,4.000000,4.000000,4.000000,4.000000,4.000000,4.000000,4.000000,100.000000,,,,,,,,,,,,,,,,,,,,,,,,,,,,,,,,,,,,,,,,,,,,,,,
1665608713.133432,1665608713.134072,78.000000,0.000000,4278.077148,4275.769043,4279.358887,4283.333496,4287.436035,4285.000000,4289.487305,4309.871582,4297.051270,4272.179688,4467.307617,4422.179688,4354.102539,4409.230957,2687.000000,4.000000,90.000000,,,,0.000000,4.000000,4.000000,4.000000,4.000000,4.000000,4.000000,4.000000,4.000000,4.000000,4.000000,4.000000,4.000000,4.000000,4.000000,100.000000,,,,,,,,,,,,,,,,,,,,,,,,,,,,,,,,,,,,,,,,,,,,,,,
1665608713.141241,1665608713.141881,79.000000,0.000000,4301.538574,4301.153809,4302.820313,4305.128418,4304.358887,4292.307617,4300.128418,4323.846191,4316.025879,4297.820313,4492.179688,4445.256348,4386.282227,4433.205078,2735.000000,4.000000,90.000000,,,,0.000000,4.000000,4.000000,4.000000,4.000000,4.000000,4.000000,4.000000,4.000000,4.000000,4.000000,4.000000,4.000000,4.000000,4.000000,100.000000,,,,,,,,,,,,,,,,,,,,,,,,,,,,,,,,,,,,,,,,,,,,,,,
1665608713.149049,1665608713.149589,80.000000,0.000000,4293.205078,4289.871582,4298.846191,4301.282227,4300.384766,4283.333496,4292.692383,4315.000000,4304.102539,4279.487305,4485.256348,4441.922852,4375.000000,4427.948730,2545.000000,4.000000,90.000000,,,,0.000000,4.000000,4.000000,4.000000,4.000000,4.000000,4.000000,4.000000,4.000000,4.000000,4.000000,4.000000,4.000000,4.000000,4.000000,100.000000,,,,,,,,,,,,,,,,,,,,,,,,,,,,,,,,,,,,,,,,,,,,,,,
1665608713.156857,1665608713.157398,81.000000,0.000000,4279.615234,4276.538574,4286.666504,4293.205078,4293.205078,4286.538574,4291.282227,4307.948730,4288.846191,4258.589844,4466.794922,4427.948730,4351.153809,4415.384766,2114.000000,4.000000,90.000000,,,,0.000000,4.000000,4.000000,4.000000,4.000000,4.000000,4.000000,4.000000,4.000000,4.000000,4.000000,4.000000,4.000000,4.000000,4.000000,100.000000,,,,,,,,,,,,,,,,,,,,,,,,,,,,,,,,,,,,,,,,,,,,,,,
1665608713.164666,1665608713.165106,82.000000,0.000000,4290.512695,4293.717773,4292.179688,4297.820313,4297.692383,4294.615234,4301.282227,4313.717773,4297.051270,4269.230957,4467.436035,4431.282227,4357.948730,4425.384766,2687.000000,4.000000,90.000000,,,,0.000000,4.000000,4.000000,4.000000,4.000000,4.000000,4.000000,4.000000,4.000000,4.000000,4.000000,4.000000,4.000000,4.000000,4.000000,100.000000,,,,,,,,,,,,,,,,,,,,,,,,,,,,,,,,,,,,,,,,,,,,,,,
1665608713.172474,1665608713.172915,83.000000,0.000000,4288.205078,4295.512695,4290.897461,4289.102539,4297.179688,4281.666504,4289.615234,4307.436035,4288.461426,4267.179688,4462.692383,4429.487305,4355.769043,4419.871582,2735.000000,4.000000,90.000000,,,,0.000000,4.000000,4.000000,4.000000,4.000000,4.000000,4.000000,4.000000,4.000000,4.000000,4.000000,4.000000,4.000000,4.000000,4.000000,100.000000,,,,,,,,,,,,,,,,,,,,,,,,,,,,,,,,,,,,,,,,,,,,,,,
1665608713.180282,1665608713.180623,84.000000,0.000000,4272.051270,4281.410156,4280.769043,4280.897461,4296.538574,4276.794922,4276.922852,4297.307617,4281.666504,4262.436035,4459.358887,4420.384766,4350.000000,4405.897461,2545.000000,4.000000,90.000000,,,,0.000000,4.000000,4.000000,4.000000,4.000000,4.000000,4.000000,4.000000,4.000000,4.000000,4.000000,4.000000,4.000000,4.000000,4.000000,100.000000,,,,,,,,,,,,,,,,,,,,,,,,,,,,,,,,,,,,,,,,,,,,,,,
1665608713.188091,1665608713.188532,85.000000,0.000000,4264.743652,4274.487305,4271.153809,4278.589844,4290.000000,4285.256348,4276.282227,4293.461426,4287.692383,4266.794922,4463.333496,4415.897461,4356.282227,4403.846191,2114.000000,4.000000,90.000000,,,,0.000000,4.000000,4.000000,4.000000,4.000000,4.000000,4.000000,4.000000,4.000000,4.000000,4.000000,4.000000,4.000000,4.000000,4.000000,100.000000,,,,,,,,,,,,,,,,,,,,,,,,,,,,,,,,,,,,,,,,,,,,,,,
1665608713.195899,1665608713.196340,86.000000,0.000000,4258.589844,4263.589844,4257.436035,4264.487305,4274.487305,4276.794922,4264.102539,4279.743652,4272.563965,4250.512695,4449.743652,4405.641113,4344.871582,4391.410156,2687.000000,4.000000,90.000000,,,,0.000000,4.000000,4.000000,4.000000,4.000000,4.000000,4.000000,4.000000,4.000000,4.000000,4.000000,4.000000,4.000000,4.000000,4.000000,100.000000,,,,,,,,,,,,,,,,,,,,,,,,,,,,,,,,,,,,,,,,,,,,,,,
1665608713.203708,1665608713.204248,87.000000,0.000000,4265.000000,4259.615234,4263.717773,4265.256348,4281.025879,4273.461426,4267.563965,4282.179688,4269.487305,4247.436035,4448.205078,4410.128418,4341.153809,4389.230957,2735.000000,4.000000,90.000000,,,,0.000000,4.000000,4.000000,4.000000,4.000000,4.000000,4.000000,4.000000,4.000000,4.000000,4.000000,4.000000,4.000000,4.000000,4.000000,100.000000,,,,,,,,,,,,,,,,,,,,,,,,,,,,,,,,,,,,,,,,,,,,,,,
1665608713.211516,1665608713.212057,88.000000,0.000000,4281.025879,4275.769043,4283.589844,4284.871582,4297.051270,4285.512695,4291.282227,4305.512695,4294.230957,4271.282227,4466.922852,4428.974121,4362.179688,4409.487305,2545.000000,4.000000,90.000000,,,,0.000000,4.000000,4.000000,4.000000,4.000000,4.000000,4.000000,4.000000,4.000000,4.000000,4.000000,4.000000,4.000000,4.000000,4.000000,100.000000,,,,,,,,,,,,,,,,,,,,,,,,,,,,,,,,,,,,,,,,,,,,,,,
1665608713.219324,1665608713.219865,89.000000,0.000000,4288.589844,4290.769043,4287.051270,4295.897461,4295.000000,4285.512695,4292.948730,4308.974121,4303.846191,4276.025879,4473.333496,4432.948730,4372.307617,4419.358887,2114.000000,4.000000,90.000000,,,,0.000000,4.000000,4.000000,4.000000,4.000000,4.000000,4.000000,4.000000,4.000000,4.000000,4.000000,4.000000,4.000000,4.000000,4.000000,100.000000,,,,,,,,,,,,,,,,,,,,,,,,,,,,,,,,,,,,,,,,,,,,,,,
1665608713.227133,1665608713.227574,90.000000,0.000000,4288.077148,4290.128418,4281.410156,4297.307617,4292.051270,4279.230957,4283.589844,4298.589844,4294.615234,4265.000000,4467.948730,4429.615234,4363.717773,4414.487305,2687.000000,4.000000,90.000000,,,,0.000000,4.000000,4.000000,4.000000,4.000000,4.000000,4.000000,4.000000,4.000000,4.000000,4.000000,4.000000,4.000000,4.000000,4.000000,100.000000,,,,,,,,,,,,,,,,,,,,,,,,,,,,,,,,,,,,,,,,,,,,,,,
1665608713.234941,1665608713.235482,91.000000,0.000000,4280.256348,4281.922852,4277.179688,4292.307617,4295.256348,4282.179688,4283.205078,4295.512695,4286.794922,4261.922852,4460.128418,4423.717773,4352.051270,4405.897461,2735.000000,4.000000,90.000000,,,,0.000000,4.000000,4.000000,4.000000,4.000000,4.000000,4.000000,4.000000,4.000000,4.000000,4.000000,4.000000,4.000000,4.000000,4.000000,100.000000,,,,,,,,,,,,,,,,,,,,,,,,,,,,,,,,,,,,,,,,,,,,,,,
1665608713.242750,1665608713.243291,92.000000,0.000000,4268.717773,4276.538574,4272.563965,4278.846191,4293.974121,4287.948730,4283.589844,4296.153809,4279.615234,4262.307617,4454.358887,4415.384766,4344.743652,4401.922852,2545.000000,4.000000,90.000000,,,,0.000000,4.000000,4.000000,4.000000,4.000000,4.000000,4.000000,4.000000,4.000000,4.000000,4.000000,4.000000,4.000000,4.000000,4.000000,100.000000,,,,,,,,,,,,,,,,,,,,,,,,,,,,,,,,,,,,,,,,,,,,,,,
1665608713.250558,1665608713.251199,93.000000,0.000000,4267.179688,4277.436035,4272.820313,4275.384766,4293.333496,4290.897461,4288.205078,4299.615234,4280.000000,4263.205078,4458.846191,4415.897461,4345.641113,4408.205078,2114.000000,4.000000,90.000000,,,,0.000000,4.000000,4.000000,4.000000,4.000000,4.000000,4.000000,4.000000,4.000000,4.000000,4.000000,4.000000,4.000000,4.000000,4.000000,100.000000,,,,,,,,,,,,,,,,,,,,,,,,,,,,,,,,,,,,,,,,,,,,,,,
1665608713.258366,1665608713.259008,94.000000,0.000000,4271.538574,4277.820313,4274.230957,4284.615234,4295.512695,4286.666504,4287.820313,4299.487305,4282.179688,4261.538574,4460.512695,4419.871582,4349.487305,4411.794922,2687.000000,4.000000,90.000000,,,,0.000000,4.000000,4.000000,4.000000,4.000000,4.000000,4.000000,4.000000,4.000000,4.000000,4.000000,4.000000,4.000000,4.000000,4.000000,100.000000,,,,,,,,,,,,,,,,,,,,,,,,,,,,,,,,,,,,,,,,,,,,,,,
1665608713.266175,1665608713.266916,95.000000,0.000000,4274.487305,4279.615234,4273.205078,4287.948730,4296.025879,4283.974121,4274.230957,4288.846191,4280.769043,4261.794922,4456.025879,4415.897461,4353.461426,4409.358887,2735.000000,4.000000,90.000000,,,,0.000000,4.000000,4.000000,4.000000,4.000000,4.000000,4.000000,4.000000,4.000000,4.000000,4.000000,4.000000,4.000000,4.000000,4.000000,100.000000,,,,,,,,,,,,,,,,,,,,,,,,,,,,,,,,,,,,,,,,,,,,,,,
1665608713.273983,1665608713.274724,96.000000,0.000000,4277.436035,4284.743652,4274.230957,4285.512695,4296.538574,4288.461426,4271.794922,4286.025879,4287.307617,4268.333496,4459.102539,4414.102539,4356.538574,4409.871582,2545.000000,4.000000,90.000000,,,,0.000000,4.000000,4.000000,4.000000,4.000000,4.000000,4.000000,4.000000,4.000000,4.000000,4.000000,4.000000,4.000000,4.000000,4.000000,100.000000,,,,,,,,,,,,,,,,,,,,,,,,,,,,,,,,,,,,,,,,,,,,,,,
1665608713.281791,1665608713.282633,97.000000,0.000000,4267.307617,4274.871582,4263.589844,4276.538574,4284.358887,4282.436035,4274.871582,4286.282227,4282.051270,4252.820313,4450.512695,4408.461426,4342.820313,4399.230957,2114.000000,4.000000,90.000000,,,,0.000000,4.000000,4.000000,4.000000,4.000000,4.000000,4.000000,4.000000,4.000000,4.000000,4.000000,4.000000,4.000000,4.000000,4.000000,100.000000,,,,,,,,,,,,,,,,,,,,,,,,,,,,,,,,,,,,,,,,,,,,,,,
1665608713.289600,1665608713.290441,98.000000,0.000000,4260.384766,4266.282227,4256.410156,4273.846191,4271.153809,4274.743652,4272.563965,4288.205078,4271.794922,4238.077148,4439.743652,4405.641113,4333.974121,4392.948730,2687.000000,4.000000,90.000000,,,,0.000000,4.000000,4.000000,4.000000,4.000000,4.000000,4.000000,4.000000,4.000000,4.000000,4.000000,4.000000,4.000000,4.000000,4.000000,100.000000,,,,,,,,,,,,,,,,,,,,,,,,,,,,,,,,,,,,,,,,,,,,,,,
1665608713.297408,1665608713.298150,99.000000,0.000000,4276.794922,4281.666504,4273.077148,4289.358887,4287.436035,4284.871582,4283.461426,4305.384766,4286.410156,4262.948730,4459.487305,4420.641113,4357.051270,4413.589844,2735.000000,4.000000,90.000000,,,,0.000000,4.000000,4.000000,4.000000,4.000000,4.000000,4.000000,4.000000,4.000000,4.000000,4.000000,4.000000,4.000000,4.000000,4.000000,100.000000,,,,,,,,,,,,,,,,,,,,,,,,,,,,,,,,,,,,,,,,,,,,,,,
1665608713.305216,1665608713.305958,100.000000,0.000000,4283.846191,4288.077148,4280.769043,4295.769043,4297.307617,4291.282227,4295.512695,4308.846191,4297.179688,4275.897461,4472.307617,4428.846191,4370.512695,4421.922852,2545.000000,4.000000,90.000000,,,,0.000000,4.000000,4.000000,4.000000,4.000000,4.000000,4.000000,4.000000,4.000000,4.000000,4.000000,4.000000,4.000000,4.000000,4.000000,100.000000,,,,,,,,,,,,,,,,,,,,,,,,,,,,,,,,,,,,,,,,,,,,,,,
1665608713.313025,1665608713.313667,101.000000,0.000000,4272.307617,4276.538574,4271.794922,4286.922852,4282.563965,4285.512695,4292.307617,4299.358887,4292.436035,4260.000000,4462.948730,4422.051270,4362.179688,4411.538574,2114.000000,4.000000,90.000000,,,,0.000000,4.000000,4.000000,4.000000,4.000000,4.000000,4.000000,4.000000,4.000000,4.000000,4.000000,4.000000,4.000000,4.000000,4.000000,100.000000,,,,,,,,,,,,,,,,,,,,,,,,,,,,,,,,,,,,,,,,,,,,,,,
1665608713.320833,1665608713.321575,102.000000,0.000000,4278.333496,4286.666504,4279.487305,4292.051270,4287.692383,4289.358887,4292.436035,4309.615234,4301.282227,4267.692383,4467.948730,4428.205078,4372.436035,4421.025879,2687.000000,4.000000,90.000000,,,,0.000000,4.000000,4.000000,4.000000,4.000000,4.000000,4.000000,4.000000,4.000000,4.000000,4.000000,4.000000,4.000000,4.000000,4.000000,100.000000,,,,,,,,,,,,,,,,,,,,,,,,,,,,,,,,,,,,,,,,,,,,,,,
1665608713.328642,1665608713.329383,103.000000,0.000000,4292.436035,4297.820313,4290.512695,4303.333496,4306.025879,4293.589844,4298.077148,4321.794922,4306.666504,4282.436035,4480.256348,4437.051270,4384.871582,4430.000000,2735.000000,4.000000,90.000000,,,,0.000000,4.000000,4.000000,4.000000,4.000000,4.000000,4.000000,4.000000,4.000000,4.000000,4.000000,4.000000,4.000000,4.000000,4.000000,100.000000,,,,,,,,,,,,,,,,,,,,,,,,,,,,,,,,,,,,,,,,,,,,,,,
1665608713.336450,1665608713.337192,104.000000,0.000000,4284.487305,4285.641113,4282.307617,4296.282227,4300.128418,4289.615234,4297.179688,4312.692383,4295.128418,4277.051270,4476.794922,4432.051270,4371.794922,4419.358887,2545.000000,4.000000,90.000000,,,,0.000000,4.000000,4.000000,4.000000,4.000000,4.000000,4.000000,4.000000,4.000000,4.000000,4.000000,4.000000,4.000000,4.000000,4.000000,100.000000,,,,,,,,,,,,,,,,,,,,,,,,,,,,,,,,,,,,,,,,,,,,,,,
1665608713.344258,1665608713.344900,105.000000,0.000000,4278.589844,4288.846191,4280.897461,4291.794922,4287.179688,4291.282227,4292.307617,4298.974121,4293.461426,4274.615234,4470.512695,4424.743652,4362.948730,4414.615234,2114.000000,4.000000,90.000000,,,,0.000000,4.000000,4.000000,4.000000,4.000000,4.000000,4.000000,4.000000,4.000000,4.000000,4.000000,4.000000,4.000000,4.000000,4.000000,100.000000,,,,,,,,,,,,,,,,,,,,,,,,,,,,,,,,,,,,,,,,,,,,,,,
1665608713.352067,1665608713.352709,106.000000,0.000000,4284.358887,4296.538574,4285.256348,4297.436035,4291.922852,4293.205078,4291.538574,4298.205078,4296.794922,4273.717773,4467.436035,4426.025879,4367.692383,4419.615234,2687.000000,4.000000,90.000000,,,,0.000000,4.000000,4.000000,4.000000,4.000000,4.000000,4.000000,4.000000,4.000000,4.000000,4.000000,4.000000,4.000000,4.000000,4.000000,100.000000,,,,,,,,,,,,,,,,,,,,,,,,,,,,,,,,,,,,,,,,,,,,,,,
1665608713.359875,1665608713.360417,107.000000,0.000000,4277.307617,4282.948730,4278.333496,4295.512695,4297.692383,4292.051270,4291.666504,4297.692383,4284.230957,4262.820313,4459.230957,4424.743652,4359.487305,4410.000000,2735.000000,4.000000,90.000000,,,,0.000000,4.000000,4.000000,4.000000,4.000000,4.000000,4.000000,4.000000,4.000000,4.000000,4.000000,4.000000,4.000000,4.000000,4.000000,100.000000,,,,,,,,,,,,,,,,,,,,,,,,,,,,,,,,,,,,,,,,,,,,,,,
1665608713.367684,1665608713.368226,108.000000,0.000000,4270.128418,4280.897461,4275.897461,4293.589844,4298.589844,4296.282227,4295.256348,4294.615234,4273.333496,4259.102539,4455.512695,4419.358887,4350.512695,4398.077148,2545.000000,4.000000,90.000000,,,,0.000000,4.000000,4.000000,4.000000,4.000000,4.000000,4.000000,4.000000,4.000000,4.000000,4.000000,4.000000,4.000000,4.000000,4.000000,100.000000,,,,,,,,,,,,,,,,,,,,,,,,,,,,,,,,,,,,,,,,,,,,,,,
1665608713.375492,1665608713.375934,109.000000,0.000000,4272.436035,4287.692383,4276.538574,4296.794922,4296.922852,4296.794922,4293.717773,4292.692383,4279.487305,4255.256348,4457.820313,4418.077148,4352.179688,4398.846191,2114.000000,4.000000,90.000000,,,,0.000000,4.000000,4.000000,4.000000,4.000000,4.000000,4.000000,4.000000,4.000000,4.000000,4.000000,4.000000,4.000000,4.000000,4.000000,100.000000,,,,,,,,,,,,,,,,,,,,,,,,,,,,,,,,,,,,,,,,,,,,,,,
1665608713.383300,1665608713.383743,110.000000,0.000000,4268.333496,4278.589844,4271.410156,4294.358887,4289.871582,4286.282227,4284.102539,4294.102539,4286.282227,4240.256348,4453.205078,4418.589844,4351.025879,4400.897461,2687.000000,4.000000,90.000000,,,,0.000000,4.000000,4.000000,4.000000,4.000000,4.000000,4.000000,4.000000,4.000000,4.000000,4.000000,4.000000,4.000000,4.000000,4.000000,100.000000,,,,,,,,,,,,,,,,,,,,,,,,,,,,,,,,,,,,,,,,,,,,,,,
1665608713.391109,1665608713.391451,111.000000,0.000000,4272.436035,4283.846191,4278.717773,4292.436035,4294.230957,4287.051270,4285.128418,4301.282227,4286.282227,4250.897461,4458.333496,4427.563965,4358.717773,4413.589844,2735.000000,4.000000,90.000000,,,,0.000000,4.000000,4.000000,4.000000,4.000000,4.000000,4.000000,4.000000,4.000000,4.000000,4.000000,4.000000,4.000000,4.000000,4.000000,100.000000,,,,,,,,,,,,,,,,,,,,,,,,,,,,,,,,,,,,,,,,,,,,,,,
1665608713.398917,1665608713.399260,112.000000,0.000000,4285.256348,4298.205078,4291.153809,4295.769043,4298.717773,4298.974121,4297.563965,4308.846191,4285.128418,4278.589844,4473.717773,4436.410156,4372.692383,4430.641113,2545.000000,4.000000,90.000000,,,,0.000000,4.000000,4.000000,4.000000,4.000000,4.000000,4.000000,4.000000,4.000000,4.000000,4.000000,4.000000,4.000000,4.000000,4.000000,100.000000,,,,,,,,,,,,,,,,,,,,,,,,,,,,,,,,,,,,,,,,,,,,,,,
1665608713.406725,1665608713.406968,113.000000,0.000000,4283.077148,4286.794922,4287.563965,4293.589844,4286.922852,4297.692383,4297.948730,4312.051270,4292.307617,4276.282227,4476.410156,4435.128418,4373.461426,4428.077148,2114.000000,4.000000,90.000000,,,,0.000000,4.000000,4.000000,4.000000,4.000000,4.000000,4.000000,4.000000,4.000000,4.000000,4.000000,4.000000,4.000000,4.000000,4.000000,100.000000,,,,,,,,,,,,,,,,,,,,,,,,,,,,,,,,,,,,,,,,,,,,,,,
1665608713.414534,1665608713.414777,114.000000,0.000000,4283.461426,4280.769043,4287.307617,4292.436035,4283.077148,4288.974121,4294.230957,4315.256348,4307.051270,4271.410156,4476.025879,4435.641113,4374.871582,4425.256348,2687.000000,4.000000,90.000000,,,,0.000000,4.000000,4.000000,4.000000,4.000000,4.000000,4.000000,4.000000,4.000000,4.000000,4.000000,4.000000,4.000000,4.000000,4.000000,100.000000,,,,,,,,,,,,,,,,,,,,,,,,,,,,,,,,,,,,,,,,,,,,,,,
1665608713.422342,1665608713.422485,115.000000,0.000000,4297.948730,4293.589844,4299.358887,4299.615234,4293.589844,4290.000000,4302.820313,4323.461426,4314.230957,4287.307617,4487.436035,4443.846191,4385.897461,4437.948730,2735.000000,4.000000,90.000000,,,,0.000000,4.000000,4.000000,4.000000,4.000000,4.000000,4.000000,4.000000,4.000000,4.000000,4.000000,4.000000,4.000000,4.000000,4.000000,100.000000,,,,,,,,,,,,,,,,,,,,,,,,,,,,,,,,,,,,,,,,,,,,,,,
1665608713.430151,1665608713.430394,116.000000,0.000000,4297.820313,4291.538574,4300.512695,4302.436035,4295.256348,4296.025879,4308.589844,4324.358887,4311.794922,4290.256348,4492.820313,4445.000000,4388.333496,4440.769043,2545.000000,4.000000,90.000000,,,,0.000000,4.000000,4.000000,4.000000,4.000000,4.000000,4.000000,4.000000,4.000000,4.000000,4.000000,4.000000,4.000000,4.000000,4.000000,100.000000,,,,,,,,,,,,,,,,,,,,,,,,,,,,,,,,,,,,,,,,,,,,,,,
1665608713.437959,1665608713.438202,117.000000,0.000000,4288.205078,4280.128418,4293.717773,4296.538574,4291.922852,4295.512695,4302.436035,4317.948730,4307.563965,4281.282227,4484.102539,4441.666504,4381.922852,4428.717773,2114.000000,4.000000,90.000000,,,,0.000000,4.000000,4.000000,4.000000,4.000000,4.000000,4.000000,4.000000,4.000000,4.000000,4.000000,4.000000,4.000000,4.000000,4.000000,100.000000,,,,,,,,,,,,,,,,,,,,,,,,,,,,,,,,,,,,,,,,,,,,,,,
1665608713.445767,1665608713.446111,118.000000,0.000000,4289.615234,4281.282227,4292.307617,4293.846191,4292.820313,4293.077148,4297.051270,4312.307617,4304.487305,4280.897461,4476.666504,4440.256348,4380.000000,4425.512695,2687.000000,4.000000,90.000000,,,,0.000000,4.000000,4.000000,4.000000,4.000000,4.000000,4.000000,4.000000,4.000000,4.000000,4.000000,4.000000,4.000000,4.000000,4.000000,100.000000,,,,,,,,,,,,,,,,,,,,,,,,,,,,,,,,,,,,,,,,,,,,,,,
1665608713.453576,1665608713.453919,119.000000,0.000000,4283.974121,4281.922852,4285.897461,4296.410156,4284.871582,4292.948730,4292.820313,4298.717773,4294.102539,4270.384766,4470.769043,4432.563965,4370.128418,4423.205078,2735.000000,4.000000,90.000000,,,,0.000000,4.000000,4.000000,4.000000,4.000000,4.000000,4.000000,4.000000,4.000000,4.000000,4.000000,4.000000,4.000000,4.000000,4.000000,100.000000,,,,,,,,,,,,,,,,,,,,,,,,,,,,,,,,,,,,,,,,,,,,,,,
1665608713.461384,1665608713.461827,120.000000,0.000000,4273.974121,4275.000000,4275.128418,4293.589844,4275.897461,4287.820313,4291.025879,4294.230957,4279.102539,4257.563965,4468.205078,4425.384766,4358.461426,4413.717773,2545.000000,4.000000,90.000000,,,,0.000000,4.000000,4.000000,4.000000,4.000000,4.000000,4.000000,4.000000,4.000000,4.000000,4.000000,4.000000,4.000000,4.000000,4.000000,100.000000,,,,,,,,,,,,,,,,,,,,,,,,,,,,,,,,,,,,,,,,,,,,,,,
1665608713.469192,1665608713.469636,121.000000,0.000000,4279.102539,4276.410156,4281.025879,4293.974121,4285.641113,4282.948730,4296.794922,4315.897461,4287.051270,4272.307617,4476.410156,4436.922852,4369.615234,4418.589844,2114.000000,4.000000,90.000000,,,,0.000000,4.000000,4.000000,4.000000,4.000000,4.000000,4.000000,4.000000,4.000000,4.000000,4.000000,4.000000,4.000000,4.000000,4.000000,100.000000,,,,,,,,,,,,,,,,,,,,,,,,,,,,,,,,,,,,,,,,,,,,,,,
1665608713.477001,1665608713.477544,122.000000,0.000000,4285.769043,4282.307617,4293.589844,4300.000000,4293.333496,4283.077148,4298.974121,4325.769043,4306.410156,4286.922852,4480.769043,4445.256348,4383.077148,4427.820313,2687.000000,4.000000,90.000000,,,,0.000000,4.000000,4.000000,4.000000,4.000000,4.000000,4.000000,4.000000,4.000000,4.000000,4.000000,4.000000,4.000000,4.000000,4.000000,100.000000,,,,,,,,,,,,,,,,,,,,,,,,,,,,,,,,,,,,,,,,,,,,,,,
1665608713.484809,1665608713.485353,123.000000,0.000000,4281.025879,4281.922852,4284.615234,4299.102539,4284.743652,4283.205078,4291.025879,4308.974121,4306.153809,4277.563965,4472.948730,4434.358887,4371.282227,4418.846191,2735.000000,4.000000,90.000000,,,,0.000000,4.000000,4.000000,4.000000,4.000000,4.000000,4.000000,4.000000,4.000000,4.000000,4.000000,4.000000,4.000000,4.000000,4.000000,100.000000,,,,,,,,,,,,,,,,,,,,,,,,,,,,,,,,,,,,,,,,,,,,,,,
1665608713.492617,1665608713.493061,124.000000,0.000000,4276.025879,4280.128418,4274.102539,4295.512695,4279.102539,4288.077148,4292.563965,4303.974121,4296.153809,4264.230957,4469.487305,4426.153809,4357.563965,4408.333496,2545.000000,4.000000,90.000000,,,,0.000000,4.000000,4.000000,4.000000,4.000000,4.000000,4.000000,4.000000,4.000000,4.000000,4.000000,4.000000,4.000000,4.000000,4.000000,100.000000,,,,,,,,,,,,,,,,,,,,,,,,,,,,,,,,,,,,,,,,,,,,,,,
1665608713.500426,1665608713.500870,125.000000,0.000000,4276.025879,4282.179688,4281.153809,4297.948730,4282.820313,4296.666504,4298.077148,4310.769043,4292.692383,4262.692383,4474.743652,4429.743652,4362.563965,4412.436035,2114.000000,4.000000,90.000000,,,,0.000000,4.000000,4.000000,4.000000,4.000000,4.000000,4.000000,4.000000,4.000000,4.000000,4.000000,4.000000,4.000000,4.000000,4.000000,100.000000,,,,,,,,,,,,,,,,,,,,,,,,,,,,,,,,,,,,,,,,,,,,,,,
1665608713.508234,1665608713.508578,126.000000,0.000000,4275.000000,4281.794922,4280.641113,4297.692383,4281.025879,4289.871582,4283.333496,4301.410156,4285.384766,4263.077148,4467.563965,4429.615234,4362.179688,4412.948730,2687.000000,4.000000,90.000000,,,,0.000000,4.000000,4.000000,4.000000,4.000000,4.000000,4.000000,4.000000,4.000000,4.000000,4.000000,4.000000,4.000000,4.000000,4.000000,100.000000,,,,,,,,,,,,,,,,,,,,,,,,,,,,,,,,,,,,,,,,,,,,,,,
1665608713.516043,1665608713.516387,127.000000,0.000000,4275.641113,4278.589844,4272.051270,4294.102539,4276.025879,4277.820313,4270.897461,4289.743652,4277.179688,4259.230957,4455.897461,4422.692383,4355.641113,4404.871582,90.000000,4.000000,90.000000,,,,0.000000,4.000000,4.000000,4.000000,4.000000,4.000000,4.000000,4.000000,4.000000,4.000000,4.000000,4.000000,4.000000,4.000000,4.000000,100.000000,,,,,,,,,,,,,,,,,,,,,,,,,,,,,,,,,,,,,,,,,,,,,,,
1665608713.523851,1665608713.524095,0.000000,0.000000,4281.538574,4282.692383,4279.615234,4298.589844,4283.205078,4287.051270,4284.871582,4295.641113,4282.692383,4263.589844,4464.102539,4427.948730,4362.051270,4409.871582,2359.000000,4.000000,90.000000,,,,0.000000,4.000000,4.000000,4.000000,4.000000,4.000000,4.000000,4.000000,4.000000,4.000000,4.000000,4.000000,4.000000,4.000000,4.000000,100.000000,,,,,,,,,,,,,,,,,,,,,,,,,,,,,,,,,,,,,,,,,,,,,,,
1665608713.531659,1665608713.531904,1.000000,0.000000,4278.077148,4282.436035,4279.615234,4293.717773,4282.563965,4290.128418,4286.794922,4298.974121,4279.743652,4262.820313,4467.820313,4429.230957,4361.922852,4413.974121,2319.000000,4.000000,90.000000,,,,0.000000,4.000000,4.000000,4.000000,4.000000,4.000000,4.000000,4.000000,4.000000,4.000000,4.000000,4.000000,4.000000,4.000000,4.000000,100.000000,,,,,,,,,,,,,,,,,,,,,,,,,,,,,,,,,,,,,,,,,,,,,,,
1665608713.539468,1665608713.539612,2.000000,0.000000,4271.666504,4274.487305,4267.563965,4280.512695,4271.153809,4279.102539,4272.948730,4298.205078,4275.897461,4257.692383,4459.487305,4424.102539,4355.128418,4406.922852,2297.000000,4.000000,90.000000,,,,0.000000,4.000000,4.000000,4.000000,4.000000,4.000000,4.000000,4.000000,4.000000,4.000000,4.000000,4.000000,4.000000,4.000000,4.000000,100.000000,,,,,,,,,,,,,,,,,,,,,,,,,,,,,,,,,,,,,,,,,,,,,,,
1665608713.547276,1665608713.547421,3.000000,0.000000,4279.102539,4278.333496,4275.384766,4288.974121,4283.077148,4286.025879,4282.436035,4306.922852,4294.871582,4268.205078,4468.974121,4433.333496,4366.282227,4413.846191,2429.000000,4.000000,90.000000,,,,0.000000,4.000000,4.000000,4.000000,4.000000,4.000000,4.000000,4.000000,4.000000,4.000000,4.000000,4.000000,4.000000,4.000000,4.000000,100.000000,,,,,,,,,,,,,,,,,,,,,,,,,,,,,,,,,,,,,,,,,,,,,,,
1665608713.555085,1665608713.555129,4.000000,0.000000,4287.307617,4287.436035,4287.948730,4306.025879,4296.794922,4302.436035,4300.769043,4314.102539,4306.410156,4274.358887,4482.051270,4443.846191,4378.077148,4427.820313,2433.000000,4.000000,90.000000,,,,0.000000,4.000000,4.000000,4.000000,4.000000,4.000000,4.000000,4.000000,4.000000,4.000000,4.000000,4.000000,4.000000,4.000000,4.000000,100.000000,,,,,,,,,,,,,,,,,,,,,,,,,,,,,,,,,,,,,,,,,,,,,,,
1665608713.562893,1665608713.562938,5.000000,0.000000,4280.384766,4281.922852,4278.589844,4303.205078,4287.563965,4305.897461,4295.128418,4313.077148,4297.692383,4269.871582,4477.051270,4436.153809,4368.461426,4421.666504,1644.000000,4.000000,90.000000,,,,0.000000,4.000000,4.000000,4.000000,4.000000,4.000000,4.000000,4.000000,4.000000,4.000000,4.000000,4.000000,4.000000,4.000000,4.000000,100.000000,1.000000,100.000000,4.000000,4.000000,4.000000,4.000000,4.000000,4.000000,4.000000,4.000000,4.000000,4.000000,4.000000,4.000000,4.000000,4.000000,1.000000,0.588869,-0.183532,-1.053908,0.347542,1.000000,0.317486,6.175645,2.735559,13.570966,0.545274,1.000000,0.452334,102.222824,-376.995697,660.832581,1.000000,0.478288,0.132713,0.116491,0.320502,1.000000,0.565211,6.495005,-6.157704,17.269451,1.000000,0.483475,0.483475,0.000000,1.000000
1665608713.570701,1665608713.570646,6.000000,0.000000,4269.487305,4269.102539,4265.384766,4288.461426,4277.307617,4298.461426,4280.641113,4308.205078,4296.666504,4269.487305,4466.794922,4428.461426,4355.897461,4404.230957,2291.000000,4.000000,90.000000,,,,0.000000,4.000000,4.000000,4.000000,4.000000,4.000000,4.000000,4.000000,4.000000,4.000000,4.000000,4.000000,4.000000,4.000000,4.000000,100.000000,,,,,,,,,,,,,,,,,,,,,,,,,,,,,,,,,,,,,,,,,,,,,,,
1665608713.578510,1665608713.578455,7.000000,0.000000,4263.333496,4261.410156,4263.717773,4279.487305,4273.077148,4288.846191,4280.256348,4300.384766,4291.922852,4260.128418,4456.410156,4427.436035,4344.487305,4397.051270,2353.000000,4.000000,90.000000,,,,0.000000,4.000000,4.000000,4.000000,4.000000,4.000000,4.000000,4.000000,4.000000,4.000000,4.000000,4.000000,4.000000,4.000000,4.000000,100.000000,,,,,,,,,,,,,,,,,,,,,,,,,,,,,,,,,,,,,,,,,,,,,,,
1665608713.586318,1665608713.586163,8.000000,0.000000,4259.615234,4256.666504,4260.897461,4276.410156,4262.948730,4282.179688,4283.205078,4291.666504,4268.846191,4240.256348,4447.179688,4417.820313,4332.436035,4394.743652,2406.000000,4.000000,90.000000,,,,0.000000,4.000000,4.000000,4.000000,4.000000,4.000000,4.000000,4.000000,4.000000,4.000000,4.000000,4.000000,4.000000,4.000000,4.000000,100.000000,,,,,,,,,,,,,,,,,,,,,,,,,,,,,,,,,,,,,,,,,,,,,,,
1665608713.594126,1665608713.594071,9.000000,0.000000,4262.307617,4258.461426,4259.615234,4279.615234,4261.794922,4281.666504,4277.436035,4295.897461,4267.563965,4244.358887,4452.563965,4414.743652,4337.307617,4393.077148,2391.000000,4.000000,90.000000,,,,0.000000,4.000000,4.000000,4.000000,4.000000,4.000000,4.000000,4.000000,4.000000,4.000000,4.000000,4.000000,4.000000,4.000000,4.000000,100.000000,,,,,,,,,,,,,,,,,,,,,,,,,,,,,,,,,,,,,,,,,,,,,,,
1665608713.601935,1665608713.601880,10.000000,0.000000,4268.333496,4265.641113,4270.641113,4285.256348,4275.641113,4287.948730,4276.025879,4303.846191,4288.461426,4264.102539,4468.077148,4428.205078,4356.282227,4404.102539,2708.000000,4.000000,90.000000,,,,0.000000,4.000000,4.000000,4.000000,4.000000,4.000000,4.000000,4.000000,4.000000,4.000000,4.000000,4.000000,4.000000,4.000000,4.000000,100.000000,,,,,,,,,,,,,,,,,,,,,,,,,,,,,,,,,,,,,,,,,,,,,,,
1665608713.609743,1665608713.609788,11.000000,0.000000,4269.230957,4265.512695,4279.358887,4285.384766,4282.436035,4293.974121,4280.512695,4300.512695,4293.846191,4268.717773,4470.384766,4434.358887,4361.282227,4409.615234,2747.000000,4.000000,90.000000,,,,0.000000,4.000000,4.000000,4.000000,4.000000,4.000000,4.000000,4.000000,4.000000,4.000000,4.000000,4.000000,4.000000,4.000000,4.000000,100.000000,,,,,,,,,,,,,,,,,,,,,,,,,,,,,,,,,,,,,,,,,,,,,,,
1665608713.617551,1665608713.617597,12.000000,0.000000,4263.333496,4258.589844,4269.615234,4280.641113,4279.615234,4292.436035,4274.743652,4288.589844,4280.897461,4263.333496,4459.102539,4423.333496,4346.922852,4395.897461,2556.000000,4.000000,90.000000,,,,0.000000,4.000000,4.000000,4.000000,4.000000,4.000000,4.000000,4.000000,4.000000,4.000000,4.000000,4.000000,4.000000,4.000000,4.000000,100.000000,,,,,,,,,,,,,,,,,,,,,,,,,,,,,,,,,,,,,,,,,,,,,,,
1665608713.625360,1665608713.625505,13.000000,0.000000,4257.051270,4256.153809,4256.794922,4276.538574,4268.717773,4283.461426,4261.282227,4280.512695,4266.025879,4252.436035,4451.282227,4412.563965,4336.153809,4386.410156,2117.000000,4.000000,90.000000,,,,0.000000,4.000000,4.000000,4.000000,4.000000,4.000000,4.000000,4.000000,4.000000,4.000000,4.000000,4.000000,4.000000,4.000000,4.000000,100.000000,,,,,,,,,,,,,,,,,,,,,,,,,,,,,,,,,,,,,,,,,,,,,,,
1665608713.633168,1665608713.633313,14.000000,0.000000,4262.307617,4263.846191,4264.871582,4280.512695,4264.487305,4282.179688,4265.512695,4290.128418,4269.871582,4250.384766,4459.487305,4416.922852,4347.307617,4398.717773,2708.000000,4.000000,90.000000,,,,0.000000,4.000000,4.000000,4.000000,4.000000,4.000000,4.000000,4.000000,4.000000,4.000000,4.000000,4.000000,4.000000,4.000000,4.000000,100.000000,,,,,,,,,,,,,,,,,,,,,,,,,,,,,,,,,,,,,,,,,,,,,,,
1665608713.640977,1665608713.641222,15.000000,0.000000,4263.461426,4266.922852,4268.333496,4282.051270,4272.436035,4286.410156,4278.077148,4299.230957,4281.666504,4252.820313,4460.512695,4422.692383,4352.563965,4402.436035,2747.000000,4.000000,90.000000,,,,0.000000,4.000000,4.000000,4.000000,4.000000,4.000000,4.000000,4.000000,4.000000,4.000000,4.000000,4.000000,4.000000,4.000000,4.000000,100.000000,,,,,,,,,,,,,,,,,,,,,,,,,,,,,,,,,,,,,,,,,,,,,,,
1665608713.648785,1665608713.649030,16.000000,0.000000,4253.333496,4261.153809,4258.589844,4277.820313,4272.948730,4289.743652,4277.820313,4294.102539,4285.000000,4247.948730,4448.589844,4418.717773,4342.051270,4388.205078,0.000000,4.000000,90.000000,,,,0.000000,4.000000,4.000000,4.000000,4.000000,4.000000,4.000000,4.000000,4.000000,4.000000,4.000000,4.000000,4.000000,4.000000,4.000000,100.000000,,,,,,,,,,,,,,,,,,,,,,,,,,,,,,,,,,,,,,,,,,,,,,,
1665608713.656593,1665608713.656939,17.000000,0.000000,4254.487305,4261.410156,4263.717773,4279.615234,4270.769043,4293.333496,4281.282227,4298.205078,4291.794922,4259.230957,4458.077148,4422.692383,4346.794922,4393.333496,0.000000,4.000000,90.000000,,,,0.000000,4.000000,4.000000,4.000000,4.000000,4.000000,4.000000,4.000000,4.000000,4.000000,4.000000,4.000000,4.000000,4.000000,4.000000,100.000000,,,,,,,,,,,,,,,,,,,,,,,,,,,,,,,,,,,,,,,,,,,,,,,
1665608713.664402,1665608713.664747,18.000000,0.000000,4265.769043,4266.025879,4275.641113,4283.846191,4277.436035,4291.666504,4295.256348,4321.538574,4301.794922,4275.256348,4476.922852,4436.025879,4359.871582,4409.230957,0.000000,4.000000,90.000000,,,,0.000000,4.000000,4.000000,4.000000,4.000000,4.000000,4.000000,4.000000,4.000000,4.000000,4.000000,4.000000,4.000000,4.000000,4.000000,100.000000,,,,,,,,,,,,,,,,,,,,,,,,,,,,,,,,,,,,,,,,,,,,,,,
1665608713.672210,1665608713.672555,19.000000,0.000000,4265.641113,4264.871582,4273.974121,4286.794922,4277.051270,4288.205078,4289.743652,4318.846191,4287.563965,4260.769043,4469.102539,4433.589844,4354.487305,4401.282227,0.000000,4.000000,90.000000,,,,0.000000,4.000000,4.000000,4.000000,4.000000,4.000000,4.000000,4.000000,4.000000,4.000000,4.000000,4.000000,4.000000,4.000000,4.000000,100.000000,,,,,,,,,,,,,,,,,,,,,,,,,,,,,,,,,,,,,,,,,,,,,,,
1665608713.680019,1665608713.680364,20.000000,0.000000,4262.820313,4264.487305,4268.461426,4289.358887,4267.051270,4285.000000,4268.205078,4284.102539,4268.461426,4244.615234,4448.333496,4417.948730,4344.487305,4389.615234,0.000000,4.000000,90.000000,,,,0.000000,4.000000,4.000000,4.000000,4.000000,4.000000,4.000000,4.000000,4.000000,4.000000,4.000000,4.000000,4.000000,4.000000,4.000000,100.000000,,,,,,,,,,,,,,,,,,,,,,,,,,,,,,,,,,,,,,,,,,,,,,,
1665608713.687827,1665608713.688072,21.000000,0.000000,4267.307617,4268.333496,4268.205078,4286.666504,4267.692383,4280.000000,4262.692383,4271.025879,4266.794922,4253.333496,4446.282227,4416.922852,4347.948730,4396.666504,0.000000,4.000000,90.000000,,,,0.000000,4.000000,4.000000,4.000000,4.000000,4.000000,4.000000,4.000000,4.000000,4.000000,4.000000,4.000000,4.000000,4.000000,4.000000,100.000000,,,,,,,,,,,,,,,,,,,,,,,,,,,,,,,,,,,,,,,,,,,,,,,
1665608713.695635,1665608713.695881,22.000000,0.000000,4255.512695,4259.487305,4255.256348,4267.948730,4260.000000,4273.205078,4262.820313,4278.077148,4254.358887,4244.871582,4444.871582,4412.820313,4339.230957,4389.615234,0.000000,4.000000,90.000000,,,,0.000000,4.000000,4.000000,4.000000,4.000000,4.000000,4.000000,4.000000,4.000000,4.000000,4.000000,4.000000,4.000000,4.000000,4.000000,100.000000,,,,,,,,,,,,,,,,,,,,,,,,,,,,,,,,,,,,,,,,,,,,,,,
1665608713.703444,1665608713.703589,23.000000,0.000000,4242.051270,4245.000000,4245.897461,4256.025879,4243.717773,4272.563965,4257.051270,4276.666504,4251.410156,4230.384766,4435.256348,4402.051270,4324.230957,4369.871582,0.000000,4.000000,90.000000,,,,0.000000,4.000000,4.000000,4.000000,4.000000,4.000000,4.000000,4.000000,4.000000,4.000000,4.000000,4.000000,4.000000,4.000000,4.000000,100.000000,,,,,,,,,,,,,,,,,,,,,,,,,,,,,,,,,,,,,,,,,,,,,,,
1665608713.711252,1665608713.711398,24.000000,0.000000,4254.487305,4249.358887,4258.333496,4271.538574,4257.692383,4282.179688,4265.256348,4278.974121,4278.333496,4248.589844,4445.000000,4410.128418,4334.743652,4379.743652,0.000000,4.000000,90.000000,,,,0.000000,4.000000,4.000000,4.000000,4.000000,4.000000,4.000000,4.000000,4.000000,4.000000,4.000000,4.000000,4.000000,4.000000,4.000000,100.000000,,,,,,,,,,,,,,,,,,,,,,,,,,,,,,,,,,,,,,,,,,,,,,,
1665608713.719060,1665608713.719106,25.000000,0.000000,4259.487305,4256.153809,4259.102539,4278.974121,4272.307617,4283.846191,4273.333496,4285.000000,4280.897461,4254.230957,4450.641113,4418.077148,4341.538574,4387.948730,0.000000,4.000000,90.000000,,,,0.000000,4.000000,4.000000,4.000000,4.000000,4.000000,4.000000,4.000000,4.000000,4.000000,4.000000,4.000000,4.000000,4.000000,4.000000,100.000000,,,,,,,,,,,,,,,,,,,,,,,,,,,,,,,,,,,,,,,,,,,,,,,
1665608713.726869,1665608713.726915,26.000000,0.000000,4243.205078,4248.205078,4244.871582,4261.922852,4253.717773,4276.153809,4265.897461,4278.077148,4249.615234,4231.666504,4431.153809,4404.615234,4323.589844,4368.333496,0.000000,4.000000,90.000000,,,,0.000000,4.000000,4.000000,4.000000,4.000000,4.000000,4.000000,4.000000,4.000000,4.000000,4.000000,4.000000,4.000000,4.000000,4.000000,100.000000,,,,,,,,,,,,,,,,,,,,,,,,,,,,,,,,,,,,,,,,,,,,,,,
1665608713.734677,1665608713.734623,27.000000,0.000000,4239.871582,4244.358887,4242.692383,4257.436035,4245.769043,4274.743652,4262.307617,4274.102539,4247.563965,4233.589844,4424.743652,4396.025879,4316.153809,4363.717773,0.000000,4.000000,90.000000,,,,0.000000,4.000000,4.000000,4.000000,4.000000,4.000000,4.000000,4.000000,4.000000,4.000000,4.000000,4.000000,4.000000,4.000000,4.000000,100.000000,,,,,,,,,,,,,,,,,,,,,,,,,,,,,,,,,,,,,,,,,,,,,,,
1665608713.742485,1665608713.742432,28.000000,0.000000,4251.025879,4250.769043,4249.743652,4272.692383,4261.153809,4280.897461,4266.794922,4282.692383,4271.153809,4255.641113,4442.692383,4406.153809,4328.461426,4377.307617,0.000000,4.000000,90.000000,,,,0.000000,4.000000,4.000000,4.000000,4.000000,4.000000,4.000000,4.000000,4.000000,4.000000,4.000000,4.000000,4.000000,4.000000,4.000000,100.000000,,,,,,,,,,,,,,,,,,,,,,,,,,,,,,,,,,,,,,,,,,,,,,,
1665608713.750294,1665608713.750140,29.000000,0.000000,4249.358887,4247.436035,4247.436035,4270.384766,4255.769043,4281.025879,4266.025879,4281.410156,4267.436035,4247.692383,4446.794922,4407.307617,4327.436035,4372.820313,0.000000,4.000000,90.000000,,,,0.000000,4.000000,4.000000,4.000000,4.000000,4.000000,4.000000,4.000000,4.000000,4.000000,4.000000,4.000000,4.000000,4.000000,4.000000,100.000000,,,,,,,,,,,,,,,,,,,,,,,,,,,,,,,,,,,,,,,,,,,,,,,
1665608713.758102,1665608713.758049,30.000000,0.000000,4246.282227,4246.666504,4248.974121,4258.717773,4243.461426,4280.000000,4264.102539,4274.487305,4256.410156,4232.692383,4437.948730,4406.025879,4326.025879,4368.077148,0.000000,4.000000,90.000000,,,,0.000000,4.000000,4.000000,4.000000,4.000000,4.000000,4.000000,4.000000,4.000000,4.000000,4.000000,4.000000,4.000000,4.000000,4.000000,100.000000,,,,,,,,,,,,,,,,,,,,,,,,,,,,,,,,,,,,,,,,,,,,,,,
1665608713.765911,1665608713.765857,31.000000,0.000000,4253.717773,4256.794922,4259.743652,4265.256348,4251.282227,4280.641113,4269.230957,4288.461426,4275.384766,4250.256348,4445.256348,4417.051270,4342.307617,4383.333496,0.000000,4.000000,90.000000,,,,0.000000,4.000000,4.000000,4.000000,4.000000,4.000000,4.000000,4.000000,4.000000,4.000000,4.000000,4.000000,4.000000,4.000000,4.000000,100.000000,,,,,,,,,,,,,,,,,,,,,,,,,,,,,,,,,,,,,,,,,,,,,,,
1665608713.773719,1665608713.773766,32.000000,0.000000,4256.282227,4255.384766,4260.000000,4271.282227,4261.153809,4282.948730,4274.358887,4308.077148,4297.051270,4266.410156,4456.666504,4425.256348,4346.153809,4390.128418,0.000000,4.000000,90.000000,,,,0.000000,4.000000,4.000000,4.000000,4.000000,4.000000,4.000000,4.000000,4.000000,4.000000,4.000000,4.000000,4.000000,4.000000,4.000000,100.000000,,,,,,,,,,,,,,,,,,,,,,,,,,,,,,,,,,,,,,,,,,,,,,,
1665608713.781527,1665608713.781574,33.000000,0.000000,4251.538574,4248.846191,4253.205078,4268.205078,4257.692383,4282.948730,4270.641113,4298.717773,4282.051270,4256.282227,4452.948730,4418.333496,4336.538574,4379.102539,0.000000,4.000000,90.000000,,,,0.000000,4.000000,4.000000,4.000000,4.000000,4.000000,4.000000,4.000000,4.000000,4.000000,4.000000,4.000000,4.000000,4.000000,4.000000,100.000000,,,,,,,,,,,,,,,,,,,,,,,,,,,,,,,,,,,,,,,,,,,,,,,
1665608713.789336,1665608713.789482,34.000000,0.000000,4247.051270,4248.461426,4249.871582,4267.179688,4248.461426,4277.948730,4262.051270,4274.487305,4256.794922,4243.205078,4441.410156,4408.589844,4335.128418,4373.974121,0.000000,4.000000,90.000000,,,,0.000000,4.000000,4.000000,4.000000,4.000000,4.000000,4.000000,4.000000,4.000000,4.000000,4.000000,4.000000,4.000000,4.000000,4.000000,100.000000,,,,,,,,,,,,,,,,,,,,,,,,,,,,,,,,,,,,,,,,,,,,,,,
1665608713.797144,1665608713.797291,35.000000,0.000000,4248.974121,4251.282227,4252.692383,4275.128418,4254.871582,4275.256348,4263.333496,4271.538574,4255.641113,4245.512695,4438.846191,4408.974121,4341.410156,4378.974121,0.000000,4.000000,90.000000,,,,0.000000,4.000000,4.000000,4.000000,4.000000,4.000000,4.000000,4.000000,4.000000,4.000000,4.000000,4.000000,4.000000,4.000000,4.000000,100.000000,,,,,,,,,,,,,,,,,,,,,,,,,,,,,,,,,,,,,,,,,,,,,,,
1665608713.804953,1665608713.805199,36.000000,0.000000,4254.487305,4259.230957,4259.743652,4282.692383,4271.666504,4281.025879,4270.897461,4284.871582,4266.282227,4253.717773,4447.692383,4416.794922,4346.538574,4384.743652,0.000000,4.000000,90.000000,,,,0.000000,4.000000,4.000000,4.000000,4.000000,4.000000,4.000000,4.000000,4.000000,4.000000,4.000000,4.000000,4.000000,4.000000,4.000000,100.000000,,,,,,,,,,,,,,,,,,,,,,,,,,,,,,,,,,,,,,,,,,,,,,,
1665608713.812761,1665608713.813008,37.000000,0.000000,4241.025879,4254.743652,4250.000000,4271.153809,4258.589844,4281.025879,4260.000000,4281.538574,4263.974121,4243.205078,4436.025879,4406.538574,4333.461426,4370.384766,0.000000,4.000000,90.000000,,,,0.000000,4.000000,4.000000,4.000000,4.000000,4.000000,4.000000,4.000000,4.000000,4.000000,4.000000,4.000000,4.000000,4.000000,4.000000,100.000000,,,,,,,,,,,,,,,,,,,,,,,,,,,,,,,,,,,,,,,,,,,,,,,
1665608713.820569,1665608713.820916,38.000000,0.000000,4228.205078,4241.794922,4235.897461,4259.487305,4241.538574,4276.794922,4251.025879,4270.384766,4258.974121,4226.153809,4419.102539,4393.589844,4314.102539,4350.512695,0.000000,4.000000,90.000000,,,,0.000000,4.000000,4.000000,4.000000,4.000000,4.000000,4.000000,4.000000,4.000000,4.000000,4.000000,4.000000,4.000000,4.000000,4.000000,100.000000,,,,,,,,,,,,,,,,,,,,,,,,,,,,,,,,,,,,,,,,,,,,,,,
1665608713.828378,1665608713.828724,39.000000,0.000000,4248.077148,4257.051270,4251.410156,4275.769043,4263.846191,4287.307617,4270.000000,4280.897461,4271.538574,4241.538574,4441.025879,4409.358887,4329.615234,4369.358887,0.000000,4.000000,90.000000,,,,0.000000,4.000000,4.000000,4.000000,4.000000,4.000000,4.000000,4.000000,4.000000,4.000000,4.000000,4.000000,4.000000,4.000000,4.000000,100.000000,,,,,,,,,,,,,,,,,,,,,,,,,,,,,,,,,,,,,,,,,,,,,,,
1665608713.836186,1665608713.836633,40.000000,0.000000,4261.410156,4274.230957,4270.128418,4288.717773,4277.948730,4296.922852,4286.025879,4305.128418,4284.615234,4265.128418,4465.641113,4426.282227,4354.487305,4397.179688,0.000000,4.000000,90.000000,,,,0.000000,4.000000,4.000000,4.000000,4.000000,4.000000,4.000000,4.000000,4.000000,4.000000,4.000000,4.000000,4.000000,4.000000,4.000000,100.000000,,,,,,,,,,,,,,,,,,,,,,,,,,,,,,,,,,,,,,,,,,,,,,,
1665608713.843995,1665608713.844441,41.000000,0.000000,4247.563965,4264.230957,4264.487305,4278.333496,4261.666504,4291.282227,4280.641113,4313.461426,4285.897461,4262.179688,4459.743652,4421.153809,4350.256348,4392.563965,0.000000,4.000000,90.000000,,,,0.000000,4.000000,4.000000,4.000000,4.000000,4.000000,4.000000,4.000000,4.000000,4.000000,4.000000,4.000000,4.000000,4.000000,4.000000,100.000000,,,,,,,,,,,,,,,,,,,,,,,,,,,,,,,,,,,,,,,,,,,,,,,
1665608713.851803,1665608713.852350,42.000000,0.000000,4248.205078,4258.846191,4259.358887,4276.153809,4261.666504,4285.512695,4272.820313,4301.538574,4278.461426,4260.897461,4453.077148,4417.179688,4343.333496,4384.615234,0.000000,4.000000,90.000000,,,,0.000000,4.000000,4.000000,4.000000,4.000000,4.000000,4.000000,4.000000,4.000000,4.000000,4.000000,4.000000,4.000000,4.000000,4.000000,100.000000,,,,,,,,,,,,,,,,,,,,,,,,,,,,,,,,,,,,,,,,,,,,,,,
1665608713.859611,1665608713.860258,43.000000,0.000000,4262.179688,4267.436035,4265.128418,4285.641113,4269.615234,4282.692383,4272.563965,4293.589844,4271.025879,4266.538574,4459.230957,4420.128418,4352.436035,4394.230957,0.000000,4.000000,90.000000,,,,0.000000,4.000000,4.000000,4.000000,4.000000,4.000000,4.000000,4.000000,4.000000,4.000000,4.000000,4.000000,4.000000,4.000000,4.000000,100.000000,,,,,,,,,,,,,,,,,,,,,,,,,,,,,,,,,,,,,,,,,,,,,,,
1665608713.867420,1665608713.868066,44.000000,0.000000,4263.589844,4271.282227,4267.179688,4289.871582,4264.487305,4281.794922,4275.769043,4295.641113,4273.205078,4259.615234,4457.948730,4420.128418,4355.897461,4404.487305,0.000000,4.000000,90.000000,,,,0.000000,4.000000,4.000000,4.000000,4.000000,4.000000,4.000000,4.000000,4.000000,4.000000,4.000000,4.000000,4.000000,4.000000,4.000000,100.000000,,,,,,,,,,,,,,,,,,,,,,,,,,,,,,,,,,,,,,,,,,,,,,,
1665608713.875228,1665608713.875875,45.000000,0.000000,4264.871582,4276.538574,4272.436035,4292.051270,4270.641113,4285.769043,4280.512695,4295.641113,4281.282227,4259.358887,4456.282227,4425.512695,4356.410156,4408.205078,0.000000,4.000000,90.000000,,,,0.000000,4.000000,4.000000,4.000000,4.000000,4.000000,4.000000,4.000000,4.000000,4.000000,4.000000,4.000000,4.000000,4.000000,4.000000,100.000000,,,,,,,,,,,,,,,,,,,,,,,,,,,,,,,,,,,,,,,,,,,,,,,
1665608713.883036,1665608713.883583,46.000000,0.000000,4267.692383,4278.974121,4277.820313,4286.282227,4279.743652,4288.205078,4279.615234,4295.769043,4283.717773,4268.717773,4460.000000,4429.871582,4360.128418,4408.461426,0.000000,4.000000,90.000000,,,,0.000000,4.000000,4.000000,4.000000,4.000000,4.000000,4.000000,4.000000,4.000000,4.000000,4.000000,4.000000,4.000000,4.000000,4.000000,100.000000,,,,,,,,,,,,,,,,,,,,,,,,,,,,,,,,,,,,,,,,,,,,,,,
1665608713.890845,1665608713.891492,47.000000,0.000000,4263.333496,4270.128418,4274.230957,4280.256348,4274.102539,4285.512695,4280.769043,4305.769043,4283.846191,4270.000000,4460.128418,4428.717773,4358.461426,4404.743652,0.000000,4.000000,90.000000,,,,0.000000,4.000000,4.000000,4.000000,4.000000,4.000000,4.000000,4.000000,4.000000,4.000000,4.000000,4.000000,4.000000,4.000000,4.000000,100.000000,,,,,,,,,,,,,,,,,,,,,,,,,,,,,,,,,,,,,,,,,,,,,,,
1665608713.898653,1665608713.899300,48.000000,0.000000,4259.871582,4265.512695,4268.846191,4285.000000,4270.897461,4290.897461,4288.077148,4310.641113,4286.410156,4264.615234,4456.794922,4426.410156,4353.077148,4400.128418,0.000000,4.000000,90.000000,,,,0.000000,4.000000,4.000000,4.000000,4.000000,4.000000,4.000000,4.000000,4.000000,4.000000,4.000000,4.000000,4.000000,4.000000,4.000000,100.000000,,,,,,,,,,,,,,,,,,,,,,,,,,,,,,,,,,,,,,,,,,,,,,,
1665608713.906461,1665608713.907208,49.000000,0.000000,4251.666504,4261.282227,4260.641113,4279.358887,4268.205078,4289.743652,4277.563965,4293.077148,4274.102539,4248.974121,4443.846191,4416.794922,4337.179688,4388.077148,0.000000,4.000000,90.000000,,,,0.000000,4.000000,4.000000,4.000000,4.000000,4.000000,4.000000,4.000000,4.000000,4.000000,4.000000,4.000000,4.000000,4.000000,4.000000,100.000000,,,,,,,,,,,,,,,,,,,,,,,,,,,,,,,,,,,,,,,,,,,,,,,
1665608713.914270,1665608713.915017,50.000000,0.000000,4246.666504,4256.153809,4259.102539,4267.820313,4260.769043,4283.974121,4270.256348,4285.384766,4264.230957,4241.410156,4440.128418,4414.102539,4332.820313,4385.128418,0.000000,4.000000,90.000000,,,,0.000000,4.000000,4.000000,4.000000,4.000000,4.000000,4.000000,4.000000,4.000000,4.000000,4.000000,4.000000,4.000000,4.000000,4.000000,100.000000,,,,,,,,,,,,,,,,,,,,,,,,,,,,,,,,,,,,,,,,,,,,,,,
1665608713.922078,1665608713.922825,51.000000,0.000000,4261.282227,4261.666504,4270.256348,4280.128418,4266.794922,4289.102539,4278.717773,4298.077148,4274.615234,4261.922852,4453.717773,4428.205078,4351.538574,4402.692383,0.000000,4.000000,90.000000,,,,0.000000,4.000000,4.000000,4.000000,4.000000,4.000000,4.000000,4.000000,4.000000,4.000000,4.000000,4.000000,4.000000,4.000000,4.000000,100.000000,,,,,,,,,,,,,,,,,,,,,,,,,,,,,,,,,,,,,,,,,,,,,,,
1665608713.929886,1665608713.930534,52.000000,0.000000,4275.512695,4271.025879,4278.974121,4295.512695,4278.846191,4289.102539,4283.717773,4308.077148,4288.077148,4274.743652,4460.128418,4436.410156,4360.256348,4411.025879,0.000000,4.000000,90.000000,,,,0.000000,4.000000,4.000000,4.000000,4.000000,4.000000,4.000000,4.000000,4.000000,4.000000,4.000000,4.000000,4.000000,4.000000,4.000000,100.000000,,,,,,,,,,,,,,,,,,,,,,,,,,,,,,,,,,,,,,,,,,,,,,,
1665608713.937695,1665608713.938342,53.000000,0.000000,4281.282227,4281.410156,4284.871582,4297.563965,4282.051270,4288.974121,4288.589844,4311.410156,4296.282227,4267.692383,4466.025879,4439.102539,4360.897461,4414.230957,0.000000,4.000000,90.000000,,,,0.000000,4.000000,4.000000,4.000000,4.000000,4.000000,4.000000,4.000000,4.000000,4.000000,4.000000,4.000000,4.000000,4.000000,4.000000,100.000000,,,,,,,,,,,,,,,,,,,,,,,,,,,,,,,,,,,,,,,,,,,,,,,
1665608713.945503,1665608713.946051,54.000000,0.000000,4282.563965,4283.717773,4285.769043,4295.384766,4282.179688,4298.717773,4289.615234,4303.205078,4288.974121,4265.641113,4472.948730,4437.563965,4363.589844,4416.538574,0.000000,4.000000,90.000000,,,,0.000000,4.000000,4.000000,4.000000,4.000000,4.000000,4.000000,4.000000,4.000000,4.000000,4.000000,4.000000,4.000000,4.000000,4.000000,100.000000,,,,,,,,,,,,,,,,,,,,,,,,,,,,,,,,,,,,,,,,,,,,,,,
1665608713.953312,1665608713.953859,55.000000,0.000000,4274.102539,4273.461426,4276.538574,4284.743652,4276.410156,4297.692383,4280.128418,4291.666504,4272.436035,4262.948730,4461.410156,4429.743652,4352.948730,4403.846191,0.000000,4.000000,90.000000,,,,0.000000,4.000000,4.000000,4.000000,4.000000,4.000000,4.000000,4.000000,4.000000,4.000000,4.000000,4.000000,4.000000,4.000000,4.000000,100.000000,,,,,,,,,,,,,,,,,,,,,,,,,,,,,,,,,,,,,,,,,,,,,,,
1665608713.961120,1665608713.961568,56.000000,0.000000,4272.051270,4270.641113,4273.589844,4275.897461,4273.077148,4288.333496,4276.794922,4300.897461,4278.846191,4261.922852,4452.179688,4430.384766,4350.641113,4401.282227,0.000000,4.000000,90.000000,,,,0.000000,4.000000,4.000000,4.000000,4.000000,4.000000,4.000000,4.000000,4.000000,4.000000,4.000000,4.000000,4.000000,4.000000,4.000000,100.000000,,,,,,,,,,,,,,,,,,,,,,,,,,,,,,,,,,,,,,,,,,,,,,,
1665608713.968928,1665608713.969376,57.000000,0.000000,4286.538574,4285.256348,4287.179688,4287.051270,4285.000000,4293.205078,4292.051270,4321.153809,4305.769043,4282.307617,4472.692383,4441.794922,4373.846191,4421.794922,0.000000,4.000000,90.000000,,,,0.000000,4.000000,4.000000,4.000000,4.000000,4.000000,4.000000,4.000000,4.000000,4.000000,4.000000,4.000000,4.000000,4.000000,4.000000,100.000000,,,,,,,,,,,,,,,,,,,,,,,,,,,,,,,,,,,,,,,,,,,,,,,
1665608713.976737,1665608713.977085,58.000000,0.000000,4292.051270,4294.615234,4295.641113,4299.358887,4296.025879,4300.384766,4300.000000,4325.256348,4311.794922,4293.974121,4485.641113,4448.205078,4384.358887,4430.641113,0.000000,4.000000,90.000000,,,,0.000000,4.000000,4.000000,4.000000,4.000000,4.000000,4.000000,4.000000,4.000000,4.000000,4.000000,4.000000,4.000000,4.000000,4.000000,100.000000,,,,,,,,,,,,,,,,,,,,,,,,,,,,,,,,,,,,,,,,,,,,,,,
1665608713.984545,1665608713.984993,59.000000,0.000000,4281.922852,4287.436035,4286.282227,4291.666504,4294.230957,4293.846191,4285.641113,4313.461426,4292.820313,4275.384766,4466.794922,4441.410156,4368.205078,4416.025879,0.000000,4.000000,90.000000,,,,0.000000,4.000000,4.000000,4.000000,4.000000,4.000000,4.000000,4.000000,4.000000,4.000000,4.000000,4.000000,4.000000,4.000000,4.000000,100.000000,,,,,,,,,,,,,,,,,,,,,,,,,,,,,,,,,,,,,,,,,,,,,,,
1665608713.992354,1665608713.992802,60.000000,0.000000,4276.153809,4278.717773,4275.384766,4278.717773,4291.282227,4286.538574,4274.487305,4298.077148,4276.025879,4258.333496,4451.666504,4428.717773,4356.153809,4403.205078,0.000000,4.000000,90.000000,,,,0.000000,4.000000,4.000000,4.000000,4.000000,4.000000,4.000000,4.000000,4.000000,4.000000,4.000000,4.000000,4.000000,4.000000,4.000000,100.000000,,,,,,,,,,,,,,,,,,,,,,,,,,,,,,,,,,,,,,,,,,,,,,,
1665608714.000162,1665608714.000710,61.000000,0.000000,4278.717773,4279.615234,4277.563965,4277.179688,4290.512695,4289.487305,4287.179688,4293.846191,4275.897461,4258.461426,4457.692383,4428.717773,4355.256348,4405.256348,0.000000,4.000000,90.000000,,,,0.000000,4.000000,4.000000,4.000000,4.000000,4.000000,4.000000,4.000000,4.000000,4.000000,4.000000,4.000000,4.000000,4.000000,4.000000,100.000000,,,,,,,,,,,,,,,,,,,,,,,,,,,,,,,,,,,,,,,,,,,,,,,
1665608714.007970,1665608714.008519,62.000000,0.000000,4289.487305,4292.692383,4290.769043,4289.615234,4294.871582,4299.487305,4302.307617,4305.897461,4286.794922,4265.128418,4469.615234,4444.743652,4366.282227,4417.563965,0.000000,4.000000,90.000000,,,,0.000000,4.000000,4.000000,4.000000,4.000000,4.000000,4.000000,4.000000,4.000000,4.000000,4.000000,4.000000,4.000000,4.000000,4.000000,100.000000,,,,,,,,,,,,,,,,,,,,,,,,,,,,,,,,,,,,,,,,,,,,,,,
1665608714.015779,1665608714.016427,63.000000,0.000000,4292.948730,4297.179688,4294.102539,4297.948730,4295.769043,4295.000000,4288.333496,4306.666504,4285.897461,4266.666504,4466.538574,4445.384766,4369.871582,4418.717773,0.000000,4.000000,90.000000,,,,0.000000,4.000000,4.000000,4.000000,4.000000,4.000000,4.000000,4.000000,4.000000,4.000000,4.000000,4.000000,4.000000,4.000000,4.000000,100.000000,,,,,,,,,,,,,,,,,,,,,,,,,,,,,,,,,,,,,,,,,,,,,,,
1665608714.023587,1665608714.024235,64.000000,0.000000,4281.282227,4287.436035,4285.384766,4289.102539,4283.717773,4279.102539,4272.692383,4293.846191,4275.769043,4260.641113,4456.025879,4430.769043,4357.179688,4408.461426,2351.000000,4.000000,90.000000,,,,0.000000,4.000000,4.000000,4.000000,4.000000,4.000000,4.000000,4.000000,4.000000,4.000000,4.000000,4.000000,4.000000,4.000000,4.000000,100.000000,,,,,,,,,,,,,,,,,,,,,,,,,,,,,,,,,,,,,,,,,,,,,,,
1665608714.031395,1665608714.032144,65.000000,0.000000,4283.205078,4292.948730,4292.820313,4291.282227,4281.794922,4279.230957,4287.307617,4305.000000,4288.589844,4270.512695,4469.743652,4439.871582,4367.948730,4419.615234,2299.000000,4.000000,90.000000,,,,0.000000,4.000000,4.000000,4.000000,4.000000,4.000000,4.000000,4.000000,4.000000,4.000000,4.000000,4.000000,4.000000,4.000000,4.000000,100.000000,,,,,,,,,,,,,,,,,,,,,,,,,,,,,,,,,,,,,,,,,,,,,,,
1665608714.039204,1665608714.039952,66.000000,0.000000,4297.692383,4306.538574,4310.512695,4308.717773,4301.282227,4292.948730,4305.769043,4327.820313,4312.563965,4291.666504,4490.641113,4459.358887,4386.410156,4438.717773,2276.000000,4.000000,90.000000,,,,0.000000,4.000000,4.000000,4.000000,4.000000,4.000000,4.000000,4.000000,4.000000,4.000000,4.000000,4.000000,4.000000,4.000000,4.000000,100.000000,,,,,,,,,,,,,,,,,,,,,,,,,,,,,,,,,,,,,,,,,,,,,,,
1665608714.047012,1665608714.047860,67.000000,0.000000,4294.743652,4302.436035,4305.512695,4310.000000,4310.256348,4300.897461,4303.205078,4323.846191,4306.410156,4281.538574,4482.692383,4452.307617,4369.487305,4433.974121,2408.000000,4.000000,90.000000,,,,0.000000,4.000000,4.000000,4.000000,4.000000,4.000000,4.000000,4.000000,4.000000,4.000000,4.000000,4.000000,4.000000,4.000000,4.000000,100.000000,,,,,,,,,,,,,,,,,,,,,,,,,,,,,,,,,,,,,,,,,,,,,,,
1665608714.054820,1665608714.055669,68.000000,0.000000,4287.436035,4289.358887,4289.358887,4293.205078,4299.871582,4295.512695,4292.692383,4305.384766,4285.897461,4261.025879,4464.230957,4437.436035,4355.128418,4420.128418,2418.000000,4.000000,90.000000,,,,0.000000,4.000000,4.000000,4.000000,4.000000,4.000000,4.000000,4.000000,4.000000,4.000000,4.000000,4.000000,4.000000,4.000000,4.000000,100.000000,,,,,,,,,,,,,,,,,,,,,,,,,,,,,,,,,,,,,,,,,,,,,,,
1665608714.062629,1665608714.063377,69.000000,0.000000,4283.333496,4275.897461,4281.922852,4277.307617,4289.102539,4282.051270,4282.179688,4295.897461,4279.615234,4262.179688,4459.743652,4430.769043,4365.000000,4409.230957,1644.000000,4.000000,90.000000,,,,0.000000,4.000000,4.000000,4.000000,4.000000,4.000000,4.000000,4.000000,4.000000,4.000000,4.000000,4.000000,4.000000,4.000000,4.000000,100.000000,1.000000,100.000000,4.000000,4.000000,4.000000,4.000000,4.000000,4.000000,4.000000,4.000000,4.000000,4.000000,4.000000,4.000000,4.000000,4.000000,1.000000,0.594070,-0.147305,-1.053801,0.347471,1.000000,0.299354,5.979185,2.735559,13.570966,0.543634,1.000000,0.445310,96.322365,-376.935455,660.745605,1.000000,0.492133,0.243459,0.116510,0.320496,1.000000,0.555663,6.179695,-6.155989,17.268013,1.000000,0.472002,0.472002,0.000000,1.000000
1665608714.070437,1665608714.071186,70.000000,0.000000,4280.769043,4271.410156,4282.692383,4279.358887,4289.358887,4283.333496,4277.563965,4294.871582,4278.461426,4264.871582,4464.871582,4431.666504,4369.615234,4408.205078,2291.000000,4.000000,90.000000,,,,0.000000,4.000000,4.000000,4.000000,4.000000,4.000000,4.000000,4.000000,4.000000,4.000000,4.000000,4.000000,4.000000,4.000000,4.000000,100.000000,,,,,,,,,,,,,,,,,,,,,,,,,,,,,,,,,,,,,,,,,,,,,,,
1665608714.078246,1665608714.078894,71.000000,0.000000,4287.179688,4284.487305,4289.871582,4293.717773,4296.410156,4295.512695,4290.128418,4302.436035,4284.358887,4267.179688,4475.256348,4438.846191,4374.615234,4423.846191,2327.000000,4.000000,90.000000,,,,0.000000,4.000000,4.000000,4.000000,4.000000,4.000000,4.000000,4.000000,4.000000,4.000000,4.000000,4.000000,4.000000,4.000000,4.000000,100.000000,,,,,,,,,,,,,,,,,,,,,,,,,,,,,,,,,,,,,,,,,,,,,,,
1665608714.086054,1665608714.086703,72.000000,0.000000,4289.358887,4289.230957,4293.589844,4292.307617,4297.051270,4289.615234,4293.333496,4309.358887,4295.384766,4276.153809,4478.974121,4442.948730,4382.948730,4430.512695,2399.000000,4.000000,90.000000,,,,0.000000,4.000000,4.000000,4.000000,4.000000,4.000000,4.000000,4.000000,4.000000,4.000000,4.000000,4.000000,4.000000,4.000000,4.000000,100.000000,,,,,,,,,,,,,,,,,,,,,,,,,,,,,,,,,,,,,,,,,,,,,,,
1665608714.093862,1665608714.094411,73.000000,0.000000,4288.077148,4281.282227,4292.051270,4283.846191,4296.666504,4282.436035,4282.179688,4305.384766,4295.641113,4281.538574,4472.948730,4441.153809,4377.179688,4424.102539,2339.000000,4.000000,90.000000,,,,0.000000,4.000000,4.000000,4.000000,4.000000,4.000000,4.000000,4.000000,4.000000,4.000000,4.000000,4.000000,4.000000,4.000000,4.000000,100.000000,,,,,,,,,,,,,,,,,,,,,,,,,,,,,,,,,,,,,,,,,,,,,,,
1665608714.101671,1665608714.102220,74.000000,0.000000,4295.641113,4283.589844,4298.077148,4291.025879,4301.666504,4292.436035,4287.948730,4309.487305,4293.333496,4277.436035,4474.230957,4446.282227,4371.922852,4433.589844,2685.000000,4.000000,90.000000,,,,0.000000,4.000000,4.000000,4.000000,4.000000,4.000000,4.000000,4.000000,4.000000,4.000000,4.000000,4.000000,4.000000,4.000000,4.000000,100.000000,,,,,,,,,,,,,,,,,,,,,,,,,,,,,,,,,,,,,,,,,,,,,,,
1665608714.109479,1665608714.109928,75.000000,0.000000,4298.846191,4286.153809,4303.205078,4297.307617,4301.794922,4297.051270,4302.307617,4321.282227,4296.282227,4270.897461,4480.000000,4453.589844,4374.615234,4442.051270,2722.000000,4.000000,90.000000,,,,0.000000,4.000000,4.000000,4.000000,4.000000,4.000000,4.000000,4.000000,4.000000,4.000000,4.000000,4.000000,4.000000,4.000000,4.000000,100.000000,,,,,,,,,,,,,,,,,,,,,,,,,,,,,,,,,,,,,,,,,,,,,,,
