title:Psychopy_Vishwadeep_Earphones_Blinking, start timestamp:1665773036.558674, stop timestamp:1665773097.581383, headset type:EPOCX, headset serial:E2020A42, headset firmware:720, channels:86, sampling rate:eeg_128;pm_2, samples:7816      , version:2.1, 
Timestamp,OriginalTimestamp,EEG.Counter,EEG.Interpolated,EEG.AF3,EEG.F7,EEG.F3,EEG.FC5,EEG.T7,EEG.P7,EEG.O1,EEG.O2,EEG.P8,EEG.T8,EEG.FC6,EEG.F4,EEG.F8,EEG.AF4,EEG.RawCq,EEG.Battery,EEG.BatteryPercent,MarkerIndex,MarkerType,MarkerValueInt,EEG.MarkerHardware,CQ.AF3,CQ.F7,CQ.F3,CQ.FC5,CQ.T7,CQ.P7,CQ.O1,CQ.O2,CQ.P8,CQ.T8,CQ.FC6,CQ.F4,CQ.F8,CQ.AF4,CQ.Overall,EQ.SampleRateQuality,EQ.OVERALL,EQ.AF3,EQ.F7,EQ.F3,EQ.FC5,EQ.T7,EQ.P7,EQ.O1,EQ.O2,EQ.P8,EQ.T8,EQ.FC6,EQ.F4,EQ.F8,EQ.AF4,PM.Engagement.IsActive,PM.Engagement.Scaled,PM.Engagement.Raw,PM.Engagement.Min,PM.Engagement.Max,PM.Excitement.IsActive,PM.Excitement.Scaled,PM.Excitement.Raw,PM.Excitement.Min,PM.Excitement.Max,PM.LongTermExcitement,PM.Stress.IsActive,PM.Stress.Scaled,PM.Stress.Raw,PM.Stress.Min,PM.Stress.Max,PM.Relaxation.IsActive,PM.Relaxation.Scaled,PM.Relaxation.Raw,PM.Relaxation.Min,PM.Relaxation.Max,PM.Interest.IsActive,PM.Interest.Scaled,PM.Interest.Raw,PM.Interest.Min,PM.Interest.Max,PM.Focus.IsActive,PM.Focus.Scaled,PM.Focus.Raw,PM.Focus.Min,PM.Focus.Max
1665773036.558674,1665773036.559326,50.000000,0.000000,4264.871582,4249.743652,4293.589844,4282.948730,4296.410156,4278.717773,4288.717773,4297.051270,4274.871582,4244.615234,4460.000000,4468.077148,4309.358887,4404.358887,0.000000,2.000000,50.000000,,,,0.000000,4.000000,4.000000,4.000000,4.000000,4.000000,4.000000,4.000000,4.000000,4.000000,4.000000,4.000000,4.000000,4.000000,4.000000,100.000000,,,,,,,,,,,,,,,,,,,,,,,,,,,,,,,,,,,,,,,,,,,,,,,
1665773036.566483,1665773036.567234,51.000000,0.000000,4263.717773,4250.512695,4290.641113,4288.717773,4296.666504,4281.025879,4286.538574,4294.743652,4279.743652,4250.512695,4458.846191,4465.512695,4312.692383,4409.102539,0.000000,2.000000,50.000000,,,,0.000000,4.000000,4.000000,4.000000,4.000000,4.000000,4.000000,4.000000,4.000000,4.000000,4.000000,4.000000,4.000000,4.000000,4.000000,100.000000,,,,,,,,,,,,,,,,,,,,,,,,,,,,,,,,,,,,,,,,,,,,,,,
1665773036.574291,1665773036.575043,52.000000,0.000000,4265.641113,4248.461426,4291.282227,4284.358887,4293.461426,4288.846191,4294.615234,4287.179688,4281.282227,4251.922852,4457.051270,4473.974121,4312.692383,4411.922852,0.000000,2.000000,50.000000,,,,0.000000,4.000000,4.000000,4.000000,4.000000,4.000000,4.000000,4.000000,4.000000,4.000000,4.000000,4.000000,4.000000,4.000000,4.000000,100.000000,,,,,,,,,,,,,,,,,,,,,,,,,,,,,,,,,,,,,,,,,,,,,,,
1665773036.582100,1665773036.582751,53.000000,0.000000,4273.333496,4249.743652,4293.589844,4283.846191,4294.230957,4290.512695,4293.974121,4288.077148,4286.922852,4247.563965,4460.897461,4478.461426,4311.922852,4412.307617,0.000000,2.000000,50.000000,,,,0.000000,4.000000,4.000000,4.000000,4.000000,4.000000,4.000000,4.000000,4.000000,4.000000,4.000000,4.000000,4.000000,4.000000,4.000000,100.000000,,,,,,,,,,,,,,,,,,,,,,,,,,,,,,,,,,,,,,,,,,,,,,,
1665773036.589908,1665773036.590560,54.000000,0.000000,4271.794922,4250.769043,4292.692383,4292.948730,4295.641113,4287.948730,4288.974121,4295.128418,4290.000000,4244.230957,4460.641113,4475.512695,4311.666504,4410.000000,0.000000,2.000000,50.000000,,,,0.000000,4.000000,4.000000,4.000000,4.000000,4.000000,4.000000,4.000000,4.000000,4.000000,4.000000,4.000000,4.000000,4.000000,4.000000,100.000000,,,,,,,,,,,,,,,,,,,,,,,,,,,,,,,,,,,,,,,,,,,,,,,
1665773036.597716,1665773036.598268,55.000000,0.000000,4269.487305,4252.563965,4294.871582,4295.000000,4294.102539,4289.487305,4295.641113,4292.307617,4285.897461,4254.743652,4459.230957,4477.179688,4318.205078,4406.922852,0.000000,2.000000,50.000000,,,,0.000000,4.000000,4.000000,4.000000,4.000000,4.000000,4.000000,4.000000,4.000000,4.000000,4.000000,4.000000,4.000000,4.000000,4.000000,100.000000,,,,,,,,,,,,,,,,,,,,,,,,,,,,,,,,,,,,,,,,,,,,,,,
1665773036.605525,1665773036.606077,56.000000,0.000000,4275.128418,4252.179688,4291.922852,4292.563965,4298.077148,4296.153809,4302.179688,4294.358887,4288.333496,4267.179688,4461.538574,4479.358887,4327.051270,4406.538574,0.000000,2.000000,50.000000,,,,0.000000,4.000000,4.000000,4.000000,4.000000,4.000000,4.000000,4.000000,4.000000,4.000000,4.000000,4.000000,4.000000,4.000000,4.000000,100.000000,,,,,,,,,,,,,,,,,,,,,,,,,,,,,,,,,,,,,,,,,,,,,,,
1665773036.613333,1665773036.613785,57.000000,0.000000,4271.153809,4242.179688,4282.692383,4294.230957,4297.820313,4296.153809,4297.179688,4307.692383,4298.589844,4255.256348,4462.307617,4477.948730,4323.205078,4407.563965,0.000000,2.000000,50.000000,,,,0.000000,4.000000,4.000000,4.000000,4.000000,4.000000,4.000000,4.000000,4.000000,4.000000,4.000000,4.000000,4.000000,4.000000,4.000000,100.000000,,,,,,,,,,,,,,,,,,,,,,,,,,,,,,,,,,,,,,,,,,,,,,,
1665773036.621142,1665773036.621693,58.000000,0.000000,4265.256348,4232.307617,4283.589844,4294.102539,4284.487305,4291.025879,4292.307617,4310.512695,4295.256348,4244.487305,4460.128418,4477.692383,4315.512695,4405.641113,0.000000,2.000000,50.000000,,,,0.000000,4.000000,4.000000,4.000000,4.000000,4.000000,4.000000,4.000000,4.000000,4.000000,4.000000,4.000000,4.000000,4.000000,4.000000,100.000000,,,,,,,,,,,,,,,,,,,,,,,,,,,,,,,,,,,,,,,,,,,,,,,
1665773036.628950,1665773036.629502,59.000000,0.000000,4275.897461,4231.922852,4290.769043,4297.948730,4281.666504,4293.205078,4295.512695,4309.487305,4282.948730,4259.102539,4461.666504,4485.384766,4318.205078,4408.974121,0.000000,2.000000,50.000000,,,,0.000000,4.000000,4.000000,4.000000,4.000000,4.000000,4.000000,4.000000,4.000000,4.000000,4.000000,4.000000,4.000000,4.000000,4.000000,100.000000,,,,,,,,,,,,,,,,,,,,,,,,,,,,,,,,,,,,,,,,,,,,,,,
1665773036.636758,1665773036.637410,60.000000,0.000000,4283.077148,4237.051270,4289.487305,4305.512695,4294.487305,4297.563965,4300.256348,4316.025879,4279.358887,4263.461426,4462.692383,4489.230957,4318.846191,4410.897461,0.000000,2.000000,50.000000,,,,0.000000,4.000000,4.000000,4.000000,4.000000,4.000000,4.000000,4.000000,4.000000,4.000000,4.000000,4.000000,4.000000,4.000000,4.000000,100.000000,,,,,,,,,,,,,,,,,,,,,,,,,,,,,,,,,,,,,,,,,,,,,,,
1665773036.644567,1665773036.645219,61.000000,0.000000,4276.025879,4239.743652,4289.487305,4303.589844,4297.692383,4292.563965,4297.307617,4318.077148,4281.410156,4248.717773,4460.769043,4485.384766,4312.436035,4408.077148,0.000000,2.000000,50.000000,,,,0.000000,4.000000,4.000000,4.000000,4.000000,4.000000,4.000000,4.000000,4.000000,4.000000,4.000000,4.000000,4.000000,4.000000,4.000000,100.000000,,,,,,,,,,,,,,,,,,,,,,,,,,,,,,,,,,,,,,,,,,,,,,,
1665773036.652375,1665773036.653127,62.000000,0.000000,4278.077148,4239.358887,4293.461426,4297.179688,4292.179688,4287.563965,4292.179688,4314.871582,4283.846191,4248.974121,4462.563965,4486.282227,4312.692383,4411.666504,0.000000,2.000000,50.000000,,,,0.000000,4.000000,4.000000,4.000000,4.000000,4.000000,4.000000,4.000000,4.000000,4.000000,4.000000,4.000000,4.000000,4.000000,4.000000,100.000000,,,,,,,,,,,,,,,,,,,,,,,,,,,,,,,,,,,,,,,,,,,,,,,
1665773036.660184,1665773036.660935,63.000000,0.000000,4276.666504,4234.358887,4287.436035,4294.230957,4293.077148,4286.666504,4292.820313,4293.846191,4277.563965,4253.077148,4458.717773,4477.436035,4311.666504,4408.333496,0.000000,2.000000,50.000000,,,,0.000000,4.000000,4.000000,4.000000,4.000000,4.000000,4.000000,4.000000,4.000000,4.000000,4.000000,4.000000,4.000000,4.000000,4.000000,100.000000,,,,,,,,,,,,,,,,,,,,,,,,,,,,,,,,,,,,,,,,,,,,,,,
1665773036.667992,1665773036.668744,64.000000,0.000000,4271.794922,4232.563965,4285.641113,4293.717773,4296.538574,4283.846191,4295.641113,4272.179688,4274.871582,4240.769043,4451.794922,4464.615234,4304.743652,4397.179688,1798.000000,2.000000,50.000000,,,,0.000000,4.000000,4.000000,4.000000,4.000000,4.000000,4.000000,4.000000,4.000000,4.000000,4.000000,4.000000,4.000000,4.000000,4.000000,100.000000,,,,,,,,,,,,,,,,,,,,,,,,,,,,,,,,,,,,,,,,,,,,,,,
1665773036.675800,1665773036.676452,65.000000,0.000000,4275.000000,4242.948730,4292.051270,4294.871582,4293.205078,4284.871582,4294.358887,4286.794922,4286.666504,4237.820313,4455.128418,4471.410156,4304.487305,4400.256348,2309.000000,2.000000,50.000000,,,,0.000000,4.000000,4.000000,4.000000,4.000000,4.000000,4.000000,4.000000,4.000000,4.000000,4.000000,4.000000,4.000000,4.000000,4.000000,100.000000,,,,,,,,,,,,,,,,,,,,,,,,,,,,,,,,,,,,,,,,,,,,,,,
1665773036.683609,1665773036.684361,66.000000,0.000000,4275.128418,4249.487305,4286.922852,4295.769043,4290.897461,4289.871582,4290.897461,4300.512695,4291.794922,4249.743652,4460.000000,4476.538574,4309.358887,4404.358887,2075.000000,2.000000,50.000000,,,,0.000000,4.000000,4.000000,4.000000,4.000000,4.000000,4.000000,4.000000,4.000000,4.000000,4.000000,4.000000,4.000000,4.000000,4.000000,100.000000,,,,,,,,,,,,,,,,,,,,,,,,,,,,,,,,,,,,,,,,,,,,,,,
1665773036.691417,1665773036.692169,67.000000,0.000000,4270.384766,4241.666504,4278.205078,4294.230957,4293.461426,4286.922852,4285.256348,4290.128418,4284.102539,4251.025879,4459.102539,4469.358887,4312.436035,4395.384766,2119.000000,2.000000,50.000000,,,,0.000000,4.000000,4.000000,4.000000,4.000000,4.000000,4.000000,4.000000,4.000000,4.000000,4.000000,4.000000,4.000000,4.000000,4.000000,100.000000,,,,,,,,,,,,,,,,,,,,,,,,,,,,,,,,,,,,,,,,,,,,,,,
1665773036.699226,1665773036.700078,68.000000,0.000000,4268.846191,4232.179688,4278.589844,4292.179688,4289.487305,4281.794922,4284.487305,4301.666504,4281.025879,4246.282227,4460.128418,4474.871582,4313.974121,4392.051270,2269.000000,2.000000,50.000000,,,,0.000000,4.000000,4.000000,4.000000,4.000000,4.000000,4.000000,4.000000,4.000000,4.000000,4.000000,4.000000,4.000000,4.000000,4.000000,100.000000,,,,,,,,,,,,,,,,,,,,,,,,,,,,,,,,,,,,,,,,,,,,,,,
1665773036.707034,1665773036.707886,69.000000,0.000000,4270.256348,4232.820313,4283.846191,4290.000000,4282.179688,4286.410156,4289.230957,4306.153809,4281.282227,4246.410156,4459.871582,4477.948730,4310.897461,4395.512695,2311.000000,2.000000,50.000000,,,,0.000000,4.000000,4.000000,4.000000,4.000000,4.000000,4.000000,4.000000,4.000000,4.000000,4.000000,4.000000,4.000000,4.000000,4.000000,100.000000,,,,,,,,,,,,,,,,,,,,,,,,,,,,,,,,,,,,,,,,,,,,,,,
1665773036.714842,1665773036.715794,70.000000,0.000000,4273.205078,4234.615234,4287.179688,4288.717773,4288.846191,4293.461426,4291.153809,4285.641113,4278.077148,4246.282227,4456.794922,4470.512695,4312.436035,4396.410156,2024.000000,2.000000,50.000000,,,,0.000000,4.000000,4.000000,4.000000,4.000000,4.000000,4.000000,4.000000,4.000000,4.000000,4.000000,4.000000,4.000000,4.000000,4.000000,100.000000,,,,,,,,,,,,,,,,,,,,,,,,,,,,,,,,,,,,,,,,,,,,,,,
1665773036.722651,1665773036.723603,71.000000,0.000000,4278.717773,4234.615234,4288.333496,4296.538574,4300.512695,4293.717773,4293.717773,4291.922852,4281.794922,4246.922852,4461.025879,4477.307617,4322.307617,4401.794922,2145.000000,2.000000,50.000000,,,,0.000000,4.000000,4.000000,4.000000,4.000000,4.000000,4.000000,4.000000,4.000000,4.000000,4.000000,4.000000,4.000000,4.000000,4.000000,100.000000,,,,,,,,,,,,,,,,,,,,,,,,,,,,,,,,,,,,,,,,,,,,,,,
1665773036.730459,1665773036.731511,72.000000,0.000000,4273.974121,4236.410156,4281.794922,4298.205078,4291.794922,4283.205078,4291.025879,4294.615234,4281.282227,4249.487305,4460.384766,4475.128418,4320.641113,4402.179688,2095.000000,2.000000,50.000000,,,,0.000000,4.000000,4.000000,4.000000,4.000000,4.000000,4.000000,4.000000,4.000000,4.000000,4.000000,4.000000,4.000000,4.000000,4.000000,100.000000,,,,,,,,,,,,,,,,,,,,,,,,,,,,,,,,,,,,,,,,,,,,,,,
1665773036.738268,1665773036.739320,73.000000,0.000000,4265.384766,4230.641113,4277.307617,4285.128418,4277.820313,4272.948730,4278.205078,4270.256348,4272.563965,4248.461426,4453.589844,4461.282227,4310.128418,4391.282227,2334.000000,2.000000,50.000000,,,,0.000000,4.000000,4.000000,4.000000,4.000000,4.000000,4.000000,4.000000,4.000000,4.000000,4.000000,4.000000,4.000000,4.000000,4.000000,100.000000,,,,,,,,,,,,,,,,,,,,,,,,,,,,,,,,,,,,,,,,,,,,,,,
1665773036.746076,1665773036.747228,74.000000,0.000000,4271.025879,4225.256348,4281.153809,4281.922852,4282.436035,4275.256348,4273.589844,4270.641113,4276.538574,4250.256348,4454.102539,4465.769043,4312.307617,4391.538574,2568.000000,2.000000,50.000000,,,,0.000000,4.000000,4.000000,4.000000,4.000000,4.000000,4.000000,4.000000,4.000000,4.000000,4.000000,4.000000,4.000000,4.000000,4.000000,100.000000,,,,,,,,,,,,,,,,,,,,,,,,,,,,,,,,,,,,,,,,,,,,,,,
1665773036.753884,1665773036.755036,75.000000,0.000000,4280.128418,4229.615234,4284.743652,4292.692383,4291.794922,4281.025879,4286.282227,4294.871582,4283.589844,4249.487305,4461.794922,4481.538574,4321.410156,4400.256348,2428.000000,2.000000,50.000000,,,,0.000000,4.000000,4.000000,4.000000,4.000000,4.000000,4.000000,4.000000,4.000000,4.000000,4.000000,4.000000,4.000000,4.000000,4.000000,100.000000,,,,,,,,,,,,,,,,,,,,,,,,,,,,,,,,,,,,,,,,,,,,,,,
1665773036.761693,1665773036.762745,76.000000,0.000000,4281.922852,4233.846191,4286.794922,4297.179688,4293.974121,4284.102539,4294.487305,4296.410156,4280.641113,4245.128418,4468.974121,4484.358887,4323.974121,4400.384766,2531.000000,2.000000,50.000000,,,,0.000000,4.000000,4.000000,4.000000,4.000000,4.000000,4.000000,4.000000,4.000000,4.000000,4.000000,4.000000,4.000000,4.000000,4.000000,100.000000,,,,,,,,,,,,,,,,,,,,,,,,,,,,,,,,,,,,,,,,,,,,,,,
1665773036.769501,1665773036.770653,77.000000,0.000000,4279.871582,4233.974121,4290.128418,4293.333496,4291.922852,4287.436035,4295.384766,4291.794922,4283.846191,4255.641113,4470.000000,4481.666504,4325.769043,4395.384766,3157.000000,2.000000,50.000000,,,,0.000000,4.000000,4.000000,4.000000,4.000000,4.000000,4.000000,4.000000,4.000000,4.000000,4.000000,4.000000,4.000000,4.000000,4.000000,100.000000,,,,,,,,,,,,,,,,,,,,,,,,,,,,,,,,,,,,,,,,,,,,,,,
1665773036.777310,1665773036.778462,78.000000,0.000000,4280.384766,4233.974121,4288.077148,4290.641113,4293.846191,4287.820313,4296.666504,4296.794922,4291.025879,4257.692383,4464.230957,4483.205078,4325.897461,4393.333496,2568.000000,2.000000,50.000000,,,,0.000000,4.000000,4.000000,4.000000,4.000000,4.000000,4.000000,4.000000,4.000000,4.000000,4.000000,4.000000,4.000000,4.000000,4.000000,100.000000,,,,,,,,,,,,,,,,,,,,,,,,,,,,,,,,,,,,,,,,,,,,,,,
1665773036.785118,1665773036.786270,79.000000,0.000000,4280.000000,4234.615234,4284.230957,4294.230957,4294.230957,4289.871582,4296.666504,4297.179688,4291.666504,4245.000000,4460.769043,4482.948730,4322.692383,4397.436035,2428.000000,2.000000,50.000000,,,,0.000000,4.000000,4.000000,4.000000,4.000000,4.000000,4.000000,4.000000,4.000000,4.000000,4.000000,4.000000,4.000000,4.000000,4.000000,100.000000,,,,,,,,,,,,,,,,,,,,,,,,,,,,,,,,,,,,,,,,,,,,,,,
1665773036.792926,1665773036.793979,80.000000,0.000000,4279.615234,4235.769043,4284.871582,4296.410156,4288.589844,4295.897461,4296.794922,4297.179688,4289.871582,4252.948730,4461.794922,4482.179688,4323.461426,4400.897461,2531.000000,2.000000,50.000000,,,,0.000000,4.000000,4.000000,4.000000,4.000000,4.000000,4.000000,4.000000,4.000000,4.000000,4.000000,4.000000,4.000000,4.000000,4.000000,100.000000,,,,,,,,,,,,,,,,,,,,,,,,,,,,,,,,,,,,,,,,,,,,,,,
1665773036.800735,1665773036.801787,81.000000,0.000000,4278.077148,4230.512695,4281.922852,4286.922852,4277.820313,4288.974121,4285.641113,4293.589844,4283.589844,4259.615234,4450.256348,4473.333496,4318.205078,4393.333496,3157.000000,2.000000,50.000000,,,,0.000000,4.000000,4.000000,4.000000,4.000000,4.000000,4.000000,4.000000,4.000000,4.000000,4.000000,4.000000,4.000000,4.000000,4.000000,100.000000,,,,,,,,,,,,,,,,,,,,,,,,,,,,,,,,,,,,,,,,,,,,,,,
1665773036.808543,1665773036.809496,82.000000,0.000000,4275.769043,4219.615234,4275.384766,4283.589844,4275.641113,4280.384766,4275.769043,4293.974121,4276.538574,4244.871582,4442.820313,4467.307617,4310.128418,4387.436035,2568.000000,2.000000,50.000000,,,,0.000000,4.000000,4.000000,4.000000,4.000000,4.000000,4.000000,4.000000,4.000000,4.000000,4.000000,4.000000,4.000000,4.000000,4.000000,100.000000,,,,,,,,,,,,,,,,,,,,,,,,,,,,,,,,,,,,,,,,,,,,,,,
1665773036.816352,1665773036.817304,83.000000,0.000000,4276.025879,4214.102539,4274.871582,4293.205078,4284.743652,4289.871582,4285.000000,4295.512695,4277.820313,4240.512695,4455.512695,4472.948730,4313.077148,4394.358887,2428.000000,2.000000,50.000000,,,,0.000000,4.000000,4.000000,4.000000,4.000000,4.000000,4.000000,4.000000,4.000000,4.000000,4.000000,4.000000,4.000000,4.000000,4.000000,100.000000,,,,,,,,,,,,,,,,,,,,,,,,,,,,,,,,,,,,,,,,,,,,,,,
1665773036.824160,1665773036.825013,84.000000,0.000000,4278.333496,4219.487305,4278.974121,4295.769043,4288.589844,4299.230957,4296.282227,4296.025879,4281.922852,4251.410156,4463.974121,4477.948730,4325.256348,4399.358887,2531.000000,2.000000,50.000000,,,,0.000000,4.000000,4.000000,4.000000,4.000000,4.000000,4.000000,4.000000,4.000000,4.000000,4.000000,4.000000,4.000000,4.000000,4.000000,100.000000,,,,,,,,,,,,,,,,,,,,,,,,,,,,,,,,,,,,,,,,,,,,,,,
1665773036.831968,1665773036.832821,85.000000,0.000000,4280.641113,4229.487305,4279.743652,4296.794922,4283.974121,4294.615234,4297.948730,4300.128418,4282.051270,4251.282227,4460.769043,4479.743652,4332.692383,4397.820313,3157.000000,2.000000,50.000000,,,,0.000000,4.000000,4.000000,4.000000,4.000000,4.000000,4.000000,4.000000,4.000000,4.000000,4.000000,4.000000,4.000000,4.000000,4.000000,100.000000,,,,,,,,,,,,,,,,,,,,,,,,,,,,,,,,,,,,,,,,,,,,,,,
1665773036.839777,1665773036.840530,86.000000,0.000000,4280.641113,4233.846191,4278.333496,4303.077148,4282.563965,4285.256348,4291.025879,4292.179688,4278.974121,4243.846191,4457.820313,4475.128418,4326.794922,4398.333496,2568.000000,2.000000,50.000000,,,,0.000000,4.000000,4.000000,4.000000,4.000000,4.000000,4.000000,4.000000,4.000000,4.000000,4.000000,4.000000,4.000000,4.000000,4.000000,100.000000,,,,,,,,,,,,,,,,,,,,,,,,,,,,,,,,,,,,,,,,,,,,,,,
1665773036.847585,1665773036.848338,87.000000,0.000000,4279.230957,4231.666504,4280.384766,4300.769043,4288.077148,4281.410156,4284.102539,4279.102539,4276.282227,4246.153809,4460.128418,4470.256348,4320.897461,4397.820313,2428.000000,2.000000,50.000000,,,,0.000000,4.000000,4.000000,4.000000,4.000000,4.000000,4.000000,4.000000,4.000000,4.000000,4.000000,4.000000,4.000000,4.000000,4.000000,100.000000,,,,,,,,,,,,,,,,,,,,,,,,,,,,,,,,,,,,,,,,,,,,,,,
1665773036.855394,1665773036.856047,88.000000,0.000000,4278.077148,4231.153809,4284.487305,4294.615234,4289.615234,4282.307617,4286.922852,4286.025879,4278.974121,4254.230957,4461.025879,4475.128418,4323.974121,4394.743652,2531.000000,2.000000,50.000000,,,,0.000000,4.000000,4.000000,4.000000,4.000000,4.000000,4.000000,4.000000,4.000000,4.000000,4.000000,4.000000,4.000000,4.000000,4.000000,100.000000,,,,,,,,,,,,,,,,,,,,,,,,,,,,,,,,,,,,,,,,,,,,,,,
1665773036.863202,1665773036.863855,89.000000,0.000000,4280.256348,4235.256348,4288.333496,4298.717773,4284.358887,4279.102539,4292.051270,4299.230957,4283.333496,4255.384766,4462.179688,4480.769043,4327.820313,4394.871582,3157.000000,2.000000,50.000000,,,,0.000000,4.000000,4.000000,4.000000,4.000000,4.000000,4.000000,4.000000,4.000000,4.000000,4.000000,4.000000,4.000000,4.000000,4.000000,100.000000,,,,,,,,,,,,,,,,,,,,,,,,,,,,,,,,,,,,,,,,,,,,,,,
1665773036.871011,1665773036.871564,90.000000,0.000000,4278.461426,4233.461426,4288.589844,4298.205078,4285.512695,4278.846191,4290.256348,4291.794922,4279.358887,4243.974121,4461.282227,4475.769043,4321.922852,4392.563965,2568.000000,2.000000,50.000000,,,,0.000000,4.000000,4.000000,4.000000,4.000000,4.000000,4.000000,4.000000,4.000000,4.000000,4.000000,4.000000,4.000000,4.000000,4.000000,100.000000,,,,,,,,,,,,,,,,,,,,,,,,,,,,,,,,,,,,,,,,,,,,,,,
1665773036.878819,1665773036.879472,91.000000,0.000000,4277.948730,4232.563965,4288.461426,4295.897461,4295.256348,4290.000000,4296.153809,4290.000000,4277.307617,4242.051270,4460.512695,4480.641113,4320.512695,4393.589844,2428.000000,2.000000,50.000000,,,,0.000000,4.000000,4.000000,4.000000,4.000000,4.000000,4.000000,4.000000,4.000000,4.000000,4.000000,4.000000,4.000000,4.000000,4.000000,100.000000,,,,,,,,,,,,,,,,,,,,,,,,,,,,,,,,,,,,,,,,,,,,,,,
1665773036.886627,1665773036.887281,92.000000,0.000000,4286.153809,4239.615234,4288.077148,4301.922852,4295.641113,4289.615234,4299.102539,4298.717773,4281.282227,4243.717773,4462.692383,4493.846191,4328.461426,4399.102539,2531.000000,2.000000,50.000000,,,,0.000000,4.000000,4.000000,4.000000,4.000000,4.000000,4.000000,4.000000,4.000000,4.000000,4.000000,4.000000,4.000000,4.000000,4.000000,100.000000,,,,,,,,,,,,,,,,,,,,,,,,,,,,,,,,,,,,,,,,,,,,,,,
1665773036.894436,1665773036.895189,93.000000,0.000000,4288.077148,4240.128418,4284.487305,4301.922852,4281.538574,4279.358887,4286.025879,4286.538574,4278.589844,4235.769043,4454.743652,4484.230957,4325.897461,4390.897461,3157.000000,2.000000,50.000000,,,,0.000000,4.000000,4.000000,4.000000,4.000000,4.000000,4.000000,4.000000,4.000000,4.000000,4.000000,4.000000,4.000000,4.000000,4.000000,100.000000,1.000000,100.000000,4.000000,4.000000,4.000000,4.000000,4.000000,4.000000,4.000000,4.000000,4.000000,4.000000,4.000000,4.000000,4.000000,4.000000,1.000000,0.382688,-0.856811,-1.548004,0.657465,1.000000,0.027135,2.722123,2.470082,11.758335,0.218382,1.000000,0.256499,24.310863,-82.688812,289.936920,1.000000,0.124977,0.105358,0.096635,0.242296,1.000000,0.350877,3.914491,-4.339044,17.290596,1.000000,0.403724,0.403724,0.000000,1.000000
1665773036.902244,1665773036.902997,94.000000,0.000000,4278.333496,4233.974121,4280.769043,4292.948730,4278.077148,4283.333496,4285.384766,4276.538574,4276.282227,4237.948730,4445.384766,4470.000000,4317.436035,4379.102539,2568.000000,2.000000,50.000000,,,,0.000000,4.000000,4.000000,4.000000,4.000000,4.000000,4.000000,4.000000,4.000000,4.000000,4.000000,4.000000,4.000000,4.000000,4.000000,100.000000,,,,,,,,,,,,,,,,,,,,,,,,,,,,,,,,,,,,,,,,,,,,,,,
1665773036.910053,1665773036.910906,95.000000,0.000000,4275.256348,4231.794922,4279.487305,4291.025879,4281.282227,4287.179688,4291.282227,4291.153809,4282.436035,4248.461426,4451.153809,4479.487305,4318.461426,4383.333496,2428.000000,2.000000,50.000000,,,,0.000000,4.000000,4.000000,4.000000,4.000000,4.000000,4.000000,4.000000,4.000000,4.000000,4.000000,4.000000,4.000000,4.000000,4.000000,100.000000,,,,,,,,,,,,,,,,,,,,,,,,,,,,,,,,,,,,,,,,,,,,,,,
1665773036.917861,1665773036.918714,96.000000,0.000000,4281.538574,4233.589844,4285.384766,4296.025879,4278.717773,4282.179688,4283.589844,4303.205078,4280.769043,4247.948730,4460.512695,4491.922852,4325.256348,4389.743652,2531.000000,2.000000,50.000000,,,,0.000000,4.000000,4.000000,4.000000,4.000000,4.000000,4.000000,4.000000,4.000000,4.000000,4.000000,4.000000,4.000000,4.000000,4.000000,100.000000,,,,,,,,,,,,,,,,,,,,,,,,,,,,,,,,,,,,,,,,,,,,,,,
1665773036.925669,1665773036.926622,97.000000,0.000000,4281.538574,4234.615234,4294.358887,4295.384766,4284.743652,4287.820313,4282.179688,4295.512695,4277.051270,4244.615234,4459.871582,4489.358887,4325.769043,4388.717773,3157.000000,2.000000,50.000000,,,,0.000000,4.000000,4.000000,4.000000,4.000000,4.000000,4.000000,4.000000,4.000000,4.000000,4.000000,4.000000,4.000000,4.000000,4.000000,100.000000,,,,,,,,,,,,,,,,,,,,,,,,,,,,,,,,,,,,,,,,,,,,,,,
1665773036.933478,1665773036.934431,98.000000,0.000000,4280.769043,4233.461426,4296.538574,4298.333496,4299.230957,4302.179688,4297.051270,4293.333496,4292.051270,4259.615234,4458.717773,4488.461426,4323.974121,4394.743652,2568.000000,2.000000,50.000000,,,,0.000000,4.000000,4.000000,4.000000,4.000000,4.000000,4.000000,4.000000,4.000000,4.000000,4.000000,4.000000,4.000000,4.000000,4.000000,100.000000,,,,,,,,,,,,,,,,,,,,,,,,,,,,,,,,,,,,,,,,,,,,,,,
1665773036.941286,1665773036.942339,99.000000,0.000000,4283.461426,4231.025879,4294.230957,4303.461426,4299.487305,4303.077148,4306.153809,4304.487305,4299.487305,4267.563965,4464.358887,4491.922852,4327.948730,4401.794922,2428.000000,2.000000,50.000000,,,,0.000000,4.000000,4.000000,4.000000,4.000000,4.000000,4.000000,4.000000,4.000000,4.000000,4.000000,4.000000,4.000000,4.000000,4.000000,100.000000,,,,,,,,,,,,,,,,,,,,,,,,,,,,,,,,,,,,,,,,,,,,,,,
1665773036.949095,1665773036.950148,100.000000,0.000000,4281.922852,4236.282227,4295.641113,4300.384766,4294.743652,4296.538574,4306.538574,4305.641113,4282.948730,4257.179688,4464.743652,4491.282227,4332.563965,4400.641113,2531.000000,2.000000,50.000000,,,,0.000000,4.000000,4.000000,4.000000,4.000000,4.000000,4.000000,4.000000,4.000000,4.000000,4.000000,4.000000,4.000000,4.000000,4.000000,100.000000,,,,,,,,,,,,,,,,,,,,,,,,,,,,,,,,,,,,,,,,,,,,,,,
1665773036.956903,1665773036.957856,101.000000,0.000000,4281.538574,4249.358887,4300.256348,4298.461426,4300.897461,4296.666504,4306.666504,4299.487305,4278.846191,4260.384766,4463.077148,4491.153809,4331.025879,4401.666504,3157.000000,2.000000,50.000000,,,,0.000000,4.000000,4.000000,4.000000,4.000000,4.000000,4.000000,4.000000,4.000000,4.000000,4.000000,4.000000,4.000000,4.000000,4.000000,100.000000,,,,,,,,,,,,,,,,,,,,,,,,,,,,,,,,,,,,,,,,,,,,,,,
1665773036.964712,1665773036.965665,102.000000,0.000000,4283.461426,4248.333496,4292.307617,4296.666504,4300.000000,4296.666504,4300.512695,4297.051270,4290.512695,4269.871582,4462.948730,4488.333496,4327.948730,4401.666504,2568.000000,2.000000,50.000000,,,,0.000000,4.000000,4.000000,4.000000,4.000000,4.000000,4.000000,4.000000,4.000000,4.000000,4.000000,4.000000,4.000000,4.000000,4.000000,100.000000,,,,,,,,,,,,,,,,,,,,,,,,,,,,,,,,,,,,,,,,,,,,,,,
1665773036.972520,1665773036.973373,103.000000,0.000000,4281.153809,4236.282227,4280.641113,4284.102539,4285.897461,4286.410156,4288.846191,4288.333496,4284.615234,4256.922852,4454.487305,4472.051270,4326.794922,4391.538574,2428.000000,2.000000,50.000000,,,,0.000000,4.000000,4.000000,4.000000,4.000000,4.000000,4.000000,4.000000,4.000000,4.000000,4.000000,4.000000,4.000000,4.000000,4.000000,100.000000,,,,,,,,,,,,,,,,,,,,,,,,,,,,,,,,,,,,,,,,,,,,,,,
1665773036.980328,1665773036.981182,104.000000,0.000000,4276.538574,4230.769043,4277.948730,4267.563965,4277.307617,4275.000000,4276.410156,4276.410156,4268.717773,4235.256348,4444.615234,4455.000000,4324.615234,4381.153809,2531.000000,2.000000,50.000000,,,,0.000000,4.000000,4.000000,4.000000,4.000000,4.000000,4.000000,4.000000,4.000000,4.000000,4.000000,4.000000,4.000000,4.000000,4.000000,100.000000,,,,,,,,,,,,,,,,,,,,,,,,,,,,,,,,,,,,,,,,,,,,,,,
1665773036.988137,1665773036.988890,105.000000,0.000000,4277.179688,4233.846191,4278.589844,4263.589844,4278.333496,4276.410156,4273.589844,4282.179688,4275.769043,4236.666504,4449.230957,4459.487305,4326.794922,4383.717773,3157.000000,2.000000,50.000000,,,,0.000000,4.000000,4.000000,4.000000,4.000000,4.000000,4.000000,4.000000,4.000000,4.000000,4.000000,4.000000,4.000000,4.000000,4.000000,100.000000,,,,,,,,,,,,,,,,,,,,,,,,,,,,,,,,,,,,,,,,,,,,,,,
1665773036.995945,1665773036.996699,106.000000,0.000000,4280.769043,4241.538574,4280.000000,4269.615234,4280.512695,4281.025879,4279.230957,4290.000000,4287.820313,4244.871582,4460.256348,4468.589844,4334.230957,4392.051270,2568.000000,2.000000,50.000000,,,,0.000000,4.000000,4.000000,4.000000,4.000000,4.000000,4.000000,4.000000,4.000000,4.000000,4.000000,4.000000,4.000000,4.000000,4.000000,100.000000,,,,,,,,,,,,,,,,,,,,,,,,,,,,,,,,,,,,,,,,,,,,,,,
1665773037.003754,1665773037.004407,107.000000,0.000000,4285.769043,4248.589844,4283.589844,4274.102539,4281.538574,4280.000000,4278.461426,4273.974121,4278.589844,4247.820313,4456.282227,4463.974121,4336.025879,4393.974121,2428.000000,2.000000,50.000000,,,,0.000000,4.000000,4.000000,4.000000,4.000000,4.000000,4.000000,4.000000,4.000000,4.000000,4.000000,4.000000,4.000000,4.000000,4.000000,100.000000,,,,,,,,,,,,,,,,,,,,,,,,,,,,,,,,,,,,,,,,,,,,,,,
1665773037.011562,1665773037.012216,108.000000,0.000000,4292.179688,4251.282227,4286.538574,4278.846191,4281.922852,4279.615234,4278.077148,4272.307617,4274.230957,4256.922852,4451.794922,4466.922852,4336.922852,4397.179688,2531.000000,2.000000,50.000000,,,,0.000000,4.000000,4.000000,4.000000,4.000000,4.000000,4.000000,4.000000,4.000000,4.000000,4.000000,4.000000,4.000000,4.000000,4.000000,100.000000,,,,,,,,,,,,,,,,,,,,,,,,,,,,,,,,,,,,,,,,,,,,,,,
1665773037.019370,1665773037.019924,109.000000,0.000000,4291.922852,4249.615234,4287.820313,4279.102539,4280.769043,4282.820313,4279.230957,4298.205078,4285.000000,4257.051270,4461.282227,4481.282227,4341.666504,4399.871582,3157.000000,2.000000,50.000000,,,,0.000000,4.000000,4.000000,4.000000,4.000000,4.000000,4.000000,4.000000,4.000000,4.000000,4.000000,4.000000,4.000000,4.000000,4.000000,100.000000,,,,,,,,,,,,,,,,,,,,,,,,,,,,,,,,,,,,,,,,,,,,,,,
1665773037.027179,1665773037.027733,110.000000,0.000000,4283.974121,4247.563965,4285.512695,4270.641113,4284.615234,4281.538574,4271.410156,4293.846191,4282.436035,4246.538574,4461.153809,4474.358887,4339.102539,4395.512695,2568.000000,2.000000,50.000000,,,,0.000000,4.000000,4.000000,4.000000,4.000000,4.000000,4.000000,4.000000,4.000000,4.000000,4.000000,4.000000,4.000000,4.000000,4.000000,100.000000,,,,,,,,,,,,,,,,,,,,,,,,,,,,,,,,,,,,,,,,,,,,,,,
1665773037.034987,1665773037.035441,111.000000,0.000000,4278.461426,4247.563965,4280.256348,4268.077148,4288.589844,4278.717773,4266.282227,4263.846191,4272.179688,4251.794922,4450.000000,4456.794922,4332.051270,4394.358887,2428.000000,2.000000,50.000000,,,,0.000000,4.000000,4.000000,4.000000,4.000000,4.000000,4.000000,4.000000,4.000000,4.000000,4.000000,4.000000,4.000000,4.000000,4.000000,100.000000,,,,,,,,,,,,,,,,,,,,,,,,,,,,,,,,,,,,,,,,,,,,,,,
1665773037.042796,1665773037.043250,112.000000,0.000000,4279.358887,4247.820313,4280.897461,4277.948730,4284.743652,4284.615234,4280.512695,4273.461426,4278.589844,4269.102539,4454.230957,4466.025879,4334.487305,4401.153809,2531.000000,2.000000,50.000000,,,,0.000000,4.000000,4.000000,4.000000,4.000000,4.000000,4.000000,4.000000,4.000000,4.000000,4.000000,4.000000,4.000000,4.000000,4.000000,100.000000,,,,,,,,,,,,,,,,,,,,,,,,,,,,,,,,,,,,,,,,,,,,,,,
1665773037.050604,1665773037.050958,113.000000,0.000000,4280.512695,4250.128418,4284.871582,4283.461426,4283.461426,4290.384766,4299.102539,4311.538574,4286.282227,4263.974121,4466.666504,4482.948730,4337.692383,4403.461426,3157.000000,2.000000,50.000000,,,,0.000000,4.000000,4.000000,4.000000,4.000000,4.000000,4.000000,4.000000,4.000000,4.000000,4.000000,4.000000,4.000000,4.000000,4.000000,100.000000,,,,,,,,,,,,,,,,,,,,,,,,,,,,,,,,,,,,,,,,,,,,,,,
1665773037.058412,1665773037.058867,114.000000,0.000000,4277.307617,4244.102539,4280.897461,4273.717773,4281.922852,4282.051270,4291.410156,4307.563965,4278.974121,4244.615234,4462.692383,4479.487305,4329.871582,4398.077148,2568.000000,2.000000,50.000000,,,,0.000000,4.000000,4.000000,4.000000,4.000000,4.000000,4.000000,4.000000,4.000000,4.000000,4.000000,4.000000,4.000000,4.000000,4.000000,100.000000,,,,,,,,,,,,,,,,,,,,,,,,,,,,,,,,,,,,,,,,,,,,,,,
1665773037.066221,1665773037.066675,115.000000,0.000000,4275.000000,4236.025879,4276.922852,4264.230957,4275.256348,4272.563965,4271.025879,4277.307617,4272.948730,4242.948730,4453.974121,4471.538574,4324.743652,4395.000000,2428.000000,2.000000,50.000000,,,,0.000000,4.000000,4.000000,4.000000,4.000000,4.000000,4.000000,4.000000,4.000000,4.000000,4.000000,4.000000,4.000000,4.000000,4.000000,100.000000,,,,,,,,,,,,,,,,,,,,,,,,,,,,,,,,,,,,,,,,,,,,,,,
1665773037.074029,1665773037.074583,116.000000,0.000000,4278.589844,4240.512695,4281.282227,4265.512695,4278.846191,4276.153809,4272.948730,4282.051270,4277.820313,4254.743652,4460.000000,4477.820313,4335.641113,4399.615234,2531.000000,2.000000,50.000000,,,,0.000000,4.000000,4.000000,4.000000,4.000000,4.000000,4.000000,4.000000,4.000000,4.000000,4.000000,4.000000,4.000000,4.000000,4.000000,100.000000,,,,,,,,,,,,,,,,,,,,,,,,,,,,,,,,,,,,,,,,,,,,,,,
1665773037.081838,1665773037.082392,117.000000,0.000000,4282.179688,4248.461426,4281.794922,4267.820313,4287.820313,4279.487305,4284.871582,4299.743652,4282.820313,4259.871582,4470.000000,4485.641113,4346.025879,4405.128418,3157.000000,2.000000,50.000000,,,,0.000000,4.000000,4.000000,4.000000,4.000000,4.000000,4.000000,4.000000,4.000000,4.000000,4.000000,4.000000,4.000000,4.000000,4.000000,100.000000,,,,,,,,,,,,,,,,,,,,,,,,,,,,,,,,,,,,,,,,,,,,,,,
1665773037.089646,1665773037.090300,118.000000,0.000000,4279.615234,4246.025879,4279.230957,4264.871582,4283.333496,4276.794922,4278.974121,4290.897461,4281.025879,4251.794922,4467.563965,4480.641113,4346.922852,4402.948730,2568.000000,2.000000,50.000000,,,,0.000000,4.000000,4.000000,4.000000,4.000000,4.000000,4.000000,4.000000,4.000000,4.000000,4.000000,4.000000,4.000000,4.000000,4.000000,100.000000,,,,,,,,,,,,,,,,,,,,,,,,,,,,,,,,,,,,,,,,,,,,,,,
1665773037.097454,1665773037.098109,119.000000,0.000000,4277.179688,4243.717773,4279.102539,4258.589844,4272.563965,4278.205078,4274.871582,4273.077148,4278.974121,4245.769043,4458.461426,4471.538574,4346.666504,4396.922852,2428.000000,2.000000,50.000000,,,,0.000000,4.000000,4.000000,4.000000,4.000000,4.000000,4.000000,4.000000,4.000000,4.000000,4.000000,4.000000,4.000000,4.000000,4.000000,100.000000,,,,,,,,,,,,,,,,,,,,,,,,,,,,,,,,,,,,,,,,,,,,,,,
1665773037.105263,1665773037.106017,120.000000,0.000000,4283.461426,4248.077148,4281.025879,4263.205078,4273.205078,4281.666504,4288.717773,4280.256348,4282.692383,4249.743652,4457.692383,4478.333496,4348.717773,4400.128418,2531.000000,2.000000,50.000000,,,,0.000000,4.000000,4.000000,4.000000,4.000000,4.000000,4.000000,4.000000,4.000000,4.000000,4.000000,4.000000,4.000000,4.000000,4.000000,100.000000,,,,,,,,,,,,,,,,,,,,,,,,,,,,,,,,,,,,,,,,,,,,,,,
1665773037.113071,1665773037.113825,121.000000,0.000000,4292.307617,4247.307617,4284.615234,4274.615234,4277.563965,4279.230957,4290.897461,4299.615234,4285.256348,4253.205078,4463.717773,4493.589844,4350.128418,4406.538574,3157.000000,2.000000,50.000000,,,,0.000000,4.000000,4.000000,4.000000,4.000000,4.000000,4.000000,4.000000,4.000000,4.000000,4.000000,4.000000,4.000000,4.000000,4.000000,100.000000,,,,,,,,,,,,,,,,,,,,,,,,,,,,,,,,,,,,,,,,,,,,,,,
1665773037.120880,1665773037.121734,122.000000,0.000000,4293.333496,4245.769043,4284.871582,4274.487305,4276.282227,4278.461426,4278.717773,4294.487305,4279.230957,4251.666504,4462.563965,4487.820313,4347.179688,4404.615234,2568.000000,2.000000,50.000000,,,,0.000000,4.000000,4.000000,4.000000,4.000000,4.000000,4.000000,4.000000,4.000000,4.000000,4.000000,4.000000,4.000000,4.000000,4.000000,100.000000,,,,,,,,,,,,,,,,,,,,,,,,,,,,,,,,,,,,,,,,,,,,,,,
1665773037.128688,1665773037.129542,123.000000,0.000000,4290.000000,4247.179688,4280.897461,4269.102539,4277.692383,4282.179688,4274.230957,4279.615234,4274.615234,4249.358887,4457.051270,4474.102539,4342.179688,4402.051270,2428.000000,2.000000,50.000000,,,,0.000000,4.000000,4.000000,4.000000,4.000000,4.000000,4.000000,4.000000,4.000000,4.000000,4.000000,4.000000,4.000000,4.000000,4.000000,100.000000,,,,,,,,,,,,,,,,,,,,,,,,,,,,,,,,,,,,,,,,,,,,,,,
1665773037.136496,1665773037.137251,124.000000,0.000000,4289.358887,4246.538574,4279.743652,4275.128418,4283.846191,4282.307617,4274.743652,4278.589844,4277.307617,4249.871582,4455.641113,4474.487305,4341.410156,4405.000000,2531.000000,2.000000,50.000000,,,,0.000000,4.000000,4.000000,4.000000,4.000000,4.000000,4.000000,4.000000,4.000000,4.000000,4.000000,4.000000,4.000000,4.000000,4.000000,100.000000,,,,,,,,,,,,,,,,,,,,,,,,,,,,,,,,,,,,,,,,,,,,,,,
1665773037.144305,1665773037.145059,125.000000,0.000000,4287.051270,4246.538574,4279.230957,4283.717773,4285.000000,4283.205078,4275.641113,4282.820313,4279.615234,4252.179688,4457.563965,4477.307617,4342.692383,4408.461426,3157.000000,2.000000,50.000000,,,,0.000000,4.000000,4.000000,4.000000,4.000000,4.000000,4.000000,4.000000,4.000000,4.000000,4.000000,4.000000,4.000000,4.000000,4.000000,100.000000,,,,,,,,,,,,,,,,,,,,,,,,,,,,,,,,,,,,,,,,,,,,,,,
1665773037.152113,1665773037.152768,126.000000,0.000000,4281.794922,4246.538574,4275.256348,4279.615234,4279.615234,4290.128418,4284.102539,4286.410156,4279.358887,4251.282227,4458.717773,4474.230957,4341.282227,4403.974121,2568.000000,2.000000,50.000000,,,,0.000000,4.000000,4.000000,4.000000,4.000000,4.000000,4.000000,4.000000,4.000000,4.000000,4.000000,4.000000,4.000000,4.000000,4.000000,100.000000,,,,,,,,,,,,,,,,,,,,,,,,,,,,,,,,,,,,,,,,,,,,,,,
1665773037.159922,1665773037.160576,127.000000,0.000000,4278.717773,4246.410156,4275.000000,4275.641113,4281.410156,4291.538574,4293.717773,4292.307617,4277.948730,4249.871582,4457.692383,4473.333496,4340.128418,4397.179688,50.000000,2.000000,50.000000,,,,0.000000,4.000000,4.000000,4.000000,4.000000,4.000000,4.000000,4.000000,4.000000,4.000000,4.000000,4.000000,4.000000,4.000000,4.000000,100.000000,,,,,,,,,,,,,,,,,,,,,,,,,,,,,,,,,,,,,,,,,,,,,,,
1665773037.167730,1665773037.168285,0.000000,0.000000,4277.051270,4246.666504,4279.102539,4276.794922,4284.358887,4282.563965,4294.871582,4294.487305,4276.153809,4250.000000,4456.538574,4474.358887,4339.358887,4395.512695,1810.000000,2.000000,50.000000,,,,0.000000,4.000000,4.000000,4.000000,4.000000,4.000000,4.000000,4.000000,4.000000,4.000000,4.000000,4.000000,4.000000,4.000000,4.000000,100.000000,,,,,,,,,,,,,,,,,,,,,,,,,,,,,,,,,,,,,,,,,,,,,,,
1665773037.175538,1665773037.176093,1.000000,0.000000,4277.179688,4247.948730,4280.000000,4277.563965,4280.000000,4282.692383,4297.563965,4295.128418,4278.461426,4248.333496,4458.974121,4474.487305,4341.922852,4397.563965,2314.000000,2.000000,50.000000,,,,0.000000,4.000000,4.000000,4.000000,4.000000,4.000000,4.000000,4.000000,4.000000,4.000000,4.000000,4.000000,4.000000,4.000000,4.000000,100.000000,,,,,,,,,,,,,,,,,,,,,,,,,,,,,,,,,,,,,,,,,,,,,,,
1665773037.183347,1665773037.183802,2.000000,0.000000,4280.641113,4249.102539,4278.461426,4281.025879,4286.410156,4298.846191,4302.692383,4295.128418,4283.717773,4247.948730,4462.820313,4478.205078,4349.102539,4401.153809,2082.000000,2.000000,50.000000,,,,0.000000,4.000000,4.000000,4.000000,4.000000,4.000000,4.000000,4.000000,4.000000,4.000000,4.000000,4.000000,4.000000,4.000000,4.000000,100.000000,,,,,,,,,,,,,,,,,,,,,,,,,,,,,,,,,,,,,,,,,,,,,,,
1665773037.191155,1665773037.191610,3.000000,0.000000,4282.051270,4248.974121,4276.410156,4280.897461,4294.743652,4298.461426,4293.461426,4282.436035,4280.641113,4248.717773,4456.153809,4476.410156,4345.256348,4398.205078,2125.000000,2.000000,50.000000,,,,0.000000,4.000000,4.000000,4.000000,4.000000,4.000000,4.000000,4.000000,4.000000,4.000000,4.000000,4.000000,4.000000,4.000000,4.000000,100.000000,,,,,,,,,,,,,,,,,,,,,,,,,,,,,,,,,,,,,,,,,,,,,,,
1665773037.198964,1665773037.199319,4.000000,0.000000,4280.769043,4247.948730,4276.794922,4278.461426,4286.153809,4282.692383,4278.846191,4272.307617,4274.743652,4246.025879,4448.974121,4471.410156,4337.948730,4394.487305,2269.000000,2.000000,50.000000,,,,0.000000,4.000000,4.000000,4.000000,4.000000,4.000000,4.000000,4.000000,4.000000,4.000000,4.000000,4.000000,4.000000,4.000000,4.000000,100.000000,,,,,,,,,,,,,,,,,,,,,,,,,,,,,,,,,,,,,,,,,,,,,,,
1665773037.206772,1665773037.207227,5.000000,0.000000,4281.538574,4248.077148,4279.230957,4279.358887,4277.820313,4282.948730,4278.077148,4279.871582,4276.794922,4247.179688,4454.102539,4474.743652,4341.666504,4397.307617,2311.000000,2.000000,50.000000,,,,0.000000,4.000000,4.000000,4.000000,4.000000,4.000000,4.000000,4.000000,4.000000,4.000000,4.000000,4.000000,4.000000,4.000000,4.000000,100.000000,,,,,,,,,,,,,,,,,,,,,,,,,,,,,,,,,,,,,,,,,,,,,,,
1665773037.214580,1665773037.215035,6.000000,0.000000,4282.948730,4248.205078,4280.000000,4280.769043,4282.051270,4294.230957,4281.538574,4288.717773,4280.897461,4252.563965,4460.384766,4477.692383,4344.871582,4401.153809,2037.000000,2.000000,50.000000,,,,0.000000,4.000000,4.000000,4.000000,4.000000,4.000000,4.000000,4.000000,4.000000,4.000000,4.000000,4.000000,4.000000,4.000000,4.000000,100.000000,,,,,,,,,,,,,,,,,,,,,,,,,,,,,,,,,,,,,,,,,,,,,,,
1665773037.222389,1665773037.222944,7.000000,0.000000,4279.871582,4245.512695,4278.846191,4280.512695,4282.820313,4293.974121,4280.000000,4290.128418,4281.922852,4250.641113,4457.563965,4476.666504,4343.333496,4399.230957,2172.000000,2.000000,50.000000,,,,0.000000,4.000000,4.000000,4.000000,4.000000,4.000000,4.000000,4.000000,4.000000,4.000000,4.000000,4.000000,4.000000,4.000000,4.000000,100.000000,,,,,,,,,,,,,,,,,,,,,,,,,,,,,,,,,,,,,,,,,,,,,,,
1665773037.230197,1665773037.230752,8.000000,0.000000,4279.871582,4245.384766,4280.128418,4281.666504,4277.436035,4285.897461,4278.205078,4293.589844,4281.282227,4247.436035,4457.051270,4482.692383,4346.025879,4403.974121,2115.000000,2.000000,50.000000,,,,0.000000,4.000000,4.000000,4.000000,4.000000,4.000000,4.000000,4.000000,4.000000,4.000000,4.000000,4.000000,4.000000,4.000000,4.000000,100.000000,,,,,,,,,,,,,,,,,,,,,,,,,,,,,,,,,,,,,,,,,,,,,,,
1665773037.238006,1665773037.238561,9.000000,0.000000,4288.205078,4249.743652,4285.512695,4284.615234,4281.666504,4280.641113,4279.230957,4297.820313,4282.051270,4257.820313,4464.358887,4493.589844,4351.153809,4417.820313,2369.000000,2.000000,50.000000,,,,0.000000,4.000000,4.000000,4.000000,4.000000,4.000000,4.000000,4.000000,4.000000,4.000000,4.000000,4.000000,4.000000,4.000000,4.000000,100.000000,,,,,,,,,,,,,,,,,,,,,,,,,,,,,,,,,,,,,,,,,,,,,,,
1665773037.245814,1665773037.246269,10.000000,0.000000,4290.512695,4251.153809,4286.922852,4290.128418,4286.922852,4285.128418,4284.358887,4300.256348,4282.051270,4267.692383,4466.410156,4497.948730,4352.179688,4420.512695,2573.000000,2.000000,50.000000,,,,0.000000,4.000000,4.000000,4.000000,4.000000,4.000000,4.000000,4.000000,4.000000,4.000000,4.000000,4.000000,4.000000,4.000000,4.000000,100.000000,,,,,,,,,,,,,,,,,,,,,,,,,,,,,,,,,,,,,,,,,,,,,,,
1665773037.253623,1665773037.254178,11.000000,0.000000,4283.717773,4251.025879,4281.666504,4295.769043,4285.256348,4289.487305,4292.179688,4299.102539,4280.000000,4258.974121,4460.641113,4491.025879,4347.948730,4412.948730,2454.000000,2.000000,50.000000,,,,0.000000,4.000000,4.000000,4.000000,4.000000,4.000000,4.000000,4.000000,4.000000,4.000000,4.000000,4.000000,4.000000,4.000000,4.000000,100.000000,,,,,,,,,,,,,,,,,,,,,,,,,,,,,,,,,,,,,,,,,,,,,,,
1665773037.261431,1665773037.261986,12.000000,0.000000,4279.102539,4251.153809,4276.666504,4293.846191,4281.794922,4281.538574,4294.615234,4289.358887,4273.846191,4239.358887,4455.000000,4477.948730,4341.410156,4404.743652,2556.000000,2.000000,50.000000,,,,0.000000,4.000000,4.000000,4.000000,4.000000,4.000000,4.000000,4.000000,4.000000,4.000000,4.000000,4.000000,4.000000,4.000000,4.000000,100.000000,,,,,,,,,,,,,,,,,,,,,,,,,,,,,,,,,,,,,,,,,,,,,,,
1665773037.269239,1665773037.269894,13.000000,0.000000,4282.179688,4251.922852,4277.051270,4290.512695,4281.794922,4280.256348,4293.333496,4282.563965,4273.589844,4237.307617,4456.410156,4471.794922,4340.256348,4400.000000,3181.000000,2.000000,50.000000,,,,0.000000,4.000000,4.000000,4.000000,4.000000,4.000000,4.000000,4.000000,4.000000,4.000000,4.000000,4.000000,4.000000,4.000000,4.000000,100.000000,,,,,,,,,,,,,,,,,,,,,,,,,,,,,,,,,,,,,,,,,,,,,,,
1665773037.277048,1665773037.277703,14.000000,0.000000,4284.615234,4257.179688,4279.871582,4292.179688,4283.589844,4290.384766,4295.897461,4290.512695,4283.205078,4253.846191,4458.717773,4475.641113,4342.563965,4401.025879,2573.000000,2.000000,50.000000,,,,0.000000,4.000000,4.000000,4.000000,4.000000,4.000000,4.000000,4.000000,4.000000,4.000000,4.000000,4.000000,4.000000,4.000000,4.000000,100.000000,,,,,,,,,,,,,,,,,,,,,,,,,,,,,,,,,,,,,,,,,,,,,,,
1665773037.284856,1665773037.285611,15.000000,0.000000,4284.230957,4263.846191,4279.487305,4292.948730,4281.410156,4286.410156,4299.615234,4297.563965,4284.743652,4251.410156,4454.615234,4476.538574,4340.384766,4402.436035,2454.000000,2.000000,50.000000,,,,0.000000,4.000000,4.000000,4.000000,4.000000,4.000000,4.000000,4.000000,4.000000,4.000000,4.000000,4.000000,4.000000,4.000000,4.000000,100.000000,,,,,,,,,,,,,,,,,,,,,,,,,,,,,,,,,,,,,,,,,,,,,,,
1665773037.292665,1665773037.293420,16.000000,0.000000,4283.589844,4260.641113,4278.717773,4288.717773,4283.205078,4277.820313,4293.077148,4290.769043,4276.282227,4231.410156,4453.205078,4477.051270,4337.948730,4402.820313,0.000000,2.000000,50.000000,,,,0.000000,4.000000,4.000000,4.000000,4.000000,4.000000,4.000000,4.000000,4.000000,4.000000,4.000000,4.000000,4.000000,4.000000,4.000000,100.000000,,,,,,,,,,,,,,,,,,,,,,,,,,,,,,,,,,,,,,,,,,,,,,,
1665773037.300473,1665773037.301328,17.000000,0.000000,4287.179688,4251.538574,4280.897461,4287.563965,4284.615234,4280.384766,4282.563965,4289.743652,4277.948730,4233.589844,4456.794922,4484.102539,4339.358887,4402.820313,0.000000,2.000000,50.000000,,,,0.000000,4.000000,4.000000,4.000000,4.000000,4.000000,4.000000,4.000000,4.000000,4.000000,4.000000,4.000000,4.000000,4.000000,4.000000,100.000000,,,,,,,,,,,,,,,,,,,,,,,,,,,,,,,,,,,,,,,,,,,,,,,
1665773037.308281,1665773037.309136,18.000000,0.000000,4291.538574,4249.615234,4285.000000,4292.051270,4280.512695,4283.589844,4284.102539,4288.333496,4284.743652,4252.307617,4458.333496,4488.077148,4345.128418,4402.692383,0.000000,2.000000,50.000000,,,,0.000000,4.000000,4.000000,4.000000,4.000000,4.000000,4.000000,4.000000,4.000000,4.000000,4.000000,4.000000,4.000000,4.000000,4.000000,100.000000,,,,,,,,,,,,,,,,,,,,,,,,,,,,,,,,,,,,,,,,,,,,,,,
1665773037.316090,1665773037.317045,19.000000,0.000000,4286.794922,4249.743652,4283.717773,4292.179688,4279.871582,4285.000000,4293.333496,4281.410156,4280.384766,4254.230957,4456.666504,4482.436035,4348.077148,4406.153809,0.000000,2.000000,50.000000,,,,0.000000,4.000000,4.000000,4.000000,4.000000,4.000000,4.000000,4.000000,4.000000,4.000000,4.000000,4.000000,4.000000,4.000000,4.000000,100.000000,,,,,,,,,,,,,,,,,,,,,,,,,,,,,,,,,,,,,,,,,,,,,,,
1665773037.323898,1665773037.324853,20.000000,0.000000,4285.000000,4246.538574,4280.769043,4288.205078,4281.538574,4288.846191,4292.692383,4286.794922,4276.794922,4247.436035,4457.692383,4481.282227,4345.512695,4414.871582,0.000000,2.000000,50.000000,,,,0.000000,4.000000,4.000000,4.000000,4.000000,4.000000,4.000000,4.000000,4.000000,4.000000,4.000000,4.000000,4.000000,4.000000,4.000000,100.000000,,,,,,,,,,,,,,,,,,,,,,,,,,,,,,,,,,,,,,,,,,,,,,,
1665773037.331707,1665773037.332562,21.000000,0.000000,4292.820313,4246.922852,4281.794922,4294.487305,4281.538574,4288.333496,4286.025879,4288.077148,4279.487305,4249.615234,4461.025879,4489.358887,4350.128418,4417.436035,0.000000,2.000000,50.000000,,,,0.000000,4.000000,4.000000,4.000000,4.000000,4.000000,4.000000,4.000000,4.000000,4.000000,4.000000,4.000000,4.000000,4.000000,4.000000,100.000000,,,,,,,,,,,,,,,,,,,,,,,,,,,,,,,,,,,,,,,,,,,,,,,
1665773037.339515,1665773037.340470,22.000000,0.000000,4291.666504,4248.974121,4281.025879,4303.846191,4280.641113,4280.897461,4281.025879,4287.179688,4280.384766,4253.846191,4460.641113,4489.102539,4353.205078,4409.487305,0.000000,2.000000,50.000000,,,,0.000000,4.000000,4.000000,4.000000,4.000000,4.000000,4.000000,4.000000,4.000000,4.000000,4.000000,4.000000,4.000000,4.000000,4.000000,100.000000,,,,,,,,,,,,,,,,,,,,,,,,,,,,,,,,,,,,,,,,,,,,,,,
1665773037.347324,1665773037.348279,23.000000,0.000000,4281.025879,4246.153809,4276.538574,4298.589844,4279.743652,4274.487305,4276.153809,4291.538574,4277.820313,4249.871582,4457.436035,4476.282227,4343.717773,4403.205078,0.000000,2.000000,50.000000,,,,0.000000,4.000000,4.000000,4.000000,4.000000,4.000000,4.000000,4.000000,4.000000,4.000000,4.000000,4.000000,4.000000,4.000000,4.000000,100.000000,,,,,,,,,,,,,,,,,,,,,,,,,,,,,,,,,,,,,,,,,,,,,,,
1665773037.355132,1665773037.356087,24.000000,0.000000,4279.102539,4243.333496,4275.641113,4294.358887,4279.871582,4276.410156,4281.794922,4285.512695,4273.077148,4245.256348,4456.922852,4473.461426,4343.974121,4402.692383,0.000000,2.000000,50.000000,,,,0.000000,4.000000,4.000000,4.000000,4.000000,4.000000,4.000000,4.000000,4.000000,4.000000,4.000000,4.000000,4.000000,4.000000,4.000000,100.000000,,,,,,,,,,,,,,,,,,,,,,,,,,,,,,,,,,,,,,,,,,,,,,,
1665773037.362940,1665773037.363796,25.000000,0.000000,4283.846191,4247.179688,4278.461426,4302.692383,4282.051270,4282.563965,4291.025879,4284.358887,4275.256348,4255.769043,4461.666504,4483.077148,4356.153809,4405.641113,0.000000,2.000000,50.000000,,,,0.000000,4.000000,4.000000,4.000000,4.000000,4.000000,4.000000,4.000000,4.000000,4.000000,4.000000,4.000000,4.000000,4.000000,4.000000,100.000000,,,,,,,,,,,,,,,,,,,,,,,,,,,,,,,,,,,,,,,,,,,,,,,
1665773037.370749,1665773037.371604,26.000000,0.000000,4279.871582,4248.846191,4277.692383,4307.179688,4281.794922,4282.307617,4288.974121,4296.025879,4277.948730,4266.282227,4463.333496,4479.230957,4353.461426,4403.205078,0.000000,2.000000,50.000000,,,,0.000000,4.000000,4.000000,4.000000,4.000000,4.000000,4.000000,4.000000,4.000000,4.000000,4.000000,4.000000,4.000000,4.000000,4.000000,100.000000,,,,,,,,,,,,,,,,,,,,,,,,,,,,,,,,,,,,,,,,,,,,,,,
1665773037.378557,1665773037.379313,27.000000,0.000000,4279.487305,4248.205078,4277.692383,4306.025879,4283.077148,4281.794922,4286.922852,4291.794922,4274.358887,4261.922852,4458.461426,4470.256348,4351.282227,4402.692383,0.000000,2.000000,50.000000,,,,0.000000,4.000000,4.000000,4.000000,4.000000,4.000000,4.000000,4.000000,4.000000,4.000000,4.000000,4.000000,4.000000,4.000000,4.000000,100.000000,,,,,,,,,,,,,,,,,,,,,,,,,,,,,,,,,,,,,,,,,,,,,,,
1665773037.386366,1665773037.387121,28.000000,0.000000,4287.436035,4255.641113,4281.153809,4308.717773,4286.538574,4288.333496,4294.615234,4287.563965,4280.897461,4258.846191,4461.282227,4479.487305,4364.871582,4411.153809,0.000000,2.000000,50.000000,,,,0.000000,4.000000,4.000000,4.000000,4.000000,4.000000,4.000000,4.000000,4.000000,4.000000,4.000000,4.000000,4.000000,4.000000,4.000000,100.000000,,,,,,,,,,,,,,,,,,,,,,,,,,,,,,,,,,,,,,,,,,,,,,,
1665773037.394174,1665773037.394830,29.000000,0.000000,4293.205078,4264.230957,4281.922852,4312.436035,4289.230957,4297.307617,4304.358887,4302.563965,4293.205078,4266.025879,4469.871582,4491.666504,4368.974121,4416.025879,0.000000,2.000000,50.000000,,,,0.000000,4.000000,4.000000,4.000000,4.000000,4.000000,4.000000,4.000000,4.000000,4.000000,4.000000,4.000000,4.000000,4.000000,4.000000,100.000000,1.000000,100.000000,4.000000,4.000000,4.000000,4.000000,4.000000,4.000000,4.000000,4.000000,4.000000,4.000000,4.000000,4.000000,4.000000,4.000000,1.000000,0.370604,-1.000537,-1.548064,0.657425,1.000000,0.021638,2.671061,2.470082,11.758335,0.213395,1.000000,0.256351,24.242529,-82.697136,289.920715,1.000000,0.126556,0.118512,0.096630,0.242279,1.000000,0.356484,4.166631,-4.339410,17.289919,1.000000,0.400548,0.400548,0.000000,1.000000
1665773037.401982,1665773037.402638,30.000000,0.000000,4291.922852,4263.589844,4280.897461,4311.666504,4295.256348,4299.743652,4304.487305,4300.897461,4288.205078,4269.358887,4467.563965,4491.410156,4363.846191,4412.563965,0.000000,2.000000,50.000000,,,,0.000000,4.000000,4.000000,4.000000,4.000000,4.000000,4.000000,4.000000,4.000000,4.000000,4.000000,4.000000,4.000000,4.000000,4.000000,100.000000,,,,,,,,,,,,,,,,,,,,,,,,,,,,,,,,,,,,,,,,,,,,,,,
1665773037.409791,1665773037.410347,31.000000,0.000000,4288.333496,4260.641113,4281.410156,4305.897461,4296.666504,4290.256348,4291.282227,4290.769043,4285.128418,4264.743652,4461.282227,4487.820313,4364.871582,4409.615234,0.000000,2.000000,50.000000,1,1,1,0.000000,4.000000,4.000000,4.000000,4.000000,4.000000,4.000000,4.000000,4.000000,4.000000,4.000000,4.000000,4.000000,4.000000,4.000000,100.000000,,,,,,,,,,,,,,,,,,,,,,,,,,,,,,,,,,,,,,,,,,,,,,,
1665773037.417599,1665773037.418155,32.000000,0.000000,4289.102539,4262.051270,4281.410156,4301.282227,4288.717773,4285.000000,4282.692383,4291.666504,4294.358887,4263.333496,4461.794922,4486.794922,4363.077148,4407.820313,0.000000,2.000000,50.000000,,,,0.000000,4.000000,4.000000,4.000000,4.000000,4.000000,4.000000,4.000000,4.000000,4.000000,4.000000,4.000000,4.000000,4.000000,4.000000,100.000000,,,,,,,,,,,,,,,,,,,,,,,,,,,,,,,,,,,,,,,,,,,,,,,
1665773037.425408,1665773037.425864,33.000000,0.000000,4290.128418,4261.538574,4281.025879,4308.205078,4292.179688,4293.974121,4290.256348,4286.666504,4291.153809,4272.307617,4463.077148,4482.307617,4361.666504,4407.436035,0.000000,2.000000,50.000000,,,,0.000000,4.000000,4.000000,4.000000,4.000000,4.000000,4.000000,4.000000,4.000000,4.000000,4.000000,4.000000,4.000000,4.000000,4.000000,100.000000,,,,,,,,,,,,,,,,,,,,,,,,,,,,,,,,,,,,,,,,,,,,,,,
1665773037.433216,1665773037.433672,34.000000,0.000000,4283.974121,4255.384766,4280.897461,4312.948730,4297.948730,4300.000000,4294.358887,4284.102539,4281.282227,4272.179688,4460.641113,4474.743652,4362.307617,4407.692383,0.000000,2.000000,50.000000,,,,0.000000,4.000000,4.000000,4.000000,4.000000,4.000000,4.000000,4.000000,4.000000,4.000000,4.000000,4.000000,4.000000,4.000000,4.000000,100.000000,,,,,,,,,,,,,,,,,,,,,,,,,,,,,,,,,,,,,,,,,,,,,,,
1665773037.441024,1665773037.441381,35.000000,0.000000,4278.205078,4250.000000,4278.846191,4306.666504,4286.666504,4294.487305,4289.743652,4293.077148,4282.307617,4251.922852,4457.179688,4473.717773,4354.102539,4403.333496,0.000000,2.000000,50.000000,,,,0.000000,4.000000,4.000000,4.000000,4.000000,4.000000,4.000000,4.000000,4.000000,4.000000,4.000000,4.000000,4.000000,4.000000,4.000000,100.000000,,,,,,,,,,,,,,,,,,,,,,,,,,,,,,,,,,,,,,,,,,,,,,,
1665773037.448833,1665773037.449289,36.000000,0.000000,4278.846191,4248.717773,4276.410156,4301.666504,4278.333496,4286.922852,4285.641113,4293.205078,4283.717773,4247.051270,4450.641113,4471.410156,4346.538574,4397.436035,0.000000,2.000000,50.000000,,,,0.000000,4.000000,4.000000,4.000000,4.000000,4.000000,4.000000,4.000000,4.000000,4.000000,4.000000,4.000000,4.000000,4.000000,4.000000,100.000000,,,,,,,,,,,,,,,,,,,,,,,,,,,,,,,,,,,,,,,,,,,,,,,
1665773037.456641,1665773037.457097,37.000000,0.000000,4278.205078,4249.487305,4276.282227,4302.307617,4282.179688,4282.051270,4284.230957,4288.717773,4279.487305,4257.436035,4445.897461,4462.820313,4345.256348,4395.128418,0.000000,2.000000,50.000000,,,,0.000000,4.000000,4.000000,4.000000,4.000000,4.000000,4.000000,4.000000,4.000000,4.000000,4.000000,4.000000,4.000000,4.000000,4.000000,100.000000,,,,,,,,,,,,,,,,,,,,,,,,,,,,,,,,,,,,,,,,,,,,,,,
1665773037.464450,1665773037.465006,38.000000,0.000000,4275.128418,4249.358887,4279.615234,4303.974121,4281.025879,4280.128418,4290.384766,4292.051270,4277.563965,4249.615234,4447.051270,4462.179688,4339.871582,4393.717773,0.000000,2.000000,50.000000,,,,0.000000,4.000000,4.000000,4.000000,4.000000,4.000000,4.000000,4.000000,4.000000,4.000000,4.000000,4.000000,4.000000,4.000000,4.000000,100.000000,,,,,,,,,,,,,,,,,,,,,,,,,,,,,,,,,,,,,,,,,,,,,,,
1665773037.472258,1665773037.472814,39.000000,0.000000,4278.205078,4250.256348,4281.282227,4306.538574,4277.051270,4282.051270,4295.512695,4287.948730,4277.563965,4240.384766,4449.358887,4470.897461,4339.743652,4392.948730,0.000000,2.000000,50.000000,,,,0.000000,4.000000,4.000000,4.000000,4.000000,4.000000,4.000000,4.000000,4.000000,4.000000,4.000000,4.000000,4.000000,4.000000,4.000000,100.000000,,,,,,,,,,,,,,,,,,,,,,,,,,,,,,,,,,,,,,,,,,,,,,,
1665773037.480066,1665773037.480722,40.000000,0.000000,4278.077148,4253.974121,4279.871582,4302.948730,4281.282227,4281.666504,4287.692383,4286.282227,4278.846191,4249.743652,4455.128418,4475.512695,4349.358887,4395.128418,0.000000,2.000000,50.000000,,,,0.000000,4.000000,4.000000,4.000000,4.000000,4.000000,4.000000,4.000000,4.000000,4.000000,4.000000,4.000000,4.000000,4.000000,4.000000,100.000000,,,,,,,,,,,,,,,,,,,,,,,,,,,,,,,,,,,,,,,,,,,,,,,
1665773037.487875,1665773037.488531,41.000000,0.000000,4271.153809,4252.563965,4278.846191,4295.641113,4284.230957,4280.512695,4281.025879,4298.333496,4280.256348,4251.922852,4455.897461,4470.384766,4346.922852,4392.563965,0.000000,2.000000,50.000000,,,,0.000000,4.000000,4.000000,4.000000,4.000000,4.000000,4.000000,4.000000,4.000000,4.000000,4.000000,4.000000,4.000000,4.000000,4.000000,100.000000,,,,,,,,,,,,,,,,,,,,,,,,,,,,,,,,,,,,,,,,,,,,,,,
1665773037.495683,1665773037.496439,42.000000,0.000000,4271.794922,4250.128418,4280.000000,4300.128418,4278.717773,4280.256348,4281.794922,4292.307617,4280.256348,4247.563965,4445.897461,4467.948730,4337.436035,4385.769043,0.000000,2.000000,50.000000,,,,0.000000,4.000000,4.000000,4.000000,4.000000,4.000000,4.000000,4.000000,4.000000,4.000000,4.000000,4.000000,4.000000,4.000000,4.000000,100.000000,,,,,,,,,,,,,,,,,,,,,,,,,,,,,,,,,,,,,,,,,,,,,,,
1665773037.503492,1665773037.504248,43.000000,0.000000,4280.384766,4256.922852,4282.051270,4311.538574,4277.820313,4279.743652,4277.948730,4275.897461,4280.641113,4246.153809,4441.538574,4472.051270,4341.794922,4386.282227,0.000000,2.000000,50.000000,,,,0.000000,4.000000,4.000000,4.000000,4.000000,4.000000,4.000000,4.000000,4.000000,4.000000,4.000000,4.000000,4.000000,4.000000,4.000000,100.000000,,,,,,,,,,,,,,,,,,,,,,,,,,,,,,,,,,,,,,,,,,,,,,,
1665773037.511300,1665773037.512156,44.000000,0.000000,4283.333496,4262.307617,4282.179688,4313.589844,4285.641113,4279.615234,4279.358887,4281.410156,4279.102539,4236.922852,4447.051270,4476.794922,4345.641113,4392.820313,0.000000,2.000000,50.000000,,,,0.000000,4.000000,4.000000,4.000000,4.000000,4.000000,4.000000,4.000000,4.000000,4.000000,4.000000,4.000000,4.000000,4.000000,4.000000,100.000000,,,,,,,,,,,,,,,,,,,,,,,,,,,,,,,,,,,,,,,,,,,,,,,
1665773037.519108,1665773037.519965,45.000000,0.000000,4280.897461,4255.128418,4281.666504,4310.897461,4285.641113,4277.179688,4286.922852,4290.384766,4277.563965,4237.820313,4448.205078,4477.307617,4341.153809,4392.436035,0.000000,2.000000,50.000000,,,,0.000000,4.000000,4.000000,4.000000,4.000000,4.000000,4.000000,4.000000,4.000000,4.000000,4.000000,4.000000,4.000000,4.000000,4.000000,100.000000,,,,,,,,,,,,,,,,,,,,,,,,,,,,,,,,,,,,,,,,,,,,,,,
1665773037.526917,1665773037.527673,46.000000,0.000000,4281.282227,4248.461426,4283.333496,4315.000000,4283.461426,4284.615234,4293.717773,4287.179688,4282.307617,4259.743652,4450.256348,4475.641113,4348.974121,4393.333496,0.000000,2.000000,50.000000,,,,0.000000,4.000000,4.000000,4.000000,4.000000,4.000000,4.000000,4.000000,4.000000,4.000000,4.000000,4.000000,4.000000,4.000000,4.000000,100.000000,,,,,,,,,,,,,,,,,,,,,,,,,,,,,,,,,,,,,,,,,,,,,,,
1665773037.534725,1665773037.535482,47.000000,0.000000,4280.897461,4250.256348,4281.922852,4320.512695,4288.333496,4294.743652,4295.384766,4293.333496,4281.666504,4268.589844,4459.102539,4478.077148,4362.436035,4401.794922,0.000000,2.000000,50.000000,,,,0.000000,4.000000,4.000000,4.000000,4.000000,4.000000,4.000000,4.000000,4.000000,4.000000,4.000000,4.000000,4.000000,4.000000,4.000000,100.000000,,,,,,,,,,,,,,,,,,,,,,,,,,,,,,,,,,,,,,,,,,,,,,,
1665773037.542534,1665773037.543190,48.000000,0.000000,4282.820313,4251.666504,4281.282227,4319.358887,4290.769043,4289.615234,4291.153809,4301.025879,4275.256348,4255.256348,4458.846191,4479.358887,4360.384766,4403.717773,0.000000,2.000000,50.000000,,,,0.000000,4.000000,4.000000,4.000000,4.000000,4.000000,4.000000,4.000000,4.000000,4.000000,4.000000,4.000000,4.000000,4.000000,4.000000,100.000000,,,,,,,,,,,,,,,,,,,,,,,,,,,,,,,,,,,,,,,,,,,,,,,
1665773037.550342,1665773037.550998,49.000000,0.000000,4282.307617,4246.922852,4282.179688,4313.077148,4285.000000,4280.512695,4286.794922,4295.384766,4273.205078,4245.000000,4448.974121,4471.282227,4348.589844,4394.358887,0.000000,2.000000,50.000000,,,,0.000000,4.000000,4.000000,4.000000,4.000000,4.000000,4.000000,4.000000,4.000000,4.000000,4.000000,4.000000,4.000000,4.000000,4.000000,100.000000,,,,,,,,,,,,,,,,,,,,,,,,,,,,,,,,,,,,,,,,,,,,,,,
1665773037.558150,1665773037.558707,50.000000,0.000000,4269.230957,4240.769043,4271.282227,4306.153809,4278.205078,4277.307617,4275.897461,4286.538574,4270.384766,4245.384766,4443.974121,4459.230957,4342.051270,4386.538574,0.000000,2.000000,50.000000,,,,0.000000,4.000000,4.000000,4.000000,4.000000,4.000000,4.000000,4.000000,4.000000,4.000000,4.000000,4.000000,4.000000,4.000000,4.000000,100.000000,,,,,,,,,,,,,,,,,,,,,,,,,,,,,,,,,,,,,,,,,,,,,,,
1665773037.565959,1665773037.566515,51.000000,0.000000,4262.436035,4242.051270,4262.179688,4304.743652,4280.897461,4276.025879,4268.077148,4276.282227,4270.000000,4245.384766,4442.179688,4454.102539,4341.666504,4383.974121,0.000000,2.000000,50.000000,,,,0.000000,4.000000,4.000000,4.000000,4.000000,4.000000,4.000000,4.000000,4.000000,4.000000,4.000000,4.000000,4.000000,4.000000,4.000000,100.000000,,,,,,,,,,,,,,,,,,,,,,,,,,,,,,,,,,,,,,,,,,,,,,,
1665773037.573767,1665773037.574224,52.000000,0.000000,4272.179688,4248.461426,4271.410156,4309.871582,4288.589844,4277.563965,4280.000000,4273.461426,4276.025879,4243.205078,4443.717773,4457.436035,4347.692383,4383.333496,0.000000,2.000000,50.000000,,,,0.000000,4.000000,4.000000,4.000000,4.000000,4.000000,4.000000,4.000000,4.000000,4.000000,4.000000,4.000000,4.000000,4.000000,4.000000,100.000000,,,,,,,,,,,,,,,,,,,,,,,,,,,,,,,,,,,,,,,,,,,,,,,
1665773037.581576,1665773037.582032,53.000000,0.000000,4279.230957,4254.487305,4280.897461,4316.282227,4292.563965,4278.974121,4289.102539,4288.846191,4280.256348,4248.461426,4453.333496,4467.692383,4357.820313,4387.820313,0.000000,2.000000,50.000000,,,,0.000000,4.000000,4.000000,4.000000,4.000000,4.000000,4.000000,4.000000,4.000000,4.000000,4.000000,4.000000,4.000000,4.000000,4.000000,100.000000,,,,,,,,,,,,,,,,,,,,,,,,,,,,,,,,,,,,,,,,,,,,,,,
1665773037.589384,1665773037.589741,54.000000,0.000000,4279.358887,4261.666504,4281.666504,4320.000000,4288.717773,4279.615234,4277.820313,4293.077148,4283.333496,4264.871582,4461.025879,4478.846191,4365.128418,4397.179688,0.000000,2.000000,50.000000,,,,0.000000,4.000000,4.000000,4.000000,4.000000,4.000000,4.000000,4.000000,4.000000,4.000000,4.000000,4.000000,4.000000,4.000000,4.000000,100.000000,,,,,,,,,,,,,,,,,,,,,,,,,,,,,,,,,,,,,,,,,,,,,,,
1665773037.597192,1665773037.597549,55.000000,0.000000,4282.948730,4264.615234,4285.128418,4318.846191,4283.205078,4286.538574,4279.230957,4285.641113,4288.589844,4271.153809,4460.897461,4487.820313,4371.025879,4407.179688,0.000000,2.000000,50.000000,,,,0.000000,4.000000,4.000000,4.000000,4.000000,4.000000,4.000000,4.000000,4.000000,4.000000,4.000000,4.000000,4.000000,4.000000,4.000000,100.000000,,,,,,,,,,,,,,,,,,,,,,,,,,,,,,,,,,,,,,,,,,,,,,,
1665773037.605001,1665773037.605258,56.000000,0.000000,4288.589844,4258.461426,4293.077148,4314.230957,4284.358887,4288.461426,4295.641113,4296.922852,4286.538574,4258.205078,4462.692383,4500.769043,4373.589844,4412.051270,0.000000,2.000000,50.000000,,,,0.000000,4.000000,4.000000,4.000000,4.000000,4.000000,4.000000,4.000000,4.000000,4.000000,4.000000,4.000000,4.000000,4.000000,4.000000,100.000000,,,,,,,,,,,,,,,,,,,,,,,,,,,,,,,,,,,,,,,,,,,,,,,
1665773037.612809,1665773037.613066,57.000000,0.000000,4288.974121,4253.461426,4296.282227,4312.307617,4288.333496,4281.153809,4293.846191,4303.846191,4281.794922,4254.871582,4464.358887,4503.846191,4372.179688,4410.512695,0.000000,2.000000,50.000000,,,,0.000000,4.000000,4.000000,4.000000,4.000000,4.000000,4.000000,4.000000,4.000000,4.000000,4.000000,4.000000,4.000000,4.000000,4.000000,100.000000,,,,,,,,,,,,,,,,,,,,,,,,,,,,,,,,,,,,,,,,,,,,,,,
1665773037.620618,1665773037.620775,58.000000,0.000000,4284.102539,4251.282227,4288.333496,4312.051270,4283.717773,4279.230957,4283.846191,4282.436035,4279.230957,4265.769043,4455.000000,4481.538574,4364.743652,4401.153809,0.000000,2.000000,50.000000,,,,0.000000,4.000000,4.000000,4.000000,4.000000,4.000000,4.000000,4.000000,4.000000,4.000000,4.000000,4.000000,4.000000,4.000000,4.000000,100.000000,,,,,,,,,,,,,,,,,,,,,,,,,,,,,,,,,,,,,,,,,,,,,,,
1665773037.628426,1665773037.628683,59.000000,0.000000,4279.230957,4247.307617,4278.974121,4315.897461,4277.820313,4286.666504,4285.000000,4273.461426,4273.077148,4264.230957,4449.358887,4468.589844,4357.179688,4394.615234,0.000000,2.000000,50.000000,,,,0.000000,4.000000,4.000000,4.000000,4.000000,4.000000,4.000000,4.000000,4.000000,4.000000,4.000000,4.000000,4.000000,4.000000,4.000000,100.000000,,,,,,,,,,,,,,,,,,,,,,,,,,,,,,,,,,,,,,,,,,,,,,,
1665773037.636235,1665773037.636492,60.000000,0.000000,4280.769043,4247.948730,4286.666504,4325.641113,4288.077148,4294.871582,4290.000000,4295.769043,4277.563965,4260.128418,4458.589844,4485.897461,4362.436035,4399.871582,0.000000,2.000000,50.000000,,,,0.000000,4.000000,4.000000,4.000000,4.000000,4.000000,4.000000,4.000000,4.000000,4.000000,4.000000,4.000000,4.000000,4.000000,4.000000,100.000000,,,,,,,,,,,,,,,,,,,,,,,,,,,,,,,,,,,,,,,,,,,,,,,
1665773037.644043,1665773037.644400,61.000000,0.000000,4282.948730,4250.000000,4296.025879,4324.615234,4292.436035,4290.128418,4284.487305,4298.589844,4286.410156,4261.922852,4462.948730,4490.000000,4366.153809,4400.256348,0.000000,2.000000,50.000000,,,,0.000000,4.000000,4.000000,4.000000,4.000000,4.000000,4.000000,4.000000,4.000000,4.000000,4.000000,4.000000,4.000000,4.000000,4.000000,100.000000,,,,,,,,,,,,,,,,,,,,,,,,,,,,,,,,,,,,,,,,,,,,,,,
1665773037.651851,1665773037.652209,62.000000,0.000000,4282.692383,4250.000000,4290.256348,4313.589844,4283.077148,4280.256348,4279.230957,4279.743652,4282.179688,4254.487305,4457.948730,4473.846191,4361.538574,4396.666504,0.000000,2.000000,50.000000,,,,0.000000,4.000000,4.000000,4.000000,4.000000,4.000000,4.000000,4.000000,4.000000,4.000000,4.000000,4.000000,4.000000,4.000000,4.000000,100.000000,,,,,,,,,,,,,,,,,,,,,,,,,,,,,,,,,,,,,,,,,,,,,,,
1665773037.659660,1665773037.660117,63.000000,0.000000,4277.436035,4247.051270,4281.153809,4310.897461,4279.615234,4278.846191,4281.922852,4282.179688,4275.769043,4246.153809,4455.641113,4471.410156,4355.512695,4396.666504,0.000000,2.000000,50.000000,,,,0.000000,4.000000,4.000000,4.000000,4.000000,4.000000,4.000000,4.000000,4.000000,4.000000,4.000000,4.000000,4.000000,4.000000,4.000000,100.000000,,,,,,,,,,,,,,,,,,,,,,,,,,,,,,,,,,,,,,,,,,,,,,,
1665773037.667468,1665773037.667925,64.000000,0.000000,4269.871582,4242.179688,4279.230957,4310.512695,4277.436035,4276.794922,4279.871582,4295.384766,4277.307617,4250.384766,4455.000000,4476.794922,4350.897461,4393.589844,1810.000000,2.000000,50.000000,,,,0.000000,4.000000,4.000000,4.000000,4.000000,4.000000,4.000000,4.000000,4.000000,4.000000,4.000000,4.000000,4.000000,4.000000,4.000000,100.000000,,,,,,,,,,,,,,,,,,,,,,,,,,,,,,,,,,,,,,,,,,,,,,,
1665773037.675277,1665773037.675834,65.000000,0.000000,4273.461426,4243.205078,4286.538574,4307.563965,4276.153809,4272.692383,4280.769043,4294.615234,4280.000000,4250.384766,4454.102539,4475.128418,4352.948730,4390.512695,2312.000000,2.000000,50.000000,,,,0.000000,4.000000,4.000000,4.000000,4.000000,4.000000,4.000000,4.000000,4.000000,4.000000,4.000000,4.000000,4.000000,4.000000,4.000000,100.000000,,,,,,,,,,,,,,,,,,,,,,,,,,,,,,,,,,,,,,,,,,,,,,,
1665773037.683085,1665773037.683642,66.000000,0.000000,4281.538574,4248.205078,4296.794922,4312.948730,4278.717773,4277.692383,4288.974121,4293.846191,4281.282227,4246.922852,4459.230957,4480.000000,4361.922852,4396.922852,2085.000000,2.000000,50.000000,,,,0.000000,4.000000,4.000000,4.000000,4.000000,4.000000,4.000000,4.000000,4.000000,4.000000,4.000000,4.000000,4.000000,4.000000,4.000000,100.000000,,,,,,,,,,,,,,,,,,,,,,,,,,,,,,,,,,,,,,,,,,,,,,,
1665773037.690893,1665773037.691551,67.000000,0.000000,4282.692383,4251.666504,4297.563965,4319.358887,4280.384766,4280.384766,4288.205078,4302.436035,4281.922852,4256.153809,4463.205078,4491.282227,4363.846191,4401.538574,2134.000000,2.000000,50.000000,,,,0.000000,4.000000,4.000000,4.000000,4.000000,4.000000,4.000000,4.000000,4.000000,4.000000,4.000000,4.000000,4.000000,4.000000,4.000000,100.000000,,,,,,,,,,,,,,,,,,,,,,,,,,,,,,,,,,,,,,,,,,,,,,,
1665773037.698702,1665773037.699359,68.000000,0.000000,4287.051270,4256.794922,4297.563965,4319.487305,4283.589844,4275.769043,4282.051270,4299.102539,4282.307617,4265.128418,4459.102539,4489.871582,4363.846191,4397.179688,2274.000000,2.000000,50.000000,,,,0.000000,4.000000,4.000000,4.000000,4.000000,4.000000,4.000000,4.000000,4.000000,4.000000,4.000000,4.000000,4.000000,4.000000,4.000000,100.000000,,,,,,,,,,,,,,,,,,,,,,,,,,,,,,,,,,,,,,,,,,,,,,,
1665773037.706510,1665773037.707068,69.000000,0.000000,4296.922852,4268.205078,4307.051270,4325.769043,4287.179688,4282.820313,4295.897461,4293.205078,4284.102539,4260.512695,4463.461426,4489.487305,4377.948730,4400.384766,2311.000000,2.000000,50.000000,,,,0.000000,4.000000,4.000000,4.000000,4.000000,4.000000,4.000000,4.000000,4.000000,4.000000,4.000000,4.000000,4.000000,4.000000,4.000000,100.000000,,,,,,,,,,,,,,,,,,,,,,,,,,,,,,,,,,,,,,,,,,,,,,,
1665773037.714319,1665773037.714876,70.000000,0.000000,4297.948730,4271.025879,4309.487305,4329.615234,4285.641113,4296.025879,4311.282227,4301.153809,4284.487305,4257.436035,4471.922852,4495.769043,4386.666504,4406.666504,2040.000000,2.000000,50.000000,,,,0.000000,4.000000,4.000000,4.000000,4.000000,4.000000,4.000000,4.000000,4.000000,4.000000,4.000000,4.000000,4.000000,4.000000,4.000000,100.000000,,,,,,,,,,,,,,,,,,,,,,,,,,,,,,,,,,,,,,,,,,,,,,,
1665773037.722127,1665773037.722585,71.000000,0.000000,4292.179688,4258.717773,4297.948730,4320.512695,4284.358887,4298.717773,4306.282227,4293.846191,4282.179688,4266.922852,4464.871582,4487.307617,4379.102539,4400.512695,2157.000000,2.000000,50.000000,,,,0.000000,4.000000,4.000000,4.000000,4.000000,4.000000,4.000000,4.000000,4.000000,4.000000,4.000000,4.000000,4.000000,4.000000,4.000000,100.000000,,,,,,,,,,,,,,,,,,,,,,,,,,,,,,,,,,,,,,,,,,,,,,,
1665773037.729936,1665773037.730393,72.000000,0.000000,4287.948730,4247.692383,4293.077148,4313.333496,4284.102539,4289.230957,4292.563965,4271.538574,4277.307617,4266.025879,4452.307617,4471.922852,4371.538574,4391.282227,2102.000000,2.000000,50.000000,,,,0.000000,4.000000,4.000000,4.000000,4.000000,4.000000,4.000000,4.000000,4.000000,4.000000,4.000000,4.000000,4.000000,4.000000,4.000000,100.000000,,,,,,,,,,,,,,,,,,,,,,,,,,,,,,,,,,,,,,,,,,,,,,,
1665773037.737744,1665773037.738102,73.000000,0.000000,4284.487305,4247.179688,4294.615234,4313.461426,4280.769043,4279.230957,4281.410156,4273.077148,4275.000000,4251.666504,4448.205078,4472.307617,4368.461426,4391.025879,2361.000000,2.000000,50.000000,,,,0.000000,4.000000,4.000000,4.000000,4.000000,4.000000,4.000000,4.000000,4.000000,4.000000,4.000000,4.000000,4.000000,4.000000,4.000000,100.000000,,,,,,,,,,,,,,,,,,,,,,,,,,,,,,,,,,,,,,,,,,,,,,,
1665773037.745552,1665773037.745910,74.000000,0.000000,4279.871582,4248.205078,4289.358887,4311.922852,4276.153809,4280.897461,4278.846191,4290.897461,4278.717773,4255.000000,4451.025879,4476.538574,4367.179688,4394.102539,2575.000000,2.000000,50.000000,,,,0.000000,4.000000,4.000000,4.000000,4.000000,4.000000,4.000000,4.000000,4.000000,4.000000,4.000000,4.000000,4.000000,4.000000,4.000000,100.000000,,,,,,,,,,,,,,,,,,,,,,,,,,,,,,,,,,,,,,,,,,,,,,,
1665773037.753361,1665773037.753619,75.000000,0.000000,4278.333496,4246.666504,4283.205078,4309.102539,4276.794922,4288.846191,4287.436035,4295.128418,4280.897461,4264.615234,4454.615234,4473.205078,4365.769043,4388.846191,2444.000000,2.000000,50.000000,,,,0.000000,4.000000,4.000000,4.000000,4.000000,4.000000,4.000000,4.000000,4.000000,4.000000,4.000000,4.000000,4.000000,4.000000,4.000000,100.000000,,,,,,,,,,,,,,,,,,,,,,,,,,,,,,,,,,,,,,,,,,,,,,,
1665773037.761169,1665773037.761527,76.000000,0.000000,4287.436035,4250.256348,4287.692383,4310.256348,4285.256348,4291.025879,4295.641113,4300.256348,4281.666504,4256.922852,4458.974121,4477.820313,4367.948730,4385.641113,2551.000000,2.000000,50.000000,,,,0.000000,4.000000,4.000000,4.000000,4.000000,4.000000,4.000000,4.000000,4.000000,4.000000,4.000000,4.000000,4.000000,4.000000,4.000000,100.000000,,,,,,,,,,,,,,,,,,,,,,,,,,,,,,,,,,,,,,,,,,,,,,,
1665773037.768978,1665773037.769335,77.000000,0.000000,4295.769043,4251.666504,4295.641113,4316.282227,4288.077148,4283.846191,4295.000000,4312.436035,4282.820313,4257.436035,4463.333496,4486.410156,4372.820313,4389.871582,3183.000000,2.000000,50.000000,,,,0.000000,4.000000,4.000000,4.000000,4.000000,4.000000,4.000000,4.000000,4.000000,4.000000,4.000000,4.000000,4.000000,4.000000,4.000000,100.000000,,,,,,,,,,,,,,,,,,,,,,,,,,,,,,,,,,,,,,,,,,,,,,,
1665773037.776786,1665773037.777244,78.000000,0.000000,4296.282227,4248.846191,4296.410156,4319.615234,4278.077148,4278.717773,4291.153809,4310.769043,4276.666504,4264.615234,4463.205078,4485.769043,4371.922852,4392.563965,2575.000000,2.000000,50.000000,,,,0.000000,4.000000,4.000000,4.000000,4.000000,4.000000,4.000000,4.000000,4.000000,4.000000,4.000000,4.000000,4.000000,4.000000,4.000000,100.000000,,,,,,,,,,,,,,,,,,,,,,,,,,,,,,,,,,,,,,,,,,,,,,,
1665773037.784594,1665773037.785052,79.000000,0.000000,4301.794922,4255.897461,4298.205078,4318.589844,4281.025879,4281.153809,4294.615234,4303.461426,4276.410156,4254.743652,4461.025879,4485.897461,4366.538574,4393.717773,2444.000000,2.000000,50.000000,,,,0.000000,4.000000,4.000000,4.000000,4.000000,4.000000,4.000000,4.000000,4.000000,4.000000,4.000000,4.000000,4.000000,4.000000,4.000000,100.000000,,,,,,,,,,,,,,,,,,,,,,,,,,,,,,,,,,,,,,,,,,,,,,,
1665773037.792403,1665773037.792861,80.000000,0.000000,4312.436035,4265.769043,4306.538574,4321.410156,4290.000000,4280.641113,4301.922852,4318.205078,4291.922852,4253.717773,4469.615234,4499.358887,4371.922852,4403.205078,2551.000000,2.000000,50.000000,,,,0.000000,4.000000,4.000000,4.000000,4.000000,4.000000,4.000000,4.000000,4.000000,4.000000,4.000000,4.000000,4.000000,4.000000,4.000000,100.000000,,,,,,,,,,,,,,,,,,,,,,,,,,,,,,,,,,,,,,,,,,,,,,,
1665773037.800211,1665773037.800569,81.000000,0.000000,4316.794922,4267.436035,4315.897461,4329.487305,4281.410156,4280.769043,4306.025879,4327.307617,4294.871582,4262.820313,4478.717773,4508.974121,4385.256348,4416.153809,3183.000000,2.000000,50.000000,,,,0.000000,4.000000,4.000000,4.000000,4.000000,4.000000,4.000000,4.000000,4.000000,4.000000,4.000000,4.000000,4.000000,4.000000,4.000000,100.000000,,,,,,,,,,,,,,,,,,,,,,,,,,,,,,,,,,,,,,,,,,,,,,,
1665773037.808020,1665773037.808378,82.000000,0.000000,4313.205078,4266.922852,4314.871582,4327.307617,4275.256348,4289.487305,4304.230957,4296.153809,4279.487305,4252.051270,4466.538574,4496.282227,4383.205078,4412.436035,2575.000000,2.000000,50.000000,,,,0.000000,4.000000,4.000000,4.000000,4.000000,4.000000,4.000000,4.000000,4.000000,4.000000,4.000000,4.000000,4.000000,4.000000,4.000000,100.000000,,,,,,,,,,,,,,,,,,,,,,,,,,,,,,,,,,,,,,,,,,,,,,,
1665773037.815828,1665773037.816086,83.000000,0.000000,4311.410156,4267.051270,4303.333496,4318.846191,4282.948730,4293.846191,4295.769043,4269.230957,4274.230957,4246.538574,4455.000000,4480.128418,4371.794922,4399.743652,2444.000000,2.000000,50.000000,,,,0.000000,4.000000,4.000000,4.000000,4.000000,4.000000,4.000000,4.000000,4.000000,4.000000,4.000000,4.000000,4.000000,4.000000,4.000000,100.000000,,,,,,,,,,,,,,,,,,,,,,,,,,,,,,,,,,,,,,,,,,,,,,,
1665773037.823636,1665773037.823994,84.000000,0.000000,4312.563965,4267.948730,4296.666504,4318.846191,4283.461426,4291.538574,4295.256348,4285.128418,4283.717773,4262.948730,4459.102539,4484.102539,4373.333496,4399.743652,2551.000000,2.000000,50.000000,,,,0.000000,4.000000,4.000000,4.000000,4.000000,4.000000,4.000000,4.000000,4.000000,4.000000,4.000000,4.000000,4.000000,4.000000,4.000000,100.000000,,,,,,,,,,,,,,,,,,,,,,,,,,,,,,,,,,,,,,,,,,,,,,,
1665773037.831445,1665773037.831803,85.000000,0.000000,4306.282227,4264.871582,4296.410156,4320.512695,4279.358887,4294.615234,4304.487305,4308.205078,4289.230957,4270.000000,4460.128418,4488.333496,4378.846191,4401.922852,3183.000000,2.000000,50.000000,,,,0.000000,4.000000,4.000000,4.000000,4.000000,4.000000,4.000000,4.000000,4.000000,4.000000,4.000000,4.000000,4.000000,4.000000,4.000000,100.000000,,,,,,,,,,,,,,,,,,,,,,,,,,,,,,,,,,,,,,,,,,,,,,,
1665773037.839253,1665773037.839711,86.000000,0.000000,4295.769043,4255.000000,4293.205078,4314.358887,4280.769043,4296.282227,4303.846191,4308.077148,4294.102539,4264.487305,4454.871582,4475.128418,4372.948730,4394.102539,2575.000000,2.000000,50.000000,,,,0.000000,4.000000,4.000000,4.000000,4.000000,4.000000,4.000000,4.000000,4.000000,4.000000,4.000000,4.000000,4.000000,4.000000,4.000000,100.000000,,,,,,,,,,,,,,,,,,,,,,,,,,,,,,,,,,,,,,,,,,,,,,,
1665773037.847062,1665773037.847520,87.000000,0.000000,4296.282227,4248.205078,4289.487305,4308.846191,4279.615234,4293.974121,4295.000000,4307.436035,4296.922852,4265.512695,4459.615234,4472.436035,4371.794922,4392.307617,2444.000000,2.000000,50.000000,,,,0.000000,4.000000,4.000000,4.000000,4.000000,4.000000,4.000000,4.000000,4.000000,4.000000,4.000000,4.000000,4.000000,4.000000,4.000000,100.000000,,,,,,,,,,,,,,,,,,,,,,,,,,,,,,,,,,,,,,,,,,,,,,,
1665773037.854870,1665773037.855428,88.000000,0.000000,4301.025879,4248.205078,4289.743652,4310.128418,4277.307617,4293.589844,4291.922852,4309.871582,4286.666504,4265.512695,4464.230957,4481.410156,4377.563965,4398.461426,2551.000000,2.000000,50.000000,,,,0.000000,4.000000,4.000000,4.000000,4.000000,4.000000,4.000000,4.000000,4.000000,4.000000,4.000000,4.000000,4.000000,4.000000,4.000000,100.000000,,,,,,,,,,,,,,,,,,,,,,,,,,,,,,,,,,,,,,,,,,,,,,,
1665773037.862678,1665773037.863236,89.000000,0.000000,4299.230957,4251.282227,4291.538574,4310.769043,4280.897461,4294.871582,4296.282227,4308.461426,4283.205078,4268.974121,4461.794922,4483.205078,4374.102539,4403.333496,3183.000000,2.000000,50.000000,,,,0.000000,4.000000,4.000000,4.000000,4.000000,4.000000,4.000000,4.000000,4.000000,4.000000,4.000000,4.000000,4.000000,4.000000,4.000000,100.000000,,,,,,,,,,,,,,,,,,,,,,,,,,,,,,,,,,,,,,,,,,,,,,,
1665773037.870487,1665773037.871145,90.000000,0.000000,4303.461426,4259.358887,4294.615234,4313.077148,4280.512695,4293.589844,4295.512695,4305.897461,4294.358887,4274.615234,4465.128418,4485.384766,4370.641113,4410.128418,2575.000000,2.000000,50.000000,,,,0.000000,4.000000,4.000000,4.000000,4.000000,4.000000,4.000000,4.000000,4.000000,4.000000,4.000000,4.000000,4.000000,4.000000,4.000000,100.000000,,,,,,,,,,,,,,,,,,,,,,,,,,,,,,,,,,,,,,,,,,,,,,,
1665773037.878295,1665773037.878953,91.000000,0.000000,4313.846191,4268.077148,4301.538574,4322.436035,4279.871582,4287.948730,4288.461426,4298.589844,4294.487305,4270.641113,4474.487305,4494.358887,4379.358887,4415.641113,2444.000000,2.000000,50.000000,,,,0.000000,4.000000,4.000000,4.000000,4.000000,4.000000,4.000000,4.000000,4.000000,4.000000,4.000000,4.000000,4.000000,4.000000,4.000000,100.000000,,,,,,,,,,,,,,,,,,,,,,,,,,,,,,,,,,,,,,,,,,,,,,,
1665773037.886104,1665773037.886862,92.000000,0.000000,4313.717773,4266.538574,4305.897461,4322.436035,4286.410156,4278.077148,4286.025879,4291.794922,4281.025879,4265.769043,4477.179688,4496.153809,4382.179688,4406.538574,2551.000000,2.000000,50.000000,,,,0.000000,4.000000,4.000000,4.000000,4.000000,4.000000,4.000000,4.000000,4.000000,4.000000,4.000000,4.000000,4.000000,4.000000,4.000000,100.000000,,,,,,,,,,,,,,,,,,,,,,,,,,,,,,,,,,,,,,,,,,,,,,,
1665773037.893912,1665773037.894670,93.000000,0.000000,4307.948730,4262.436035,4307.436035,4310.769043,4286.153809,4277.692383,4289.743652,4292.820313,4280.512695,4262.051270,4471.538574,4491.153809,4373.333496,4398.589844,3183.000000,2.000000,50.000000,,,,0.000000,4.000000,4.000000,4.000000,4.000000,4.000000,4.000000,4.000000,4.000000,4.000000,4.000000,4.000000,4.000000,4.000000,4.000000,100.000000,1.000000,100.000000,4.000000,4.000000,4.000000,4.000000,4.000000,4.000000,4.000000,4.000000,4.000000,4.000000,4.000000,4.000000,4.000000,4.000000,1.000000,0.359871,-0.768066,-1.548138,0.657391,1.000000,0.015654,2.615484,2.470082,11.758335,0.208349,1.000000,0.255633,23.951126,-82.705566,289.904541,1.000000,0.127837,0.114947,0.096625,0.242262,1.000000,0.362002,4.264240,-4.339718,17.289221,1.000000,0.397179,0.397179,0.000000,1.000000
1665773037.901720,1665773037.902479,94.000000,0.000000,4310.000000,4263.205078,4309.743652,4312.563965,4277.692383,4285.128418,4298.077148,4306.410156,4292.179688,4260.641113,4474.487305,4497.948730,4376.794922,4409.615234,2575.000000,2.000000,50.000000,,,,0.000000,4.000000,4.000000,4.000000,4.000000,4.000000,4.000000,4.000000,4.000000,4.000000,4.000000,4.000000,4.000000,4.000000,4.000000,100.000000,,,,,,,,,,,,,,,,,,,,,,,,,,,,,,,,,,,,,,,,,,,,,,,
1665773037.909529,1665773037.910287,95.000000,0.000000,4310.256348,4266.538574,4313.717773,4319.871582,4277.307617,4287.179688,4298.974121,4319.615234,4294.615234,4265.384766,4479.358887,4511.410156,4385.384766,4420.256348,2444.000000,2.000000,50.000000,,,,0.000000,4.000000,4.000000,4.000000,4.000000,4.000000,4.000000,4.000000,4.000000,4.000000,4.000000,4.000000,4.000000,4.000000,4.000000,100.000000,,,,,,,,,,,,,,,,,,,,,,,,,,,,,,,,,,,,,,,,,,,,,,,
1665773037.917337,1665773037.917996,96.000000,0.000000,4302.820313,4264.230957,4313.461426,4313.461426,4281.922852,4289.615234,4299.871582,4315.000000,4288.589844,4268.974121,4470.000000,4508.846191,4378.717773,4413.077148,2551.000000,2.000000,50.000000,,,,0.000000,4.000000,4.000000,4.000000,4.000000,4.000000,4.000000,4.000000,4.000000,4.000000,4.000000,4.000000,4.000000,4.000000,4.000000,100.000000,,,,,,,,,,,,,,,,,,,,,,,,,,,,,,,,,,,,,,,,,,,,,,,
1665773037.925146,1665773037.925804,97.000000,0.000000,4297.179688,4255.384766,4306.410156,4309.615234,4284.871582,4297.179688,4307.820313,4302.692383,4282.692383,4268.205078,4461.538574,4489.358887,4371.538574,4401.666504,3183.000000,2.000000,50.000000,,,,0.000000,4.000000,4.000000,4.000000,4.000000,4.000000,4.000000,4.000000,4.000000,4.000000,4.000000,4.000000,4.000000,4.000000,4.000000,100.000000,,,,,,,,,,,,,,,,,,,,,,,,,,,,,,,,,,,,,,,,,,,,,,,
1665773037.932954,1665773037.933512,98.000000,0.000000,4289.871582,4249.230957,4295.512695,4307.179688,4279.743652,4300.384766,4307.563965,4293.205078,4279.615234,4260.897461,4455.897461,4472.436035,4371.794922,4394.102539,2575.000000,2.000000,50.000000,,,,0.000000,4.000000,4.000000,4.000000,4.000000,4.000000,4.000000,4.000000,4.000000,4.000000,4.000000,4.000000,4.000000,4.000000,4.000000,100.000000,,,,,,,,,,,,,,,,,,,,,,,,,,,,,,,,,,,,,,,,,,,,,,,
1665773037.940762,1665773037.941321,99.000000,0.000000,4276.410156,4241.538574,4283.846191,4289.871582,4270.000000,4294.102539,4296.538574,4286.025879,4278.846191,4251.282227,4446.922852,4464.358887,4366.410156,4386.538574,2444.000000,2.000000,50.000000,,,,0.000000,4.000000,4.000000,4.000000,4.000000,4.000000,4.000000,4.000000,4.000000,4.000000,4.000000,4.000000,4.000000,4.000000,4.000000,100.000000,,,,,,,,,,,,,,,,,,,,,,,,,,,,,,,,,,,,,,,,,,,,,,,
1665773037.948571,1665773037.949029,100.000000,0.000000,4274.102539,4236.153809,4277.436035,4281.153809,4268.846191,4287.436035,4288.717773,4284.615234,4278.717773,4254.743652,4446.922852,4457.051270,4360.256348,4388.077148,2551.000000,2.000000,50.000000,,,,0.000000,4.000000,4.000000,4.000000,4.000000,4.000000,4.000000,4.000000,4.000000,4.000000,4.000000,4.000000,4.000000,4.000000,4.000000,100.000000,,,,,,,,,,,,,,,,,,,,,,,,,,,,,,,,,,,,,,,,,,,,,,,
1665773037.956379,1665773037.956838,101.000000,0.000000,4285.384766,4242.948730,4278.589844,4293.846191,4270.000000,4285.256348,4287.692383,4291.794922,4279.871582,4268.974121,4458.846191,4457.692383,4364.615234,4398.974121,3183.000000,2.000000,50.000000,,,,0.000000,4.000000,4.000000,4.000000,4.000000,4.000000,4.000000,4.000000,4.000000,4.000000,4.000000,4.000000,4.000000,4.000000,4.000000,100.000000,,,,,,,,,,,,,,,,,,,,,,,,,,,,,,,,,,,,,,,,,,,,,,,
1665773037.964188,1665773037.964546,102.000000,0.000000,4287.820313,4250.000000,4278.974121,4297.563965,4264.358887,4280.128418,4277.948730,4295.769043,4280.897461,4265.512695,4460.128418,4467.179688,4373.717773,4404.743652,2575.000000,2.000000,50.000000,,,,0.000000,4.000000,4.000000,4.000000,4.000000,4.000000,4.000000,4.000000,4.000000,4.000000,4.000000,4.000000,4.000000,4.000000,4.000000,100.000000,,,,,,,,,,,,,,,,,,,,,,,,,,,,,,,,,,,,,,,,,,,,,,,
1665773037.971996,1665773037.972355,103.000000,0.000000,4290.256348,4252.692383,4282.179688,4292.563965,4267.948730,4283.461426,4273.717773,4290.769043,4284.487305,4258.077148,4457.692383,4474.358887,4380.769043,4408.717773,2444.000000,2.000000,50.000000,,,,0.000000,4.000000,4.000000,4.000000,4.000000,4.000000,4.000000,4.000000,4.000000,4.000000,4.000000,4.000000,4.000000,4.000000,4.000000,100.000000,,,,,,,,,,,,,,,,,,,,,,,,,,,,,,,,,,,,,,,,,,,,,,,
1665773037.979804,1665773037.980063,104.000000,0.000000,4305.641113,4263.461426,4294.615234,4304.743652,4280.641113,4296.410156,4287.820313,4292.307617,4286.666504,4273.974121,4470.256348,4484.230957,4383.974121,4421.666504,2551.000000,2.000000,50.000000,,,,0.000000,4.000000,4.000000,4.000000,4.000000,4.000000,4.000000,4.000000,4.000000,4.000000,4.000000,4.000000,4.000000,4.000000,4.000000,100.000000,,,,,,,,,,,,,,,,,,,,,,,,,,,,,,,,,,,,,,,,,,,,,,,
1665773037.987613,1665773037.987872,105.000000,0.000000,4315.897461,4275.384766,4303.077148,4322.179688,4282.820313,4292.820313,4295.897461,4305.384766,4287.692383,4281.666504,4478.846191,4502.179688,4382.948730,4427.948730,3183.000000,2.000000,50.000000,,,,0.000000,4.000000,4.000000,4.000000,4.000000,4.000000,4.000000,4.000000,4.000000,4.000000,4.000000,4.000000,4.000000,4.000000,4.000000,100.000000,,,,,,,,,,,,,,,,,,,,,,,,,,,,,,,,,,,,,,,,,,,,,,,
1665773037.995421,1665773037.995580,106.000000,0.000000,4312.563965,4277.820313,4301.410156,4323.589844,4280.000000,4279.230957,4292.563965,4311.666504,4292.692383,4269.743652,4477.051270,4508.461426,4384.358887,4425.256348,2575.000000,2.000000,50.000000,,,,0.000000,4.000000,4.000000,4.000000,4.000000,4.000000,4.000000,4.000000,4.000000,4.000000,4.000000,4.000000,4.000000,4.000000,4.000000,100.000000,,,,,,,,,,,,,,,,,,,,,,,,,,,,,,,,,,,,,,,,,,,,,,,
1665773038.003230,1665773038.003489,107.000000,0.000000,4303.974121,4275.000000,4301.410156,4315.769043,4282.692383,4285.512695,4294.871582,4306.538574,4290.512695,4262.307617,4472.692383,4495.641113,4383.461426,4422.307617,2444.000000,2.000000,50.000000,,,,0.000000,4.000000,4.000000,4.000000,4.000000,4.000000,4.000000,4.000000,4.000000,4.000000,4.000000,4.000000,4.000000,4.000000,4.000000,100.000000,,,,,,,,,,,,,,,,,,,,,,,,,,,,,,,,,,,,,,,,,,,,,,,
1665773038.011038,1665773038.011297,108.000000,0.000000,4298.205078,4266.282227,4301.410156,4311.538574,4283.077148,4298.461426,4302.948730,4299.487305,4281.153809,4261.025879,4464.871582,4488.461426,4377.179688,4417.179688,2551.000000,2.000000,50.000000,,,,0.000000,4.000000,4.000000,4.000000,4.000000,4.000000,4.000000,4.000000,4.000000,4.000000,4.000000,4.000000,4.000000,4.000000,4.000000,100.000000,,,,,,,,,,,,,,,,,,,,,,,,,,,,,,,,,,,,,,,,,,,,,,,
1665773038.018847,1665773038.019106,109.000000,0.000000,4295.769043,4261.794922,4297.307617,4309.487305,4282.179688,4297.051270,4297.692383,4298.461426,4279.487305,4269.230957,4460.384766,4489.487305,4373.589844,4413.333496,3183.000000,2.000000,50.000000,,,,0.000000,4.000000,4.000000,4.000000,4.000000,4.000000,4.000000,4.000000,4.000000,4.000000,4.000000,4.000000,4.000000,4.000000,4.000000,100.000000,,,,,,,,,,,,,,,,,,,,,,,,,,,,,,,,,,,,,,,,,,,,,,,
1665773038.026655,1665773038.026814,110.000000,0.000000,4291.666504,4262.051270,4291.666504,4306.025879,4281.666504,4291.538574,4289.615234,4296.410156,4281.410156,4277.307617,4459.743652,4477.051270,4371.153809,4410.256348,2575.000000,2.000000,50.000000,,,,0.000000,4.000000,4.000000,4.000000,4.000000,4.000000,4.000000,4.000000,4.000000,4.000000,4.000000,4.000000,4.000000,4.000000,4.000000,100.000000,,,,,,,,,,,,,,,,,,,,,,,,,,,,,,,,,,,,,,,,,,,,,,,
1665773038.034463,1665773038.034723,111.000000,0.000000,4294.487305,4265.256348,4293.461426,4308.589844,4282.179688,4295.897461,4299.102539,4295.384766,4284.743652,4272.820313,4459.743652,4475.128418,4375.512695,4412.051270,2444.000000,2.000000,50.000000,,,,0.000000,4.000000,4.000000,4.000000,4.000000,4.000000,4.000000,4.000000,4.000000,4.000000,4.000000,4.000000,4.000000,4.000000,4.000000,100.000000,,,,,,,,,,,,,,,,,,,,,,,,,,,,,,,,,,,,,,,,,,,,,,,
1665773038.042272,1665773038.042531,112.000000,0.000000,4308.077148,4273.333496,4299.230957,4315.384766,4283.205078,4301.538574,4301.922852,4294.871582,4290.384766,4265.897461,4462.179688,4489.743652,4383.974121,4422.307617,2551.000000,2.000000,50.000000,,,,0.000000,4.000000,4.000000,4.000000,4.000000,4.000000,4.000000,4.000000,4.000000,4.000000,4.000000,4.000000,4.000000,4.000000,4.000000,100.000000,,,,,,,,,,,,,,,,,,,,,,,,,,,,,,,,,,,,,,,,,,,,,,,
1665773038.050080,1665773038.050439,113.000000,0.000000,4308.333496,4273.205078,4290.000000,4313.205078,4280.769043,4291.794922,4286.282227,4292.948730,4284.487305,4260.128418,4462.051270,4485.897461,4380.769043,4427.051270,3183.000000,2.000000,50.000000,,,,0.000000,4.000000,4.000000,4.000000,4.000000,4.000000,4.000000,4.000000,4.000000,4.000000,4.000000,4.000000,4.000000,4.000000,4.000000,100.000000,,,,,,,,,,,,,,,,,,,,,,,,,,,,,,,,,,,,,,,,,,,,,,,
1665773038.057889,1665773038.058248,114.000000,0.000000,4292.051270,4264.358887,4278.333496,4307.179688,4276.538574,4279.102539,4276.025879,4297.179688,4275.384766,4257.179688,4456.794922,4468.717773,4373.846191,4421.025879,2575.000000,2.000000,50.000000,,,,0.000000,4.000000,4.000000,4.000000,4.000000,4.000000,4.000000,4.000000,4.000000,4.000000,4.000000,4.000000,4.000000,4.000000,4.000000,100.000000,,,,,,,,,,,,,,,,,,,,,,,,,,,,,,,,,,,,,,,,,,,,,,,
1665773038.065697,1665773038.066156,115.000000,0.000000,4293.974121,4264.487305,4285.769043,4307.820313,4275.641113,4284.743652,4277.436035,4296.666504,4283.077148,4268.205078,4462.307617,4469.743652,4379.743652,4424.615234,2444.000000,2.000000,50.000000,,,,0.000000,4.000000,4.000000,4.000000,4.000000,4.000000,4.000000,4.000000,4.000000,4.000000,4.000000,4.000000,4.000000,4.000000,4.000000,100.000000,,,,,,,,,,,,,,,,,,,,,,,,,,,,,,,,,,,,,,,,,,,,,,,
1665773038.073506,1665773038.073965,116.000000,0.000000,4310.128418,4274.102539,4300.000000,4314.230957,4280.769043,4293.974121,4281.794922,4294.102539,4294.230957,4284.871582,4475.641113,4484.871582,4387.948730,4435.897461,2551.000000,2.000000,50.000000,,,,0.000000,4.000000,4.000000,4.000000,4.000000,4.000000,4.000000,4.000000,4.000000,4.000000,4.000000,4.000000,4.000000,4.000000,4.000000,100.000000,,,,,,,,,,,,,,,,,,,,,,,,,,,,,,,,,,,,,,,,,,,,,,,
1665773038.081314,1665773038.081873,117.000000,0.000000,4309.230957,4274.871582,4297.307617,4319.358887,4285.897461,4291.153809,4291.410156,4299.615234,4293.589844,4283.974121,4477.051270,4491.922852,4384.615234,4433.974121,3183.000000,2.000000,50.000000,,,,0.000000,4.000000,4.000000,4.000000,4.000000,4.000000,4.000000,4.000000,4.000000,4.000000,4.000000,4.000000,4.000000,4.000000,4.000000,100.000000,,,,,,,,,,,,,,,,,,,,,,,,,,,,,,,,,,,,,,,,,,,,,,,
1665773038.089122,1665773038.089681,118.000000,0.000000,4301.666504,4268.333496,4292.179688,4317.692383,4288.846191,4289.743652,4299.358887,4313.717773,4291.153809,4273.846191,4474.487305,4495.128418,4380.769043,4429.615234,2575.000000,2.000000,50.000000,,,,0.000000,4.000000,4.000000,4.000000,4.000000,4.000000,4.000000,4.000000,4.000000,4.000000,4.000000,4.000000,4.000000,4.000000,4.000000,100.000000,,,,,,,,,,,,,,,,,,,,,,,,,,,,,,,,,,,,,,,,,,,,,,,
1665773038.096931,1665773038.097390,119.000000,0.000000,4304.102539,4265.641113,4296.794922,4313.205078,4293.205078,4289.743652,4297.948730,4320.769043,4297.563965,4272.820313,4476.794922,4497.692383,4382.692383,4430.512695,2444.000000,2.000000,50.000000,,,,0.000000,4.000000,4.000000,4.000000,4.000000,4.000000,4.000000,4.000000,4.000000,4.000000,4.000000,4.000000,4.000000,4.000000,4.000000,100.000000,,,,,,,,,,,,,,,,,,,,,,,,,,,,,,,,,,,,,,,,,,,,,,,
1665773038.104739,1665773038.105198,120.000000,0.000000,4302.307617,4266.025879,4299.102539,4312.692383,4288.205078,4281.922852,4295.897461,4309.230957,4297.436035,4276.410156,4476.025879,4496.282227,4384.615234,4424.871582,2551.000000,2.000000,50.000000,,,,0.000000,4.000000,4.000000,4.000000,4.000000,4.000000,4.000000,4.000000,4.000000,4.000000,4.000000,4.000000,4.000000,4.000000,4.000000,100.000000,,,,,,,,,,,,,,,,,,,,,,,,,,,,,,,,,,,,,,,,,,,,,,,
1665773038.112548,1665773038.112907,121.000000,0.000000,4292.179688,4264.230957,4293.461426,4312.179688,4280.384766,4280.000000,4293.846191,4292.692383,4285.128418,4275.000000,4471.538574,4488.077148,4382.051270,4413.077148,3183.000000,2.000000,50.000000,,,,0.000000,4.000000,4.000000,4.000000,4.000000,4.000000,4.000000,4.000000,4.000000,4.000000,4.000000,4.000000,4.000000,4.000000,4.000000,100.000000,,,,,,,,,,,,,,,,,,,,,,,,,,,,,,,,,,,,,,,,,,,,,,,
1665773038.120356,1665773038.120715,122.000000,0.000000,4288.461426,4261.794922,4288.333496,4310.384766,4283.717773,4291.153809,4291.025879,4291.794922,4279.615234,4264.743652,4467.051270,4478.717773,4375.641113,4404.743652,2575.000000,2.000000,50.000000,,,,0.000000,4.000000,4.000000,4.000000,4.000000,4.000000,4.000000,4.000000,4.000000,4.000000,4.000000,4.000000,4.000000,4.000000,4.000000,100.000000,,,,,,,,,,,,,,,,,,,,,,,,,,,,,,,,,,,,,,,,,,,,,,,
1665773038.128164,1665773038.128424,123.000000,0.000000,4293.077148,4265.384766,4290.128418,4309.615234,4288.589844,4293.589844,4293.461426,4303.846191,4281.538574,4264.615234,4463.717773,4480.897461,4377.563965,4406.410156,2444.000000,2.000000,50.000000,,,,0.000000,4.000000,4.000000,4.000000,4.000000,4.000000,4.000000,4.000000,4.000000,4.000000,4.000000,4.000000,4.000000,4.000000,4.000000,100.000000,,,,,,,,,,,,,,,,,,,,,,,,,,,,,,,,,,,,,,,,,,,,,,,
1665773038.135973,1665773038.136232,124.000000,0.000000,4294.102539,4272.179688,4294.102539,4302.563965,4281.282227,4284.230957,4292.179688,4302.179688,4277.307617,4269.743652,4461.025879,4480.897461,4383.077148,4408.333496,2551.000000,2.000000,50.000000,,,,0.000000,4.000000,4.000000,4.000000,4.000000,4.000000,4.000000,4.000000,4.000000,4.000000,4.000000,4.000000,4.000000,4.000000,4.000000,100.000000,,,,,,,,,,,,,,,,,,,,,,,,,,,,,,,,,,,,,,,,,,,,,,,
1665773038.143781,1665773038.143941,125.000000,0.000000,4296.410156,4276.025879,4293.974121,4295.641113,4272.820313,4279.487305,4282.692383,4294.102539,4275.000000,4254.358887,4459.487305,4473.974121,4376.794922,4405.641113,3183.000000,2.000000,50.000000,,,,0.000000,4.000000,4.000000,4.000000,4.000000,4.000000,4.000000,4.000000,4.000000,4.000000,4.000000,4.000000,4.000000,4.000000,4.000000,100.000000,,,,,,,,,,,,,,,,,,,,,,,,,,,,,,,,,,,,,,,,,,,,,,,
1665773038.151590,1665773038.151749,126.000000,0.000000,4304.230957,4274.358887,4292.820313,4298.205078,4277.820313,4281.538574,4277.948730,4291.538574,4277.692383,4243.974121,4457.692383,4476.922852,4368.846191,4407.179688,2575.000000,2.000000,50.000000,,,,0.000000,4.000000,4.000000,4.000000,4.000000,4.000000,4.000000,4.000000,4.000000,4.000000,4.000000,4.000000,4.000000,4.000000,4.000000,100.000000,,,,,,,,,,,,,,,,,,,,,,,,,,,,,,,,,,,,,,,,,,,,,,,
1665773038.159398,1665773038.159458,127.000000,0.000000,4313.077148,4274.102539,4300.128418,4299.615234,4280.769043,4287.051270,4285.128418,4285.384766,4277.436035,4257.692383,4460.128418,4489.743652,4374.487305,4417.563965,50.000000,2.000000,50.000000,,,,0.000000,4.000000,4.000000,4.000000,4.000000,4.000000,4.000000,4.000000,4.000000,4.000000,4.000000,4.000000,4.000000,4.000000,4.000000,100.000000,,,,,,,,,,,,,,,,,,,,,,,,,,,,,,,,,,,,,,,,,,,,,,,
1665773038.167206,1665773038.167266,0.000000,0.000000,4318.333496,4279.102539,4309.358887,4295.769043,4277.051270,4294.487305,4294.102539,4283.717773,4277.307617,4264.743652,4469.358887,4494.615234,4383.974121,4428.205078,1801.000000,2.000000,50.000000,,,,0.000000,4.000000,4.000000,4.000000,4.000000,4.000000,4.000000,4.000000,4.000000,4.000000,4.000000,4.000000,4.000000,4.000000,4.000000,100.000000,,,,,,,,,,,,,,,,,,,,,,,,,,,,,,,,,,,,,,,,,,,,,,,
1665773038.175015,1665773038.174975,1.000000,0.000000,4317.436035,4279.358887,4304.743652,4294.230957,4282.179688,4297.820313,4293.333496,4298.205078,4280.384766,4264.102539,4473.974121,4493.461426,4382.948730,4431.025879,2312.000000,2.000000,50.000000,,,,0.000000,4.000000,4.000000,4.000000,4.000000,4.000000,4.000000,4.000000,4.000000,4.000000,4.000000,4.000000,4.000000,4.000000,4.000000,100.000000,,,,,,,,,,,,,,,,,,,,,,,,,,,,,,,,,,,,,,,,,,,,,,,
1665773038.182823,1665773038.182783,2.000000,0.000000,4309.743652,4272.820313,4297.948730,4296.794922,4296.666504,4299.102539,4291.666504,4312.948730,4290.641113,4269.102539,4473.461426,4496.153809,4381.538574,4428.077148,2079.000000,2.000000,50.000000,,,,0.000000,4.000000,4.000000,4.000000,4.000000,4.000000,4.000000,4.000000,4.000000,4.000000,4.000000,4.000000,4.000000,4.000000,4.000000,100.000000,,,,,,,,,,,,,,,,,,,,,,,,,,,,,,,,,,,,,,,,,,,,,,,
1665773038.190632,1665773038.190492,3.000000,0.000000,4302.179688,4268.846191,4295.512695,4294.871582,4300.769043,4303.974121,4300.128418,4311.794922,4295.000000,4268.717773,4475.256348,4495.256348,4384.487305,4422.307617,2132.000000,2.000000,50.000000,,,,0.000000,4.000000,4.000000,4.000000,4.000000,4.000000,4.000000,4.000000,4.000000,4.000000,4.000000,4.000000,4.000000,4.000000,4.000000,100.000000,,,,,,,,,,,,,,,,,,,,,,,,,,,,,,,,,,,,,,,,,,,,,,,
1665773038.198440,1665773038.198400,4.000000,0.000000,4293.589844,4266.538574,4289.230957,4286.153809,4288.974121,4304.358887,4305.769043,4312.051270,4284.487305,4268.846191,4475.000000,4489.615234,4380.641113,4414.743652,2276.000000,2.000000,50.000000,,,,0.000000,4.000000,4.000000,4.000000,4.000000,4.000000,4.000000,4.000000,4.000000,4.000000,4.000000,4.000000,4.000000,4.000000,4.000000,100.000000,,,,,,,,,,,,,,,,,,,,,,,,,,,,,,,,,,,,,,,,,,,,,,,
1665773038.206248,1665773038.206209,5.000000,0.000000,4280.512695,4262.051270,4281.922852,4278.333496,4281.538574,4292.307617,4296.153809,4312.051270,4284.615234,4277.051270,4464.230957,4478.205078,4367.307617,4401.153809,2311.000000,2.000000,50.000000,,,,0.000000,4.000000,4.000000,4.000000,4.000000,4.000000,4.000000,4.000000,4.000000,4.000000,4.000000,4.000000,4.000000,4.000000,4.000000,100.000000,,,,,,,,,,,,,,,,,,,,,,,,,,,,,,,,,,,,,,,,,,,,,,,
1665773038.214057,1665773038.214117,6.000000,0.000000,4278.205078,4262.436035,4281.282227,4277.051270,4279.871582,4286.922852,4288.205078,4304.487305,4297.179688,4270.256348,4455.256348,4466.794922,4360.641113,4389.743652,2044.000000,2.000000,50.000000,,,,0.000000,4.000000,4.000000,4.000000,4.000000,4.000000,4.000000,4.000000,4.000000,4.000000,4.000000,4.000000,4.000000,4.000000,4.000000,100.000000,,,,,,,,,,,,,,,,,,,,,,,,,,,,,,,,,,,,,,,,,,,,,,,
1665773038.221865,1665773038.221926,7.000000,0.000000,4289.871582,4265.641113,4282.820313,4281.666504,4282.307617,4292.436035,4292.179688,4305.384766,4297.436035,4261.282227,4461.153809,4471.410156,4370.256348,4393.846191,2160.000000,2.000000,50.000000,,,,0.000000,4.000000,4.000000,4.000000,4.000000,4.000000,4.000000,4.000000,4.000000,4.000000,4.000000,4.000000,4.000000,4.000000,4.000000,100.000000,,,,,,,,,,,,,,,,,,,,,,,,,,,,,,,,,,,,,,,,,,,,,,,
1665773038.229674,1665773038.229834,8.000000,0.000000,4289.358887,4265.769043,4281.922852,4283.205078,4281.794922,4291.153809,4289.615234,4309.102539,4290.384766,4270.769043,4463.717773,4475.384766,4375.256348,4398.717773,2100.000000,2.000000,50.000000,,,,0.000000,4.000000,4.000000,4.000000,4.000000,4.000000,4.000000,4.000000,4.000000,4.000000,4.000000,4.000000,4.000000,4.000000,4.000000,100.000000,,,,,,,,,,,,,,,,,,,,,,,,,,,,,,,,,,,,,,,,,,,,,,,
1665773038.237482,1665773038.237642,9.000000,0.000000,4278.333496,4264.871582,4277.307617,4270.384766,4268.461426,4278.974121,4273.974121,4299.615234,4287.948730,4269.102539,4455.000000,4462.563965,4366.282227,4391.025879,2361.000000,2.000000,50.000000,,,,0.000000,4.000000,4.000000,4.000000,4.000000,4.000000,4.000000,4.000000,4.000000,4.000000,4.000000,4.000000,4.000000,4.000000,4.000000,100.000000,,,,,,,,,,,,,,,,,,,,,,,,,,,,,,,,,,,,,,,,,,,,,,,
1665773038.245290,1665773038.245551,10.000000,0.000000,4284.230957,4263.717773,4275.000000,4258.846191,4263.717773,4276.153809,4269.487305,4282.051270,4279.358887,4257.436035,4451.282227,4456.538574,4367.051270,4391.666504,2566.000000,2.000000,50.000000,,,,0.000000,4.000000,4.000000,4.000000,4.000000,4.000000,4.000000,4.000000,4.000000,4.000000,4.000000,4.000000,4.000000,4.000000,4.000000,100.000000,,,,,,,,,,,,,,,,,,,,,,,,,,,,,,,,,,,,,,,,,,,,,,,
1665773038.253099,1665773038.253359,11.000000,0.000000,4300.256348,4266.538574,4287.436035,4271.153809,4277.436035,4289.743652,4281.410156,4277.179688,4274.615234,4263.589844,4458.461426,4475.384766,4382.820313,4407.307617,2428.000000,2.000000,50.000000,,,,0.000000,4.000000,4.000000,4.000000,4.000000,4.000000,4.000000,4.000000,4.000000,4.000000,4.000000,4.000000,4.000000,4.000000,4.000000,100.000000,,,,,,,,,,,,,,,,,,,,,,,,,,,,,,,,,,,,,,,,,,,,,,,
1665773038.260907,1665773038.261267,12.000000,0.000000,4304.871582,4275.128418,4300.769043,4283.589844,4284.743652,4295.384766,4286.153809,4287.820313,4284.102539,4268.717773,4466.538574,4493.205078,4389.358887,4417.820313,2540.000000,2.000000,50.000000,,,,0.000000,4.000000,4.000000,4.000000,4.000000,4.000000,4.000000,4.000000,4.000000,4.000000,4.000000,4.000000,4.000000,4.000000,4.000000,100.000000,,,,,,,,,,,,,,,,,,,,,,,,,,,,,,,,,,,,,,,,,,,,,,,
1665773038.268716,1665773038.269076,13.000000,0.000000,4304.615234,4278.461426,4297.307617,4280.128418,4277.179688,4291.153809,4286.282227,4301.538574,4291.025879,4262.436035,4470.256348,4493.589844,4382.307617,4418.846191,3167.000000,2.000000,50.000000,,,,0.000000,4.000000,4.000000,4.000000,4.000000,4.000000,4.000000,4.000000,4.000000,4.000000,4.000000,4.000000,4.000000,4.000000,4.000000,100.000000,,,,,,,,,,,,,,,,,,,,,,,,,,,,,,,,,,,,,,,,,,,,,,,
1665773038.276524,1665773038.276784,14.000000,0.000000,4310.769043,4275.897461,4295.128418,4286.922852,4274.102539,4292.820313,4295.128418,4309.230957,4291.282227,4265.897461,4474.230957,4497.307617,4386.538574,4424.102539,2566.000000,2.000000,50.000000,,,,0.000000,4.000000,4.000000,4.000000,4.000000,4.000000,4.000000,4.000000,4.000000,4.000000,4.000000,4.000000,4.000000,4.000000,4.000000,100.000000,,,,,,,,,,,,,,,,,,,,,,,,,,,,,,,,,,,,,,,,,,,,,,,
1665773038.284332,1665773038.284593,15.000000,0.000000,4319.102539,4278.077148,4305.000000,4298.846191,4277.563965,4295.641113,4298.589844,4313.974121,4295.256348,4272.563965,4476.538574,4507.820313,4397.692383,4430.256348,2428.000000,2.000000,50.000000,,,,0.000000,4.000000,4.000000,4.000000,4.000000,4.000000,4.000000,4.000000,4.000000,4.000000,4.000000,4.000000,4.000000,4.000000,4.000000,100.000000,,,,,,,,,,,,,,,,,,,,,,,,,,,,,,,,,,,,,,,,,,,,,,,
1665773038.292141,1665773038.292301,16.000000,0.000000,4318.589844,4281.666504,4308.717773,4298.717773,4287.948730,4292.948730,4294.230957,4320.384766,4295.641113,4268.461426,4477.948730,4508.461426,4394.615234,4428.846191,0.000000,2.000000,50.000000,,,,0.000000,4.000000,4.000000,4.000000,4.000000,4.000000,4.000000,4.000000,4.000000,4.000000,4.000000,4.000000,4.000000,4.000000,4.000000,100.000000,,,,,,,,,,,,,,,,,,,,,,,,,,,,,,,,,,,,,,,,,,,,,,,
1665773038.299949,1665773038.300110,17.000000,0.000000,4307.051270,4277.820313,4303.205078,4295.384766,4298.333496,4293.974121,4298.974121,4326.794922,4286.666504,4265.256348,4476.922852,4497.692383,4383.589844,4417.307617,0.000000,2.000000,50.000000,,,,0.000000,4.000000,4.000000,4.000000,4.000000,4.000000,4.000000,4.000000,4.000000,4.000000,4.000000,4.000000,4.000000,4.000000,4.000000,100.000000,,,,,,,,,,,,,,,,,,,,,,,,,,,,,,,,,,,,,,,,,,,,,,,
1665773038.307758,1665773038.307818,18.000000,0.000000,4290.256348,4268.974121,4293.205078,4288.589844,4289.743652,4294.487305,4296.282227,4315.000000,4279.358887,4264.487305,4464.871582,4480.769043,4374.487305,4396.666504,0.000000,2.000000,50.000000,,,,0.000000,4.000000,4.000000,4.000000,4.000000,4.000000,4.000000,4.000000,4.000000,4.000000,4.000000,4.000000,4.000000,4.000000,4.000000,100.000000,,,,,,,,,,,,,,,,,,,,,,,,,,,,,,,,,,,,,,,,,,,,,,,
1665773038.315566,1665773038.315727,19.000000,0.000000,4280.384766,4262.051270,4284.230957,4278.974121,4279.102539,4283.077148,4279.615234,4285.897461,4280.000000,4265.000000,4455.128418,4466.025879,4365.769043,4380.512695,0.000000,2.000000,50.000000,,,,0.000000,4.000000,4.000000,4.000000,4.000000,4.000000,4.000000,4.000000,4.000000,4.000000,4.000000,4.000000,4.000000,4.000000,4.000000,100.000000,,,,,,,,,,,,,,,,,,,,,,,,,,,,,,,,,,,,,,,,,,,,,,,
1665773038.323374,1665773038.323535,20.000000,0.000000,4278.846191,4260.512695,4277.692383,4279.615234,4280.641113,4276.666504,4274.743652,4284.615234,4284.743652,4270.384766,4457.436035,4462.179688,4363.205078,4380.512695,0.000000,2.000000,50.000000,,,,0.000000,4.000000,4.000000,4.000000,4.000000,4.000000,4.000000,4.000000,4.000000,4.000000,4.000000,4.000000,4.000000,4.000000,4.000000,100.000000,,,,,,,,,,,,,,,,,,,,,,,,,,,,,,,,,,,,,,,,,,,,,,,
1665773038.331183,1665773038.331444,21.000000,0.000000,4275.897461,4261.282227,4269.487305,4280.000000,4281.410156,4280.512695,4271.666504,4294.743652,4288.717773,4271.666504,4460.384766,4460.512695,4368.333496,4382.692383,0.000000,2.000000,50.000000,,,,0.000000,4.000000,4.000000,4.000000,4.000000,4.000000,4.000000,4.000000,4.000000,4.000000,4.000000,4.000000,4.000000,4.000000,4.000000,100.000000,,,,,,,,,,,,,,,,,,,,,,,,,,,,,,,,,,,,,,,,,,,,,,,
1665773038.338991,1665773038.339252,22.000000,0.000000,4277.692383,4261.794922,4266.538574,4276.410156,4278.461426,4281.025879,4261.922852,4279.358887,4284.487305,4264.358887,4456.153809,4456.794922,4373.589844,4383.461426,0.000000,2.000000,50.000000,,,,0.000000,4.000000,4.000000,4.000000,4.000000,4.000000,4.000000,4.000000,4.000000,4.000000,4.000000,4.000000,4.000000,4.000000,4.000000,100.000000,,,,,,,,,,,,,,,,,,,,,,,,,,,,,,,,,,,,,,,,,,,,,,,
1665773038.346800,1665773038.347160,23.000000,0.000000,4288.974121,4264.871582,4276.666504,4282.436035,4270.897461,4278.717773,4263.077148,4276.922852,4279.871582,4262.436035,4457.051270,4465.256348,4378.205078,4395.256348,0.000000,2.000000,50.000000,,,,0.000000,4.000000,4.000000,4.000000,4.000000,4.000000,4.000000,4.000000,4.000000,4.000000,4.000000,4.000000,4.000000,4.000000,4.000000,100.000000,,,,,,,,,,,,,,,,,,,,,,,,,,,,,,,,,,,,,,,,,,,,,,,
1665773038.354608,1665773038.354969,24.000000,0.000000,4296.922852,4267.307617,4288.333496,4290.897461,4262.436035,4276.794922,4266.794922,4297.307617,4283.589844,4265.769043,4463.461426,4482.436035,4380.000000,4408.717773,0.000000,2.000000,50.000000,,,,0.000000,4.000000,4.000000,4.000000,4.000000,4.000000,4.000000,4.000000,4.000000,4.000000,4.000000,4.000000,4.000000,4.000000,4.000000,100.000000,,,,,,,,,,,,,,,,,,,,,,,,,,,,,,,,,,,,,,,,,,,,,,,
1665773038.362416,1665773038.362877,25.000000,0.000000,4295.384766,4262.948730,4289.102539,4290.769043,4267.948730,4278.461426,4263.846191,4295.769043,4283.077148,4260.897461,4461.794922,4489.871582,4377.563965,4409.871582,0.000000,2.000000,50.000000,,,,0.000000,4.000000,4.000000,4.000000,4.000000,4.000000,4.000000,4.000000,4.000000,4.000000,4.000000,4.000000,4.000000,4.000000,4.000000,100.000000,,,,,,,,,,,,,,,,,,,,,,,,,,,,,,,,,,,,,,,,,,,,,,,
1665773038.370225,1665773038.370686,26.000000,0.000000,4301.922852,4262.307617,4292.051270,4293.846191,4281.153809,4286.153809,4275.000000,4286.794922,4278.717773,4258.717773,4460.128418,4489.615234,4378.461426,4412.051270,0.000000,2.000000,50.000000,,,,0.000000,4.000000,4.000000,4.000000,4.000000,4.000000,4.000000,4.000000,4.000000,4.000000,4.000000,4.000000,4.000000,4.000000,4.000000,100.000000,,,,,,,,,,,,,,,,,,,,,,,,,,,,,,,,,,,,,,,,,,,,,,,
1665773038.378033,1665773038.378594,27.000000,0.000000,4318.589844,4275.128418,4304.615234,4305.000000,4280.000000,4296.538574,4296.922852,4299.871582,4284.487305,4271.666504,4469.230957,4498.205078,4383.461426,4422.051270,0.000000,2.000000,50.000000,,,,0.000000,4.000000,4.000000,4.000000,4.000000,4.000000,4.000000,4.000000,4.000000,4.000000,4.000000,4.000000,4.000000,4.000000,4.000000,100.000000,,,,,,,,,,,,,,,,,,,,,,,,,,,,,,,,,,,,,,,,,,,,,,,
1665773038.385842,1665773038.386402,28.000000,0.000000,4318.589844,4280.897461,4310.769043,4312.820313,4275.897461,4306.666504,4306.666504,4312.436035,4287.563965,4275.000000,4476.153809,4508.846191,4380.641113,4422.692383,0.000000,2.000000,50.000000,,,,0.000000,4.000000,4.000000,4.000000,4.000000,4.000000,4.000000,4.000000,4.000000,4.000000,4.000000,4.000000,4.000000,4.000000,4.000000,100.000000,,,,,,,,,,,,,,,,,,,,,,,,,,,,,,,,,,,,,,,,,,,,,,,
1665773038.393650,1665773038.394311,29.000000,0.000000,4303.077148,4268.589844,4307.179688,4309.743652,4290.384766,4310.384766,4308.077148,4319.871582,4280.769043,4260.000000,4473.717773,4509.102539,4371.153809,4417.436035,0.000000,2.000000,50.000000,,,,0.000000,4.000000,4.000000,4.000000,4.000000,4.000000,4.000000,4.000000,4.000000,4.000000,4.000000,4.000000,4.000000,4.000000,4.000000,100.000000,1.000000,100.000000,4.000000,4.000000,4.000000,4.000000,4.000000,4.000000,4.000000,4.000000,4.000000,4.000000,4.000000,4.000000,4.000000,4.000000,1.000000,0.350336,-0.524329,-1.548225,0.657363,1.000000,0.002878,2.496815,2.470082,11.758335,0.203126,1.000000,0.254947,23.671206,-82.714111,289.888397,1.000000,0.129002,0.102827,0.096620,0.242246,1.000000,0.363409,4.109647,-4.340013,17.288519,1.000000,0.393411,0.393411,0.000000,1.000000
1665773038.401459,1665773038.402119,30.000000,0.000000,4298.974121,4268.974121,4307.051270,4307.179688,4306.666504,4309.358887,4314.487305,4327.307617,4283.717773,4263.974121,4473.846191,4501.282227,4371.794922,4417.563965,0.000000,2.000000,50.000000,,,,0.000000,4.000000,4.000000,4.000000,4.000000,4.000000,4.000000,4.000000,4.000000,4.000000,4.000000,4.000000,4.000000,4.000000,4.000000,100.000000,,,,,,,,,,,,,,,,,,,,,,,,,,,,,,,,,,,,,,,,,,,,,,,
1665773038.409267,1665773038.410028,31.000000,0.000000,4303.846191,4280.256348,4308.077148,4310.000000,4305.897461,4305.769043,4310.512695,4328.077148,4295.641113,4284.871582,4477.820313,4496.666504,4380.769043,4418.974121,0.000000,2.000000,50.000000,,,,0.000000,4.000000,4.000000,4.000000,4.000000,4.000000,4.000000,4.000000,4.000000,4.000000,4.000000,4.000000,4.000000,4.000000,4.000000,100.000000,,,,,,,,,,,,,,,,,,,,,,,,,,,,,,,,,,,,,,,,,,,,,,,
1665773038.417075,1665773038.417836,32.000000,0.000000,4297.563965,4272.179688,4297.307617,4302.563965,4292.179688,4292.051270,4287.179688,4315.256348,4289.487305,4279.358887,4474.230957,4491.666504,4382.307617,4411.666504,0.000000,2.000000,50.000000,,,,0.000000,4.000000,4.000000,4.000000,4.000000,4.000000,4.000000,4.000000,4.000000,4.000000,4.000000,4.000000,4.000000,4.000000,4.000000,100.000000,,,,,,,,,,,,,,,,,,,,,,,,,,,,,,,,,,,,,,,,,,,,,,,
1665773038.424884,1665773038.425744,33.000000,0.000000,4290.000000,4266.410156,4288.846191,4294.615234,4286.922852,4277.692383,4275.769043,4296.410156,4280.128418,4268.205078,4472.307617,4485.512695,4377.820313,4400.384766,0.000000,2.000000,50.000000,,,,0.000000,4.000000,4.000000,4.000000,4.000000,4.000000,4.000000,4.000000,4.000000,4.000000,4.000000,4.000000,4.000000,4.000000,4.000000,100.000000,,,,,,,,,,,,,,,,,,,,,,,,,,,,,,,,,,,,,,,,,,,,,,,
1665773038.432692,1665773038.433553,34.000000,0.000000,4295.769043,4277.820313,4293.077148,4301.410156,4297.307617,4277.179688,4285.000000,4293.846191,4285.384766,4284.358887,4474.615234,4488.333496,4382.820313,4402.051270,0.000000,2.000000,50.000000,,,,0.000000,4.000000,4.000000,4.000000,4.000000,4.000000,4.000000,4.000000,4.000000,4.000000,4.000000,4.000000,4.000000,4.000000,4.000000,100.000000,,,,,,,,,,,,,,,,,,,,,,,,,,,,,,,,,,,,,,,,,,,,,,,
1665773038.440501,1665773038.441461,35.000000,0.000000,4299.358887,4273.974121,4295.128418,4301.538574,4294.487305,4279.743652,4282.179688,4293.461426,4285.384766,4279.487305,4467.820313,4488.974121,4387.307617,4407.307617,0.000000,2.000000,50.000000,,,,0.000000,4.000000,4.000000,4.000000,4.000000,4.000000,4.000000,4.000000,4.000000,4.000000,4.000000,4.000000,4.000000,4.000000,4.000000,100.000000,,,,,,,,,,,,,,,,,,,,,,,,,,,,,,,,,,,,,,,,,,,,,,,
1665773038.448309,1665773038.449270,36.000000,0.000000,4296.153809,4261.666504,4292.436035,4296.282227,4273.461426,4280.769043,4275.512695,4289.102539,4283.846191,4255.384766,4464.615234,4485.769043,4385.769043,4407.563965,0.000000,2.000000,50.000000,,,,0.000000,4.000000,4.000000,4.000000,4.000000,4.000000,4.000000,4.000000,4.000000,4.000000,4.000000,4.000000,4.000000,4.000000,4.000000,100.000000,,,,,,,,,,,,,,,,,,,,,,,,,,,,,,,,,,,,,,,,,,,,,,,
1665773038.456118,1665773038.457178,37.000000,0.000000,4296.025879,4263.589844,4295.256348,4302.563965,4266.538574,4288.974121,4288.205078,4298.717773,4295.384766,4273.589844,4473.717773,4493.974121,4390.897461,4409.871582,0.000000,2.000000,50.000000,,,,0.000000,4.000000,4.000000,4.000000,4.000000,4.000000,4.000000,4.000000,4.000000,4.000000,4.000000,4.000000,4.000000,4.000000,4.000000,100.000000,,,,,,,,,,,,,,,,,,,,,,,,,,,,,,,,,,,,,,,,,,,,,,,
1665773038.463926,1665773038.464986,38.000000,0.000000,4296.666504,4263.589844,4297.948730,4308.589844,4284.487305,4296.025879,4302.179688,4311.282227,4302.179688,4302.948730,4478.974121,4506.922852,4397.436035,4412.948730,0.000000,2.000000,50.000000,,,,0.000000,4.000000,4.000000,4.000000,4.000000,4.000000,4.000000,4.000000,4.000000,4.000000,4.000000,4.000000,4.000000,4.000000,4.000000,100.000000,,,,,,,,,,,,,,,,,,,,,,,,,,,,,,,,,,,,,,,,,,,,,,,
1665773038.471734,1665773038.472695,39.000000,0.000000,4298.589844,4263.461426,4299.615234,4308.589844,4294.487305,4301.410156,4305.769043,4318.717773,4301.153809,4293.589844,4478.589844,4508.205078,4398.077148,4412.179688,0.000000,2.000000,50.000000,,,,0.000000,4.000000,4.000000,4.000000,4.000000,4.000000,4.000000,4.000000,4.000000,4.000000,4.000000,4.000000,4.000000,4.000000,4.000000,100.000000,,,,,,,,,,,,,,,,,,,,,,,,,,,,,,,,,,,,,,,,,,,,,,,
1665773038.479543,1665773038.480503,40.000000,0.000000,4294.743652,4266.153809,4294.743652,4306.153809,4284.358887,4304.871582,4302.563965,4320.256348,4299.102539,4273.589844,4472.436035,4496.153809,4385.641113,4404.230957,0.000000,2.000000,50.000000,,,,0.000000,4.000000,4.000000,4.000000,4.000000,4.000000,4.000000,4.000000,4.000000,4.000000,4.000000,4.000000,4.000000,4.000000,4.000000,100.000000,,,,,,,,,,,,,,,,,,,,,,,,,,,,,,,,,,,,,,,,,,,,,,,
1665773038.487351,1665773038.488212,41.000000,0.000000,4283.846191,4254.230957,4283.333496,4296.666504,4280.000000,4298.589844,4294.487305,4305.000000,4284.743652,4263.589844,4456.794922,4477.820313,4366.538574,4394.358887,0.000000,2.000000,50.000000,,,,0.000000,4.000000,4.000000,4.000000,4.000000,4.000000,4.000000,4.000000,4.000000,4.000000,4.000000,4.000000,4.000000,4.000000,4.000000,100.000000,,,,,,,,,,,,,,,,,,,,,,,,,,,,,,,,,,,,,,,,,,,,,,,
1665773038.495160,1665773038.496020,42.000000,0.000000,4283.717773,4244.487305,4283.974121,4294.615234,4288.717773,4294.102539,4293.589844,4297.307617,4273.717773,4258.077148,4454.487305,4473.205078,4366.025879,4396.153809,0.000000,2.000000,50.000000,,,,0.000000,4.000000,4.000000,4.000000,4.000000,4.000000,4.000000,4.000000,4.000000,4.000000,4.000000,4.000000,4.000000,4.000000,4.000000,100.000000,,,,,,,,,,,,,,,,,,,,,,,,,,,,,,,,,,,,,,,,,,,,,,,
1665773038.502968,1665773038.503729,43.000000,0.000000,4294.358887,4254.102539,4293.974121,4304.487305,4297.051270,4296.282227,4296.282227,4310.769043,4279.743652,4267.307617,4465.384766,4481.794922,4377.948730,4405.256348,0.000000,2.000000,50.000000,,,,0.000000,4.000000,4.000000,4.000000,4.000000,4.000000,4.000000,4.000000,4.000000,4.000000,4.000000,4.000000,4.000000,4.000000,4.000000,100.000000,,,,,,,,,,,,,,,,,,,,,,,,,,,,,,,,,,,,,,,,,,,,,,,
1665773038.510776,1665773038.511537,44.000000,0.000000,4295.641113,4263.333496,4296.794922,4309.615234,4297.436035,4292.051270,4293.589844,4308.205078,4282.692383,4273.846191,4463.333496,4481.794922,4378.077148,4406.153809,0.000000,2.000000,50.000000,,,,0.000000,4.000000,4.000000,4.000000,4.000000,4.000000,4.000000,4.000000,4.000000,4.000000,4.000000,4.000000,4.000000,4.000000,4.000000,100.000000,,,,,,,,,,,,,,,,,,,,,,,,,,,,,,,,,,,,,,,,,,,,,,,
1665773038.518585,1665773038.519246,45.000000,0.000000,4288.974121,4262.948730,4292.307617,4306.922852,4295.512695,4289.230957,4289.615234,4293.589844,4279.358887,4260.769043,4459.230957,4475.256348,4370.384766,4401.538574,0.000000,2.000000,50.000000,,,,0.000000,4.000000,4.000000,4.000000,4.000000,4.000000,4.000000,4.000000,4.000000,4.000000,4.000000,4.000000,4.000000,4.000000,4.000000,100.000000,,,,,,,,,,,,,,,,,,,,,,,,,,,,,,,,,,,,,,,,,,,,,,,
1665773038.526393,1665773038.527054,46.000000,0.000000,4286.794922,4262.051270,4287.692383,4300.769043,4296.153809,4290.641113,4284.102539,4292.948730,4278.077148,4255.128418,4460.641113,4474.871582,4367.307617,4398.333496,0.000000,2.000000,50.000000,,,,0.000000,4.000000,4.000000,4.000000,4.000000,4.000000,4.000000,4.000000,4.000000,4.000000,4.000000,4.000000,4.000000,4.000000,4.000000,100.000000,,,,,,,,,,,,,,,,,,,,,,,,,,,,,,,,,,,,,,,,,,,,,,,
1665773038.534202,1665773038.534763,47.000000,0.000000,4290.000000,4268.077148,4284.871582,4296.922852,4295.256348,4285.000000,4282.051270,4292.436035,4279.487305,4261.666504,4459.743652,4478.589844,4366.538574,4395.769043,0.000000,2.000000,50.000000,,,,0.000000,4.000000,4.000000,4.000000,4.000000,4.000000,4.000000,4.000000,4.000000,4.000000,4.000000,4.000000,4.000000,4.000000,4.000000,100.000000,,,,,,,,,,,,,,,,,,,,,,,,,,,,,,,,,,,,,,,,,,,,,,,
1665773038.542010,1665773038.542571,48.000000,0.000000,4292.820313,4273.589844,4284.358887,4300.512695,4287.051270,4283.974121,4292.051270,4303.205078,4288.205078,4267.051270,4467.436035,4487.692383,4373.846191,4403.461426,0.000000,2.000000,50.000000,,,,0.000000,4.000000,4.000000,4.000000,4.000000,4.000000,4.000000,4.000000,4.000000,4.000000,4.000000,4.000000,4.000000,4.000000,4.000000,100.000000,,,,,,,,,,,,,,,,,,,,,,,,,,,,,,,,,,,,,,,,,,,,,,,
1665773038.549818,1665773038.550280,49.000000,0.000000,4295.384766,4277.051270,4288.846191,4307.563965,4278.077148,4293.589844,4299.615234,4322.051270,4301.794922,4276.922852,4478.333496,4498.846191,4386.282227,4414.615234,0.000000,2.000000,50.000000,,,,0.000000,4.000000,4.000000,4.000000,4.000000,4.000000,4.000000,4.000000,4.000000,4.000000,4.000000,4.000000,4.000000,4.000000,4.000000,100.000000,,,,,,,,,,,,,,,,,,,,,,,,,,,,,,,,,,,,,,,,,,,,,,,
1665773038.557627,1665773038.558088,50.000000,0.000000,4298.717773,4281.794922,4290.000000,4314.358887,4279.615234,4296.922852,4295.256348,4313.205078,4305.000000,4289.743652,4475.769043,4496.666504,4389.743652,4414.230957,0.000000,2.000000,50.000000,,,,0.000000,4.000000,4.000000,4.000000,4.000000,4.000000,4.000000,4.000000,4.000000,4.000000,4.000000,4.000000,4.000000,4.000000,4.000000,100.000000,,,,,,,,,,,,,,,,,,,,,,,,,,,,,,,,,,,,,,,,,,,,,,,
1665773038.565435,1665773038.565797,51.000000,0.000000,4302.051270,4285.897461,4291.922852,4321.666504,4284.871582,4295.641113,4294.615234,4302.179688,4298.333496,4292.948730,4474.102539,4494.871582,4390.384766,4413.974121,0.000000,2.000000,50.000000,,,,0.000000,4.000000,4.000000,4.000000,4.000000,4.000000,4.000000,4.000000,4.000000,4.000000,4.000000,4.000000,4.000000,4.000000,4.000000,100.000000,,,,,,,,,,,,,,,,,,,,,,,,,,,,,,,,,,,,,,,,,,,,,,,
1665773038.573244,1665773038.573605,52.000000,0.000000,4298.717773,4282.179688,4293.589844,4319.871582,4286.410156,4297.436035,4294.102539,4309.871582,4288.205078,4289.487305,4477.307617,4498.461426,4388.846191,4413.205078,0.000000,2.000000,50.000000,,,,0.000000,4.000000,4.000000,4.000000,4.000000,4.000000,4.000000,4.000000,4.000000,4.000000,4.000000,4.000000,4.000000,4.000000,4.000000,100.000000,,,,,,,,,,,,,,,,,,,,,,,,,,,,,,,,,,,,,,,,,,,,,,,
1665773038.581052,1665773038.581314,53.000000,0.000000,4295.128418,4274.358887,4290.256348,4310.641113,4288.205078,4295.897461,4285.000000,4307.436035,4279.358887,4280.384766,4473.461426,4493.589844,4377.948730,4407.948730,0.000000,2.000000,50.000000,,,,0.000000,4.000000,4.000000,4.000000,4.000000,4.000000,4.000000,4.000000,4.000000,4.000000,4.000000,4.000000,4.000000,4.000000,4.000000,100.000000,,,,,,,,,,,,,,,,,,,,,,,,,,,,,,,,,,,,,,,,,,,,,,,
